SpectraSuite Data File
++++++++++++++++++++++++++++++++++++
Date: Wed Sep 04 18:02:44 EDT 2013
User: lab3
Dark Spectrum Present: Yes
Reference Spectrum Present: No
Number of Sampled Component Spectra: 1
Spectrometers: USB2E7196
Integration Time (usec): 170000 (USB2E7196)
Spectra Averaged: 20 (USB2E7196)
Boxcar Smoothing: 10 (USB2E7196)
Correct for Electrical Dark: No (USB2E7196)
Strobe/Lamp Enabled: No (USB2E7196)
Correct for Detector Non-linearity: No (USB2E7196)
Correct for Stray Light: No (USB2E7196)
Number of Pixels in Processed Spectrum: 2048
>>>>>Begin Processed Spectral Data<<<<<
339.09	0.00
339.48	212.20
339.86	215.05
340.24	215.65
340.63	217.10
341.01	225.85
341.39	220.65
341.78	222.35
342.16	224.40
342.54	222.70
342.93	212.64
343.31	223.33
343.69	223.98
344.07	224.41
344.46	224.95
344.84	225.45
345.22	225.45
345.60	225.78
345.99	225.98
346.37	226.15
346.75	226.25
347.13	226.36
347.52	226.43
347.90	226.65
348.28	226.70
348.66	226.82
349.05	226.65
349.43	226.70
349.81	226.80
350.19	226.82
350.57	226.81
350.96	226.95
351.34	227.11
351.72	227.15
352.10	227.27
352.48	227.20
352.87	227.12
353.25	227.22
353.63	227.15
354.01	227.21
354.39	227.22
354.77	227.29
355.15	227.50
355.54	227.54
355.92	227.40
356.30	227.50
356.68	227.79
357.06	227.96
357.44	227.98
357.82	227.99
358.20	228.39
358.58	228.39
358.97	228.45
359.35	228.60
359.73	228.76
360.11	228.82
360.49	229.02
360.87	229.16
361.25	229.15
361.63	229.46
362.01	229.44
362.39	229.40
362.77	229.49
363.15	229.47
363.53	229.45
363.91	229.55
364.29	229.49
364.67	229.17
365.05	229.17
365.43	229.30
365.81	229.37
366.19	229.30
366.57	229.61
366.95	229.60
367.33	229.45
367.71	229.42
368.09	229.50
368.47	229.43
368.85	229.41
369.23	229.58
369.61	229.36
369.99	229.58
370.37	229.66
370.75	229.92
371.13	229.80
371.51	229.79
371.89	229.83
372.27	229.87
372.65	229.86
373.03	229.87
373.41	229.78
373.78	229.74
374.16	229.48
374.54	229.27
374.92	229.16
375.30	229.16
375.68	229.06
376.06	229.08
376.44	229.01
376.82	229.01
377.19	228.90
377.57	228.87
377.95	228.65
378.33	228.55
378.71	228.21
379.09	228.21
379.47	228.28
379.84	228.13
380.22	228.03
380.60	227.87
380.98	227.75
381.36	227.73
381.73	227.57
382.11	227.58
382.49	227.51
382.87	227.39
383.25	227.33
383.62	227.79
384.00	227.58
384.38	227.56
384.76	227.54
385.13	227.70
385.51	227.64
385.89	227.54
386.27	227.53
386.64	227.53
387.02	227.47
387.40	227.28
387.78	227.29
388.15	227.33
388.53	227.31
388.91	227.22
389.29	227.15
389.66	227.17
390.04	227.02
390.42	227.11
390.79	227.19
391.17	227.14
391.55	226.61
391.92	226.65
392.30	226.75
392.68	226.74
393.05	226.69
393.43	226.66
393.81	226.71
394.18	226.66
394.56	226.70
394.94	226.80
395.31	226.80
395.69	226.96
396.06	226.99
396.44	227.10
396.82	227.11
397.19	227.37
397.57	227.48
397.95	227.63
398.32	227.51
398.70	227.66
399.07	227.89
399.45	227.89
399.82	227.92
400.20	227.88
400.58	227.85
400.95	227.70
401.33	227.93
401.70	228.46
402.08	228.61
402.45	228.67
402.83	228.89
403.20	229.09
403.58	229.13
403.95	229.37
404.33	229.57
404.71	229.79
405.08	230.21
405.46	230.37
405.83	230.66
406.21	231.00
406.58	231.22
406.96	231.47
407.33	231.93
407.70	232.31
408.08	233.06
408.45	233.48
408.83	234.02
409.20	234.34
409.58	234.40
409.95	234.97
410.33	235.53
410.70	235.92
411.08	236.55
411.45	237.16
411.82	237.73
412.20	238.56
412.57	239.59
412.95	239.93
413.32	240.87
413.69	241.67
414.07	242.60
414.44	243.53
414.82	244.47
415.19	245.59
415.56	246.81
415.94	247.76
416.31	249.37
416.68	250.77
417.06	252.39
417.43	254.05
417.81	255.83
418.18	257.70
418.55	259.70
418.93	261.76
419.30	263.86
419.67	266.13
420.04	268.35
420.42	270.61
420.79	273.71
421.16	276.45
421.54	279.51
421.91	282.52
422.28	285.69
422.66	289.08
423.03	292.67
423.40	296.05
423.77	299.62
424.15	303.12
424.52	306.97
424.89	311.23
425.26	315.22
425.64	318.99
426.01	323.14
426.38	327.51
426.75	332.05
427.13	336.70
427.50	341.46
427.87	346.43
428.24	351.43
428.61	356.00
428.99	361.32
429.36	366.83
429.73	372.38
430.10	377.89
430.47	383.50
430.85	389.07
431.22	395.26
431.59	402.23
431.96	408.45
432.33	415.40
432.70	422.10
433.08	429.93
433.45	437.40
433.82	444.80
434.19	453.06
434.56	461.16
434.93	468.87
435.30	476.63
435.68	485.30
436.05	493.75
436.42	502.02
436.79	509.69
437.16	518.08
437.53	526.88
437.90	535.78
438.27	544.53
438.64	553.50
439.01	561.93
439.38	569.10
439.75	576.35
440.13	584.44
440.50	592.08
440.87	598.24
441.24	604.67
441.61	611.91
441.98	616.90
442.35	622.83
442.72	628.91
443.09	634.85
443.46	638.19
443.83	640.39
444.20	642.43
444.57	645.19
444.94	646.21
445.31	647.26
445.68	648.56
446.05	648.61
446.42	647.31
446.79	645.88
447.16	644.28
447.53	642.96
447.90	639.26
448.27	635.54
448.64	630.72
449.01	627.05
449.37	620.71
449.74	614.71
450.11	607.76
450.48	599.90
450.85	591.76
451.22	584.93
451.59	578.49
451.96	572.14
452.33	564.00
452.70	556.66
453.07	547.91
453.43	538.80
453.80	530.31
454.17	522.21
454.54	514.33
454.91	505.92
455.28	497.84
455.65	490.29
456.02	483.23
456.38	476.71
456.75	468.87
457.12	462.36
457.49	456.00
457.86	449.64
458.23	444.50
458.59	438.74
458.96	432.91
459.33	427.72
459.70	422.58
460.07	418.44
460.43	413.71
460.80	409.44
461.17	405.49
461.54	401.65
461.91	397.79
462.27	393.95
462.64	390.75
463.01	387.38
463.38	384.09
463.74	380.11
464.11	377.04
464.48	374.35
464.85	371.45
465.21	369.33
465.58	366.91
465.95	363.99
466.32	361.87
466.68	359.61
467.05	357.37
467.42	355.26
467.78	353.00
468.15	350.84
468.52	349.41
468.88	347.26
469.25	345.28
469.62	343.82
469.98	342.26
470.35	340.77
470.72	339.22
471.08	337.52
471.45	336.21
471.82	335.21
472.18	333.78
472.55	332.78
472.92	331.51
473.28	330.43
473.65	329.39
474.02	328.23
474.38	327.29
474.75	326.63
475.11	325.61
475.48	324.93
475.85	324.33
476.21	323.54
476.58	323.08
476.94	322.61
477.31	322.07
477.67	321.54
478.04	321.23
478.41	321.01
478.77	321.28
479.14	321.02
479.50	320.74
479.87	320.76
480.23	320.70
480.60	320.67
480.96	320.72
481.33	321.12
481.69	321.32
482.06	321.59
482.42	321.72
482.79	322.21
483.15	322.67
483.52	323.30
483.88	323.82
484.25	324.37
484.61	325.07
484.98	325.73
485.34	326.78
485.71	327.70
486.07	328.69
486.44	329.20
486.80	330.37
487.17	331.49
487.53	332.84
487.90	334.29
488.26	335.98
488.62	337.63
488.99	339.05
489.35	340.84
489.72	342.70
490.08	344.75
490.44	346.82
490.81	349.12
491.17	351.28
491.54	353.83
491.90	356.35
492.26	359.03
492.63	361.84
492.99	364.64
493.36	367.75
493.72	370.96
494.08	374.42
494.45	378.18
494.81	382.09
495.17	385.91
495.54	390.05
495.90	394.11
496.26	398.53
496.63	403.43
496.99	408.26
497.35	413.35
497.72	418.55
498.08	423.90
498.44	429.48
498.80	435.53
499.17	441.40
499.53	447.69
499.89	454.29
500.26	461.12
500.62	468.19
500.98	475.56
501.34	483.05
501.71	490.84
502.07	498.69
502.43	506.88
502.79	515.39
503.16	524.18
503.52	533.32
503.88	542.56
504.24	552.12
504.60	562.14
504.97	572.58
505.33	583.18
505.69	594.31
506.05	605.31
506.41	616.75
506.78	628.54
507.14	640.64
507.50	653.09
507.86	665.80
508.22	678.89
508.59	691.96
508.95	705.75
509.31	719.91
509.67	734.06
510.03	748.35
510.39	763.11
510.75	778.06
511.12	793.24
511.48	808.88
511.84	824.61
512.20	840.51
512.56	856.79
512.92	873.47
513.28	890.37
513.64	907.59
514.00	925.05
514.37	942.75
514.73	960.90
515.09	979.13
515.45	997.55
515.81	1015.78
516.17	1034.67
516.53	1053.26
516.89	1072.28
517.25	1091.73
517.61	1112.14
517.97	1132.51
518.33	1152.78
518.69	1173.17
519.05	1193.84
519.41	1214.65
519.77	1236.11
520.13	1256.83
520.49	1277.78
520.85	1300.00
521.21	1321.26
521.57	1342.70
521.93	1363.75
522.29	1385.04
522.65	1406.10
523.01	1427.32
523.37	1448.11
523.73	1469.29
524.09	1490.08
524.45	1510.79
524.81	1531.95
525.17	1552.55
525.53	1573.17
525.89	1593.85
526.25	1614.80
526.61	1635.40
526.97	1656.57
527.33	1677.63
527.68	1699.63
528.04	1720.76
528.40	1740.74
528.76	1761.88
529.12	1782.28
529.48	1802.99
529.84	1823.15
530.20	1844.02
530.56	1864.66
530.91	1885.81
531.27	1906.23
531.63	1927.02
531.99	1947.65
532.35	1967.82
532.71	1988.37
533.07	2009.18
533.42	2029.11
533.78	2049.22
534.14	2069.17
534.50	2088.50
534.86	2107.70
535.21	2125.49
535.57	2144.45
535.93	2162.20
536.29	2180.10
536.65	2198.28
537.00	2216.04
537.36	2233.74
537.72	2250.50
538.08	2267.93
538.44	2284.63
538.79	2301.32
539.15	2317.96
539.51	2334.01
539.87	2349.26
540.22	2363.51
540.58	2377.97
540.94	2391.88
541.29	2404.62
541.65	2417.46
542.01	2430.05
542.37	2440.99
542.72	2452.28
543.08	2463.10
543.44	2474.76
543.79	2485.16
544.15	2495.04
544.51	2505.28
544.87	2515.25
545.22	2524.05
545.58	2531.55
545.94	2538.80
546.29	2545.29
546.65	2551.78
547.01	2557.48
547.36	2563.23
547.72	2568.57
548.07	2572.54
548.43	2577.90
548.79	2582.80
549.14	2586.78
549.50	2590.63
549.86	2594.33
550.21	2597.78
550.57	2601.08
550.92	2602.79
551.28	2604.20
551.64	2606.74
551.99	2608.61
552.35	2610.16
552.70	2612.15
553.06	2614.23
553.41	2615.68
553.77	2617.77
554.13	2619.42
554.48	2621.05
554.84	2622.62
555.19	2623.96
555.55	2625.76
555.90	2624.41
556.26	2623.72
556.61	2622.63
556.97	2620.60
557.32	2620.08
557.68	2619.08
558.03	2617.78
558.39	2616.63
558.74	2615.78
559.10	2612.86
559.45	2609.86
559.81	2605.68
560.16	2600.98
560.52	2596.30
560.87	2591.96
561.23	2586.34
561.58	2580.12
561.94	2573.18
562.29	2565.56
562.64	2558.73
563.00	2550.47
563.35	2544.79
563.71	2538.11
564.06	2531.68
564.42	2524.94
564.77	2518.00
565.12	2510.50
565.48	2502.16
565.83	2494.32
566.19	2486.77
566.54	2478.75
566.89	2470.18
567.25	2462.31
567.60	2454.93
567.96	2447.27
568.31	2439.44
568.66	2430.55
569.02	2421.63
569.37	2413.71
569.72	2405.88
570.08	2396.36
570.43	2387.00
570.78	2377.50
571.14	2368.08
571.49	2357.97
571.84	2348.57
572.20	2337.84
572.55	2327.71
572.90	2316.83
573.26	2306.48
573.61	2294.75
573.96	2283.96
574.31	2272.21
574.67	2260.18
575.02	2247.32
575.37	2234.58
575.72	2221.07
576.08	2209.27
576.43	2196.74
576.78	2183.41
577.13	2169.73
577.49	2156.90
577.84	2145.00
578.19	2132.86
578.54	2120.35
578.90	2108.18
579.25	2095.54
579.60	2083.18
579.95	2070.17
580.30	2057.22
580.66	2043.42
581.01	2029.71
581.36	2015.24
581.71	2002.41
582.06	1989.59
582.42	1977.17
582.77	1964.53
583.12	1952.39
583.47	1939.76
583.82	1927.57
584.17	1915.65
584.53	1903.96
584.88	1891.15
585.23	1877.96
585.58	1863.77
585.93	1850.05
586.28	1836.26
586.63	1822.30
586.98	1807.90
587.34	1794.65
587.69	1781.60
588.04	1769.09
588.39	1757.03
588.74	1744.82
589.09	1732.69
589.44	1719.85
589.79	1707.56
590.14	1695.55
590.49	1683.67
590.84	1671.56
591.19	1659.61
591.54	1647.13
591.89	1634.94
592.25	1624.66
592.60	1613.00
592.95	1601.77
593.30	1590.02
593.65	1578.40
594.00	1566.39
594.35	1556.72
594.70	1544.74
595.05	1533.17
595.40	1520.91
595.75	1508.94
596.10	1497.84
596.45	1486.32
596.80	1475.56
597.15	1464.01
597.50	1451.93
597.85	1440.39
598.19	1428.77
598.54	1417.04
598.89	1405.78
599.24	1395.10
599.59	1383.25
599.94	1372.36
600.29	1361.49
600.64	1350.89
600.99	1340.07
601.34	1330.56
601.69	1319.00
602.04	1309.10
602.39	1299.38
602.74	1289.91
603.08	1280.49
603.43	1271.13
603.78	1261.28
604.13	1251.34
604.48	1241.83
604.83	1232.06
605.18	1222.25
605.53	1212.76
605.87	1203.67
606.22	1194.89
606.57	1185.34
606.92	1175.85
607.27	1166.56
607.62	1157.84
607.96	1149.11
608.31	1141.08
608.66	1132.73
609.01	1124.23
609.36	1115.55
609.70	1106.84
610.05	1098.09
610.40	1089.54
610.75	1080.52
611.10	1072.18
611.44	1063.67
611.79	1055.27
612.14	1047.40
612.49	1039.34
612.83	1031.70
613.18	1023.66
613.53	1015.76
613.88	1007.68
614.22	1000.00
614.57	992.16
614.92	984.13
615.27	976.73
615.61	968.96
615.96	961.15
616.31	953.59
616.65	946.65
617.00	939.05
617.35	932.16
617.70	924.99
618.04	917.88
618.39	910.73
618.74	904.21
619.08	897.12
619.43	890.10
619.78	883.16
620.12	875.88
620.47	869.11
620.82	862.07
621.16	855.52
621.51	849.15
621.85	842.69
622.20	836.03
622.55	829.19
622.89	822.61
623.24	815.97
623.59	809.53
623.93	802.93
624.28	796.89
624.62	791.03
624.97	785.10
625.32	779.25
625.66	773.24
626.01	766.91
626.35	761.41
626.70	755.77
627.04	750.50
627.39	744.98
627.73	739.47
628.08	734.21
628.43	728.55
628.77	722.85
629.12	717.61
629.46	712.93
629.81	708.11
630.15	703.25
630.50	698.46
630.84	693.58
631.19	688.76
631.53	684.13
631.88	678.75
632.22	673.74
632.57	669.21
632.91	664.56
633.26	660.09
633.60	655.38
633.95	650.52
634.29	645.67
634.64	641.09
634.98	636.26
635.32	631.85
635.67	627.82
636.01	623.58
636.36	619.12
636.70	614.85
637.05	610.70
637.39	606.56
637.73	602.30
638.08	598.26
638.42	594.06
638.77	589.72
639.11	585.32
639.45	580.91
639.80	576.62
640.14	572.47
640.49	568.37
640.83	564.56
641.17	561.01
641.52	557.19
641.86	553.60
642.20	550.44
642.55	546.71
642.89	543.17
643.23	539.76
643.58	536.59
643.92	532.91
644.26	529.55
644.61	526.22
644.95	522.82
645.29	519.33
645.64	516.23
645.98	513.10
646.32	510.23
646.66	507.19
647.01	504.08
647.35	501.35
647.69	498.43
648.04	495.66
648.38	492.80
648.72	489.91
649.06	486.76
649.41	483.56
649.75	480.55
650.09	477.55
650.43	474.65
650.78	471.75
651.12	469.00
651.46	465.98
651.80	463.18
652.14	460.58
652.49	458.14
652.83	455.40
653.17	452.75
653.51	450.05
653.85	447.76
654.20	445.25
654.54	442.53
654.88	439.94
655.22	437.57
655.56	435.11
655.90	432.67
656.25	430.46
656.59	428.14
656.93	425.92
657.27	423.95
657.61	421.41
657.95	419.16
658.29	416.91
658.64	414.75
658.98	412.38
659.32	410.12
659.66	407.91
660.00	405.71
660.34	403.67
660.68	401.60
661.02	399.34
661.36	397.38
661.70	395.34
662.05	393.41
662.39	391.34
662.73	389.56
663.07	388.01
663.41	386.18
663.75	384.39
664.09	382.60
664.43	380.55
664.77	378.97
665.11	377.16
665.45	375.46
665.79	373.89
666.13	372.26
666.47	370.55
666.81	368.76
667.15	367.11
667.49	365.58
667.83	364.25
668.17	362.88
668.51	361.30
668.85	359.95
669.19	358.91
669.53	357.42
669.87	355.80
670.21	354.13
670.55	352.77
670.89	351.60
671.23	350.16
671.57	348.75
671.91	347.35
672.25	345.93
672.58	344.77
672.92	343.39
673.26	342.18
673.60	340.95
673.94	339.79
674.28	338.63
674.62	337.45
674.96	336.20
675.30	334.96
675.64	333.83
675.97	332.61
676.31	331.15
676.65	329.88
676.99	328.90
677.33	327.77
677.67	326.70
678.01	325.40
678.34	324.37
678.68	323.49
679.02	322.47
679.36	321.58
679.70	320.52
680.04	319.62
680.37	318.61
680.71	317.65
681.05	316.76
681.39	315.97
681.73	314.98
682.06	313.99
682.40	313.13
682.74	312.29
683.08	311.62
683.42	310.68
683.75	309.91
684.09	308.97
684.43	308.11
684.77	307.23
685.10	306.44
685.44	305.63
685.78	304.74
686.12	303.97
686.45	303.15
686.79	302.31
687.13	301.59
687.46	300.92
687.80	300.24
688.14	299.47
688.48	298.65
688.81	297.91
689.15	297.35
689.49	296.62
689.82	295.92
690.16	295.00
690.50	294.46
690.83	293.73
691.17	292.99
691.51	292.37
691.84	291.71
692.18	291.04
692.52	290.42
692.85	289.79
693.19	289.31
693.52	288.73
693.86	288.09
694.20	287.44
694.53	286.80
694.87	286.11
695.21	285.38
695.54	284.77
695.88	284.08
696.21	283.33
696.55	282.70
696.88	282.07
697.22	281.49
697.56	280.86
697.89	280.21
698.23	279.73
698.56	279.14
698.90	278.65
699.23	278.06
699.57	277.47
699.90	276.87
700.24	276.17
700.58	275.62
700.91	275.17
701.25	275.01
701.58	274.80
701.92	274.47
702.25	274.10
702.59	273.60
702.92	273.18
703.26	272.80
703.59	272.37
703.93	272.30
704.26	271.98
704.60	271.56
704.93	271.12
705.26	270.65
705.60	270.30
705.93	269.72
706.27	269.44
706.60	269.13
706.94	268.98
707.27	268.67
707.61	268.35
707.94	267.93
708.27	267.13
708.61	266.38
708.94	265.95
709.28	265.49
709.61	265.09
709.94	264.73
710.28	264.35
710.61	264.05
710.95	263.27
711.28	263.16
711.61	262.75
711.95	262.57
712.28	262.15
712.61	261.85
712.95	261.79
713.28	261.65
713.61	261.19
713.95	260.69
714.28	260.30
714.61	259.90
714.95	259.65
715.28	259.28
715.61	258.95
715.95	258.58
716.28	258.27
716.61	258.06
716.95	257.77
717.28	257.41
717.61	257.02
717.94	256.71
718.28	256.07
718.61	255.76
718.94	255.44
719.27	255.16
719.61	254.90
719.94	254.53
720.27	254.07
720.60	253.89
720.94	253.60
721.27	253.44
721.60	253.24
721.93	252.81
722.27	252.78
722.60	252.66
722.93	252.41
723.26	252.31
723.59	252.03
723.93	251.82
724.26	251.61
724.59	251.41
724.92	251.26
725.25	251.19
725.59	250.99
725.92	250.80
726.25	250.67
726.58	250.40
726.91	250.18
727.24	249.97
727.57	249.77
727.91	249.59
728.24	249.38
728.57	249.20
728.90	249.10
729.23	248.71
729.56	248.75
729.89	248.60
730.22	248.30
730.55	248.09
730.89	247.93
731.22	247.71
731.55	247.57
731.88	247.48
732.21	247.14
732.54	247.01
732.87	246.87
733.20	246.74
733.53	246.64
733.86	246.49
734.19	246.30
734.52	246.17
734.85	246.38
735.18	246.14
735.51	246.17
735.84	246.09
736.17	246.10
736.50	245.65
736.83	246.02
737.16	245.99
737.49	245.84
737.82	245.65
738.15	245.63
738.48	245.50
738.81	245.30
739.14	245.20
739.47	244.94
739.80	244.81
740.13	244.70
740.46	244.51
740.79	244.30
741.12	244.18
741.45	243.98
741.78	243.51
742.11	243.49
742.44	243.16
742.77	243.13
743.10	242.93
743.43	242.82
743.75	242.19
744.08	242.60
744.41	242.38
744.74	242.24
745.07	242.03
745.40	241.95
745.73	241.96
746.06	241.81
746.39	241.80
746.71	241.57
747.04	241.38
747.37	241.18
747.70	241.19
748.03	241.03
748.36	240.99
748.68	240.84
749.01	240.66
749.34	240.57
749.67	240.34
750.00	240.28
750.33	240.46
750.65	240.35
750.98	239.67
751.31	239.70
751.64	239.63
751.97	239.74
752.29	239.62
752.62	239.34
752.95	239.12
753.28	238.95
753.60	238.80
753.93	238.80
754.26	238.75
754.59	238.43
754.91	238.28
755.24	238.17
755.57	238.07
755.90	237.82
756.22	237.63
756.55	237.49
756.88	237.31
757.20	236.85
757.53	236.61
757.86	236.42
758.19	236.27
758.51	236.16
758.84	235.80
759.17	235.64
759.49	235.56
759.82	235.74
760.15	235.68
760.47	235.56
760.80	235.34
761.13	235.32
761.45	235.25
761.78	235.15
762.11	235.00
762.43	234.89
762.76	234.84
763.08	234.83
763.41	234.82
763.74	234.76
764.06	234.77
764.39	234.72
764.71	234.63
765.04	234.55
765.37	234.44
765.69	234.37
766.02	234.28
766.34	234.14
766.67	233.96
767.00	233.95
767.32	234.14
767.65	234.41
767.97	234.30
768.30	234.28
768.62	234.30
768.95	234.21
769.27	234.11
769.60	234.15
769.92	234.03
770.25	233.89
770.57	233.72
770.90	233.61
771.22	233.53
771.55	233.50
771.87	233.43
772.20	233.35
772.52	233.69
772.85	234.14
773.17	234.10
773.50	234.06
773.82	233.96
774.15	233.73
774.47	233.33
774.80	233.16
775.12	233.06
775.45	232.99
775.77	232.94
776.09	232.95
776.42	232.95
776.74	233.01
777.07	232.95
777.39	232.96
777.72	232.92
778.04	232.99
778.36	232.98
778.69	232.93
779.01	232.91
779.33	232.42
779.66	231.89
779.98	231.86
780.31	231.80
780.63	231.96
780.95	231.93
781.28	231.93
781.60	231.94
781.92	231.92
782.25	231.79
782.57	231.81
782.89	231.74
783.22	231.65
783.54	231.58
783.86	231.58
784.19	231.53
784.51	231.60
784.83	231.51
785.16	231.34
785.48	231.35
785.80	231.39
786.12	231.46
786.45	231.41
786.77	231.41
787.09	231.35
787.42	231.14
787.74	231.19
788.06	231.10
788.38	231.03
788.71	231.01
789.03	231.10
789.35	231.10
789.67	230.97
789.99	230.95
790.32	230.90
790.64	230.99
790.96	231.30
791.28	231.15
791.61	231.04
791.93	231.18
792.25	231.12
792.57	231.29
792.89	231.15
793.21	231.16
793.54	231.09
793.86	231.04
794.18	230.98
794.50	230.90
794.82	230.92
795.14	230.98
795.47	231.04
795.79	230.98
796.11	230.91
796.43	230.96
796.75	230.96
797.07	230.93
797.39	230.73
797.71	230.42
798.04	230.42
798.36	230.47
798.68	230.33
799.00	230.35
799.32	230.18
799.64	230.26
799.96	230.25
800.28	230.33
800.60	230.24
800.92	230.26
801.24	230.18
801.56	230.21
801.89	230.18
802.21	230.13
802.53	230.01
802.85	230.03
803.17	230.20
803.49	230.07
803.81	230.04
804.13	230.03
804.45	229.93
804.77	229.95
805.09	229.89
805.41	229.86
805.73	229.78
806.05	229.60
806.37	229.56
806.69	229.47
807.01	229.37
807.33	229.44
807.65	229.30
807.97	229.46
808.28	229.34
808.60	229.30
808.92	229.24
809.24	229.56
809.56	229.50
809.88	229.28
810.20	229.30
810.52	229.31
810.84	229.22
811.16	229.15
811.48	229.16
811.80	229.35
812.12	229.32
812.43	229.33
812.75	229.35
813.07	229.32
813.39	229.36
813.71	229.26
814.03	229.20
814.35	229.15
814.67	228.96
814.98	228.94
815.30	228.89
815.62	228.75
815.94	228.38
816.26	228.56
816.58	228.50
816.89	228.52
817.21	228.42
817.53	228.47
817.85	228.56
