SpectraSuite Data File
++++++++++++++++++++++++++++++++++++
Date: Wed Sep 04 18:04:42 EDT 2013
User: lab3
Dark Spectrum Present: Yes
Reference Spectrum Present: No
Number of Sampled Component Spectra: 1
Spectrometers: USB2E7196
Integration Time (usec): 170000 (USB2E7196)
Spectra Averaged: 20 (USB2E7196)
Boxcar Smoothing: 10 (USB2E7196)
Correct for Electrical Dark: No (USB2E7196)
Strobe/Lamp Enabled: No (USB2E7196)
Correct for Detector Non-linearity: No (USB2E7196)
Correct for Stray Light: No (USB2E7196)
Number of Pixels in Processed Spectrum: 2048
>>>>>Begin Processed Spectral Data<<<<<
339.09	0.00
339.48	212.50
339.86	213.85
340.24	217.50
340.63	218.60
341.01	225.65
341.39	221.30
341.78	222.30
342.16	224.45
342.54	223.05
342.93	212.94
343.31	223.64
343.69	224.26
344.07	224.84
344.46	225.24
344.84	225.62
345.22	225.61
345.60	225.90
345.99	226.11
346.37	226.18
346.75	226.31
347.13	226.33
347.52	226.40
347.90	226.50
348.28	226.53
348.66	226.62
349.05	226.48
349.43	226.57
349.81	226.58
350.19	226.64
350.57	226.68
350.96	226.80
351.34	226.88
351.72	226.95
352.10	227.04
352.48	227.04
352.87	227.09
353.25	227.12
353.63	227.11
354.01	227.13
354.39	227.23
354.77	227.26
355.15	227.50
355.54	227.47
355.92	227.45
356.30	227.54
356.68	227.88
357.06	227.92
357.44	227.91
357.82	227.94
358.20	228.34
358.58	228.39
358.97	228.39
359.35	228.60
359.73	228.77
360.11	228.79
360.49	228.94
360.87	229.01
361.25	229.19
361.63	229.38
362.01	229.56
362.39	229.61
362.77	229.71
363.15	229.66
363.53	229.72
363.91	229.75
364.29	229.75
364.67	229.45
365.05	229.48
365.43	229.55
365.81	229.67
366.19	229.56
366.57	229.84
366.95	229.88
367.33	229.72
367.71	229.66
368.09	229.77
368.47	229.78
368.85	229.77
369.23	229.89
369.61	229.79
369.99	229.83
370.37	229.85
370.75	230.07
371.13	229.99
371.51	229.97
371.89	229.99
372.27	230.03
372.65	230.00
373.03	230.02
373.41	229.96
373.78	229.89
374.16	229.63
374.54	229.40
374.92	229.32
375.30	229.31
375.68	229.18
376.06	229.11
376.44	228.99
376.82	228.86
377.19	228.73
377.57	228.62
377.95	228.46
378.33	228.42
378.71	228.03
379.09	228.08
379.47	228.07
379.84	227.89
380.22	227.74
380.60	227.59
380.98	227.50
381.36	227.36
381.73	227.20
382.11	227.28
382.49	227.23
382.87	227.15
383.25	227.06
383.62	227.51
384.00	227.34
384.38	227.28
384.76	227.37
385.13	227.50
385.51	227.42
385.89	227.27
386.27	227.25
386.64	227.28
387.02	227.20
387.40	227.08
387.78	227.12
388.15	227.19
388.53	227.17
388.91	227.12
389.29	227.13
389.66	227.27
390.04	227.10
390.42	227.12
390.79	227.06
391.17	227.10
391.55	226.58
391.92	226.59
392.30	226.66
392.68	226.61
393.05	226.58
393.43	226.57
393.81	226.57
394.18	226.47
394.56	226.54
394.94	226.60
395.31	226.65
395.69	226.77
396.06	226.80
396.44	226.80
396.82	226.87
397.19	227.19
397.57	227.15
397.95	227.23
398.32	227.12
398.70	227.30
399.07	227.53
399.45	227.66
399.82	227.78
400.20	227.78
400.58	227.81
400.95	227.73
401.33	227.99
401.70	228.47
402.08	228.59
402.45	228.67
402.83	228.95
403.20	229.09
403.58	229.20
403.95	229.44
404.33	229.73
404.71	229.93
405.08	230.27
405.46	230.50
405.83	230.80
406.21	231.09
406.58	231.37
406.96	231.55
407.33	231.89
407.70	232.24
408.08	233.00
408.45	233.43
408.83	233.90
409.20	234.25
409.58	234.42
409.95	235.01
410.33	235.57
410.70	235.95
411.08	236.61
411.45	237.31
411.82	237.82
412.20	238.55
412.57	239.49
412.95	239.90
413.32	240.78
413.69	241.63
414.07	242.59
414.44	243.54
414.82	244.58
415.19	245.87
415.56	247.04
415.94	248.04
416.31	249.56
416.68	250.94
417.06	252.55
417.43	254.21
417.81	255.97
418.18	257.84
418.55	259.82
418.93	261.88
419.30	263.97
419.67	266.30
420.04	268.61
420.42	270.95
420.79	274.12
421.16	276.92
421.54	279.98
421.91	283.04
422.28	286.11
422.66	289.45
423.03	292.82
423.40	296.22
423.77	299.87
424.15	303.45
424.52	307.28
424.89	311.58
425.26	315.57
425.64	319.35
426.01	323.49
426.38	327.87
426.75	332.43
427.13	337.10
427.50	341.78
427.87	346.80
428.24	351.83
428.61	356.43
428.99	361.79
429.36	367.20
429.73	372.67
430.10	378.31
430.47	383.97
430.85	389.64
431.22	395.85
431.59	402.80
431.96	409.12
432.33	416.16
432.70	422.82
433.08	430.81
433.45	438.36
433.82	445.85
434.19	454.14
434.56	462.31
434.93	469.89
435.30	477.74
435.68	486.28
436.05	494.75
436.42	502.90
436.79	510.66
437.16	519.12
437.53	527.88
437.90	536.67
438.27	545.32
438.64	554.45
439.01	562.94
439.38	569.95
439.75	577.10
440.13	585.06
440.50	592.66
440.87	598.65
441.24	604.95
441.61	612.03
441.98	617.00
442.35	622.69
442.72	628.77
443.09	634.64
443.46	638.04
443.83	640.27
444.20	642.29
444.57	644.82
444.94	645.75
445.31	647.04
445.68	648.28
446.05	648.48
446.42	646.88
446.79	645.24
447.16	643.54
447.53	642.22
447.90	638.53
448.27	634.76
448.64	629.89
449.01	626.36
449.37	620.05
449.74	614.12
450.11	607.38
450.48	599.72
450.85	591.79
451.22	584.90
451.59	578.36
451.96	572.08
452.33	564.00
452.70	556.69
453.07	547.91
453.43	538.80
453.80	530.33
454.17	522.35
454.54	514.71
454.91	506.68
455.28	498.67
455.65	491.24
456.02	484.37
456.38	478.11
456.75	470.07
457.12	463.55
457.49	457.18
457.86	450.70
458.23	445.40
458.59	439.53
458.96	433.80
459.33	428.47
459.70	423.37
460.07	419.30
460.43	414.58
460.80	410.26
461.17	406.45
461.54	402.41
461.91	398.68
462.27	394.81
462.64	391.46
463.01	387.80
463.38	384.40
463.74	380.33
464.11	377.09
464.48	374.58
464.85	371.71
465.21	369.47
465.58	367.12
465.95	364.40
466.32	362.13
466.68	359.87
467.05	357.76
467.42	355.51
467.78	353.18
468.15	351.11
468.52	349.57
468.88	347.39
469.25	345.44
469.62	343.87
469.98	342.21
470.35	340.68
470.72	339.33
471.08	337.67
471.45	336.53
471.82	335.30
472.18	333.84
472.55	332.81
472.92	331.54
473.28	330.45
473.65	329.27
474.02	328.19
474.38	327.37
474.75	326.67
475.11	325.73
475.48	325.14
475.85	324.67
476.21	323.99
476.58	323.56
476.94	323.22
477.31	322.83
477.67	322.39
478.04	322.10
478.41	321.88
478.77	322.14
479.14	321.75
479.50	321.64
479.87	321.70
480.23	321.72
480.60	321.65
480.96	321.74
481.33	322.15
481.69	322.48
482.06	322.70
482.42	322.90
482.79	323.30
483.15	323.69
483.52	324.17
483.88	324.65
484.25	325.25
484.61	325.88
484.98	326.50
485.34	327.44
485.71	328.28
486.07	329.25
486.44	329.94
486.80	330.99
487.17	332.11
487.53	333.47
487.90	334.90
488.26	336.65
488.62	338.27
488.99	339.73
489.35	341.54
489.72	343.28
490.08	345.23
490.44	347.32
490.81	349.49
491.17	351.70
491.54	354.24
491.90	356.74
492.26	359.36
492.63	362.14
492.99	364.98
493.36	368.10
493.72	371.36
494.08	374.79
494.45	378.54
494.81	382.52
495.17	386.34
495.54	390.44
495.90	394.65
496.26	399.15
496.63	403.79
496.99	408.45
497.35	413.49
497.72	418.78
498.08	424.13
498.44	429.68
498.80	435.65
499.17	441.72
499.53	447.96
499.89	454.71
500.26	461.42
500.62	468.50
500.98	475.89
501.34	483.40
501.71	491.04
502.07	498.96
502.43	507.05
502.79	515.46
503.16	524.17
503.52	533.08
503.88	542.20
504.24	552.01
504.60	562.03
504.97	572.34
505.33	582.88
505.69	594.06
506.05	605.22
506.41	616.47
506.78	628.03
507.14	640.08
507.50	652.30
507.86	665.12
508.22	678.12
508.59	691.32
508.95	704.94
509.31	719.13
509.67	733.33
510.03	747.66
510.39	762.40
510.75	777.41
511.12	792.79
511.48	808.41
511.84	824.15
512.20	840.27
512.56	856.54
512.92	873.40
513.28	890.08
513.64	907.39
514.00	924.92
514.37	942.73
514.73	961.07
515.09	979.48
515.45	997.94
515.81	1016.35
516.17	1034.93
516.53	1053.72
516.89	1072.58
517.25	1092.10
517.61	1112.48
517.97	1132.84
518.33	1153.13
518.69	1173.48
519.05	1194.31
519.41	1214.99
519.77	1235.99
520.13	1256.89
520.49	1277.54
520.85	1299.99
521.21	1321.39
521.57	1342.77
521.93	1363.72
522.29	1384.82
522.65	1405.79
523.01	1426.69
523.37	1447.59
523.73	1469.15
524.09	1489.87
524.45	1510.83
524.81	1531.75
525.17	1552.28
525.53	1573.01
525.89	1593.82
526.25	1614.62
526.61	1634.95
526.97	1656.18
527.33	1677.37
527.68	1699.28
528.04	1720.71
528.40	1740.74
528.76	1761.76
529.12	1782.33
529.48	1803.20
529.84	1823.20
530.20	1844.33
530.56	1865.35
530.91	1886.53
531.27	1906.94
531.63	1927.64
531.99	1948.27
532.35	1968.59
532.71	1988.91
533.07	2009.30
533.42	2029.30
533.78	2049.33
534.14	2069.38
534.50	2088.51
534.86	2108.03
535.21	2125.98
535.57	2144.84
535.93	2162.62
536.29	2180.47
536.65	2198.78
537.00	2216.64
537.36	2234.84
537.72	2251.47
538.08	2268.86
538.44	2285.94
538.79	2302.81
539.15	2319.47
539.51	2335.53
539.87	2350.91
540.22	2365.65
540.58	2380.20
540.94	2393.43
541.29	2406.42
541.65	2419.37
542.01	2432.11
542.37	2442.88
542.72	2453.96
543.08	2464.69
543.44	2476.20
543.79	2486.38
544.15	2496.22
544.51	2506.39
544.87	2515.90
545.22	2524.66
545.58	2532.02
545.94	2539.11
546.29	2545.71
546.65	2552.19
547.01	2557.85
547.36	2563.63
547.72	2568.68
548.07	2572.99
548.43	2578.84
548.79	2583.34
549.14	2587.51
549.50	2591.03
549.86	2594.90
550.21	2598.77
550.57	2602.36
550.92	2603.90
551.28	2605.48
551.64	2607.88
551.99	2610.02
552.35	2612.11
552.70	2614.05
553.06	2616.10
553.41	2617.20
553.77	2618.66
554.13	2620.30
554.48	2621.93
554.84	2623.25
555.19	2624.61
555.55	2626.15
555.90	2625.44
556.26	2624.96
556.61	2623.40
556.97	2621.82
557.32	2621.57
557.68	2620.57
558.03	2618.71
558.39	2617.86
558.74	2617.20
559.10	2614.29
559.45	2610.82
559.81	2605.96
560.16	2601.16
560.52	2596.75
560.87	2592.55
561.23	2587.07
561.58	2581.08
561.94	2574.34
562.29	2566.90
562.64	2560.02
563.00	2551.97
563.35	2545.78
563.71	2538.98
564.06	2532.88
564.42	2526.09
564.77	2519.09
565.12	2511.48
565.48	2503.79
565.83	2496.00
566.19	2487.73
566.54	2480.10
566.89	2471.67
567.25	2464.31
567.60	2457.07
567.96	2449.35
568.31	2441.12
568.66	2432.63
569.02	2423.56
569.37	2415.36
569.72	2408.15
570.08	2398.79
570.43	2389.30
570.78	2379.91
571.14	2370.70
571.49	2360.65
571.84	2351.20
572.20	2340.22
572.55	2330.06
572.90	2319.10
573.26	2308.40
573.61	2297.35
573.96	2286.12
574.31	2274.35
574.67	2262.26
575.02	2249.65
575.37	2236.81
575.72	2223.63
576.08	2211.71
576.43	2199.41
576.78	2186.34
577.13	2172.33
577.49	2159.48
577.84	2147.55
578.19	2135.12
578.54	2122.54
578.90	2110.35
579.25	2098.07
579.60	2085.44
579.95	2072.19
580.30	2059.18
580.66	2046.02
581.01	2032.38
581.36	2018.06
581.71	2005.39
582.06	1992.53
582.42	1979.65
582.77	1966.95
583.12	1954.95
583.47	1942.17
583.82	1929.95
584.17	1917.95
584.53	1905.92
584.88	1893.09
585.23	1879.83
585.58	1865.59
585.93	1852.28
586.28	1838.90
586.63	1824.85
586.98	1810.72
587.34	1797.59
587.69	1784.24
588.04	1771.46
588.39	1759.33
588.74	1747.31
589.09	1734.95
589.44	1721.98
589.79	1709.95
590.14	1697.74
590.49	1685.51
590.84	1673.55
591.19	1661.25
591.54	1648.66
591.89	1636.24
592.25	1625.95
592.60	1614.74
592.95	1603.52
593.30	1591.52
593.65	1579.32
594.00	1567.00
594.35	1557.15
594.70	1545.18
595.05	1533.72
595.40	1521.50
595.75	1509.48
596.10	1498.03
596.45	1486.46
596.80	1475.65
597.15	1463.97
597.50	1452.16
597.85	1440.74
598.19	1428.88
598.54	1417.12
598.89	1405.85
599.24	1395.56
599.59	1383.89
599.94	1372.79
600.29	1362.06
600.64	1351.40
600.99	1340.50
601.34	1331.10
601.69	1319.62
602.04	1309.75
602.39	1299.99
602.74	1290.53
603.08	1281.06
603.43	1271.60
603.78	1261.71
604.13	1251.94
604.48	1242.29
604.83	1232.53
605.18	1222.88
605.53	1213.24
605.87	1204.15
606.22	1195.45
606.57	1185.87
606.92	1176.20
607.27	1167.20
607.62	1158.43
607.96	1149.74
608.31	1141.97
608.66	1133.46
609.01	1124.84
609.36	1116.10
609.70	1107.45
610.05	1098.72
610.40	1090.11
610.75	1081.42
611.10	1073.05
611.44	1064.20
611.79	1056.00
612.14	1048.11
612.49	1040.03
612.83	1032.59
613.18	1024.72
613.53	1017.03
613.88	1008.90
614.22	1001.21
614.57	993.05
614.92	984.95
615.27	977.39
615.61	969.30
615.96	961.50
616.31	954.15
616.65	946.98
617.00	939.29
617.35	931.87
617.70	924.59
618.04	917.28
618.39	910.42
618.74	903.95
619.08	896.88
619.43	889.79
619.78	882.56
620.12	875.28
620.47	868.34
620.82	860.86
621.16	854.12
621.51	847.74
621.85	841.47
622.20	834.90
622.55	828.29
622.89	821.78
623.24	815.36
623.59	808.78
623.93	802.48
624.28	796.50
624.62	790.94
624.97	785.01
625.32	779.26
625.66	773.08
626.01	766.98
626.35	761.42
626.70	755.68
627.04	750.41
627.39	744.76
627.73	739.37
628.08	734.31
628.43	728.75
628.77	723.29
629.12	717.85
629.46	712.98
629.81	708.19
630.15	703.45
630.50	698.55
630.84	693.63
631.19	688.61
631.53	684.06
631.88	678.70
632.22	673.77
632.57	669.18
632.91	664.50
633.26	659.96
633.60	655.26
633.95	650.50
634.29	645.65
634.64	641.25
634.98	636.49
635.32	631.87
635.67	627.71
636.01	623.36
636.36	618.93
636.70	615.00
637.05	610.63
637.39	606.52
637.73	602.25
638.08	598.08
638.42	593.93
638.77	589.45
639.11	585.08
639.45	580.88
639.80	576.51
640.14	572.46
640.49	568.54
640.83	564.79
641.17	561.15
641.52	557.34
641.86	553.62
642.20	550.36
642.55	546.71
642.89	543.15
643.23	539.63
643.58	536.58
643.92	532.77
644.26	529.50
644.61	526.08
644.95	522.72
645.29	519.46
645.64	516.34
645.98	513.34
646.32	510.48
646.66	507.32
647.01	504.28
647.35	501.38
647.69	498.34
648.04	495.49
648.38	492.64
648.72	489.78
649.06	486.85
649.41	483.80
649.75	480.84
650.09	477.94
650.43	475.04
650.78	472.00
651.12	469.25
651.46	466.33
651.80	463.58
652.14	460.81
652.49	458.24
652.83	455.55
653.17	452.74
653.51	450.00
653.85	447.61
654.20	445.05
654.54	442.42
654.88	439.91
655.22	437.46
655.56	435.07
655.90	432.70
656.25	430.38
656.59	428.00
656.93	425.91
657.27	423.84
657.61	421.36
657.95	419.14
658.29	416.82
658.64	414.63
658.98	412.41
659.32	410.22
659.66	407.97
660.00	405.81
660.34	403.87
660.68	401.85
661.02	399.80
661.36	397.90
661.70	395.97
662.05	394.00
662.39	392.15
662.73	390.30
663.07	388.64
663.41	386.84
663.75	384.99
664.09	383.11
664.43	381.17
664.77	379.54
665.11	377.79
665.45	376.15
665.79	374.60
666.13	372.81
666.47	371.19
666.81	369.54
667.15	367.94
667.49	366.43
667.83	365.18
668.17	363.58
668.51	362.13
668.85	360.66
669.19	359.54
669.53	357.92
669.87	356.31
670.21	354.73
670.55	353.31
670.89	352.23
671.23	350.85
671.57	349.38
671.91	348.05
672.25	346.76
672.58	345.56
672.92	344.04
673.26	342.84
673.60	341.58
673.94	340.45
674.28	339.35
674.62	338.13
674.96	336.74
675.30	335.62
675.64	334.45
675.97	333.31
676.31	331.85
676.65	330.60
676.99	329.66
677.33	328.43
677.67	327.40
678.01	326.02
678.34	324.95
678.68	324.08
679.02	323.01
679.36	321.98
679.70	320.90
680.04	319.99
680.37	319.05
680.71	318.05
681.05	317.09
681.39	316.12
681.73	315.19
682.06	314.26
682.40	313.30
682.74	312.43
683.08	311.68
683.42	310.90
683.75	310.15
684.09	309.24
684.43	308.56
684.77	307.59
685.10	306.83
685.44	306.07
685.78	305.22
686.12	304.49
686.45	303.70
686.79	302.90
687.13	302.23
687.46	301.46
687.80	300.86
688.14	300.05
688.48	299.34
688.81	298.59
689.15	297.98
689.49	297.29
689.82	296.62
690.16	295.67
690.50	294.95
690.83	294.30
691.17	293.51
691.51	292.76
691.84	292.19
692.18	291.51
692.52	290.76
692.85	290.14
693.19	289.71
693.52	289.05
693.86	288.39
694.20	287.70
694.53	287.05
694.87	286.32
695.21	285.69
695.54	285.07
695.88	284.43
696.21	283.63
696.55	283.06
696.88	282.35
697.22	281.74
697.56	281.16
697.89	280.46
698.23	279.98
698.56	279.42
698.90	278.90
699.23	278.36
699.57	277.86
699.90	277.26
700.24	276.50
700.58	275.97
700.91	275.55
701.25	275.40
701.58	275.21
701.92	274.87
702.25	274.38
702.59	273.80
702.92	273.37
703.26	272.96
703.59	272.47
703.93	272.59
704.26	272.30
704.60	271.84
704.93	271.49
705.26	270.93
705.60	270.52
705.93	269.91
706.27	269.61
706.60	269.31
706.94	269.07
707.27	268.61
707.61	268.26
707.94	267.85
708.27	267.04
708.61	266.33
708.94	265.86
709.28	265.55
709.61	265.13
709.94	264.71
710.28	264.36
710.61	264.03
710.95	263.08
711.28	263.01
711.61	262.62
711.95	262.29
712.28	261.96
712.61	261.60
712.95	261.52
713.28	261.31
713.61	260.85
713.95	260.47
714.28	260.29
714.61	259.93
714.95	259.49
715.28	259.19
715.61	258.85
715.95	258.55
716.28	258.18
716.61	258.00
716.95	257.69
717.28	257.35
717.61	257.00
717.94	256.77
718.28	256.13
718.61	255.86
718.94	255.51
719.27	255.27
719.61	255.15
719.94	254.74
720.27	254.22
720.60	253.93
720.94	253.58
721.27	253.30
721.60	253.16
721.93	252.96
722.27	252.97
722.60	252.88
722.93	252.61
723.26	252.48
723.59	252.24
723.93	252.12
724.26	251.94
724.59	251.75
724.92	251.58
725.25	251.52
725.59	251.30
725.92	251.20
726.25	251.03
726.58	250.78
726.91	250.53
727.24	250.47
727.57	250.37
727.91	250.15
728.24	250.00
728.57	249.70
728.90	249.53
729.23	249.06
729.56	249.07
729.89	248.87
730.22	248.65
730.55	248.45
730.89	248.25
731.22	248.09
731.55	247.93
731.88	247.75
732.21	247.44
732.54	247.20
732.87	246.93
733.20	246.77
733.53	246.60
733.86	246.54
734.19	246.27
734.52	246.13
734.85	246.27
735.18	246.00
735.51	246.00
735.84	245.87
736.17	245.82
736.50	245.38
736.83	245.85
737.16	245.67
737.49	245.53
737.82	245.36
738.15	245.31
738.48	245.07
738.81	244.87
739.14	244.74
739.47	244.63
739.80	244.53
740.13	244.44
740.46	244.20
740.79	243.99
741.12	243.86
741.45	243.64
741.78	243.26
742.11	243.31
742.44	243.11
742.77	242.99
743.10	242.85
743.43	242.66
743.75	241.90
744.08	242.39
744.41	242.24
744.74	242.00
745.07	241.69
745.40	241.73
745.73	241.79
746.06	241.56
746.39	241.49
746.71	241.25
747.04	241.05
747.37	240.88
747.70	240.81
748.03	240.65
748.36	240.59
748.68	240.40
749.01	240.04
749.34	239.85
749.67	239.74
750.00	239.65
750.33	239.95
750.65	239.96
750.98	239.25
751.31	239.13
751.64	239.13
751.97	239.30
752.29	239.13
752.62	238.81
752.95	238.76
753.28	238.59
753.60	238.49
753.93	238.52
754.26	238.55
754.59	238.30
754.91	238.20
755.24	238.05
755.57	238.05
755.90	238.03
756.22	237.89
756.55	237.74
756.88	237.61
757.20	237.13
757.53	236.87
757.86	236.78
758.19	236.73
758.51	236.63
758.84	236.29
759.17	236.14
759.49	236.06
759.82	236.19
760.15	236.12
760.47	236.16
760.80	235.96
761.13	235.93
761.45	235.86
761.78	235.77
762.11	235.72
762.43	235.51
762.76	235.44
763.08	235.45
763.41	235.49
763.74	235.40
764.06	235.32
764.39	235.29
764.71	235.16
765.04	235.05
765.37	234.93
765.69	234.90
766.02	234.77
766.34	234.69
766.67	234.43
767.00	234.42
767.32	234.54
767.65	234.76
767.97	234.64
768.30	234.65
768.62	234.64
768.95	234.58
769.27	234.55
769.60	234.54
769.92	234.40
770.25	234.25
770.57	234.15
770.90	234.08
771.22	233.94
771.55	233.93
771.87	233.89
772.20	233.85
772.52	234.19
772.85	234.75
773.17	234.71
773.50	234.71
773.82	234.58
774.15	234.35
774.47	234.01
774.80	233.86
775.12	233.75
775.45	233.68
775.77	233.65
776.09	233.64
776.42	233.59
776.74	233.74
777.07	233.64
777.39	233.59
777.72	233.54
778.04	233.53
778.36	233.44
778.69	233.34
779.01	233.30
779.33	232.82
779.66	232.24
779.98	232.14
780.31	232.03
780.63	232.21
780.95	232.20
781.28	232.11
781.60	232.04
781.92	232.01
782.25	231.98
782.57	231.93
782.89	231.87
783.22	231.82
783.54	231.67
783.86	231.58
784.19	231.61
784.51	231.70
784.83	231.65
785.16	231.59
785.48	231.55
785.80	231.47
786.12	231.45
786.45	231.41
786.77	231.47
787.09	231.35
787.42	231.17
787.74	231.14
788.06	231.12
788.38	231.12
788.71	231.01
789.03	230.98
789.35	230.93
789.67	230.82
789.99	230.82
790.32	230.65
790.64	230.74
790.96	231.00
791.28	230.84
791.61	230.78
791.93	230.83
792.25	230.85
792.57	231.16
792.89	231.00
793.21	230.99
793.54	230.84
793.86	230.83
794.18	230.79
794.50	230.66
794.82	230.60
795.14	230.66
795.47	230.75
795.79	230.69
796.11	230.62
796.43	230.57
796.75	230.47
797.07	230.46
797.39	230.37
797.71	230.05
798.04	230.01
798.36	230.00
798.68	229.89
799.00	229.82
799.32	229.58
799.64	229.72
799.96	229.72
800.28	229.82
800.60	229.79
800.92	229.77
801.24	229.76
801.56	229.83
801.89	229.74
802.21	229.73
802.53	229.60
802.85	229.71
803.17	229.91
803.49	229.87
803.81	229.82
804.13	229.78
804.45	229.64
804.77	229.75
805.09	229.73
805.41	229.68
805.73	229.64
806.05	229.55
806.37	229.53
806.69	229.39
807.01	229.30
807.33	229.29
807.65	229.09
807.97	229.23
808.28	229.16
808.60	229.10
808.92	228.99
809.24	229.30
809.56	229.13
809.88	228.87
810.20	228.87
810.52	228.94
810.84	228.87
811.16	228.88
811.48	228.76
811.80	229.00
812.12	228.98
812.43	229.06
812.75	228.98
813.07	228.87
813.39	228.98
813.71	228.92
814.03	228.92
814.35	228.97
814.67	228.79
814.98	228.68
815.30	228.71
815.62	228.61
815.94	228.30
816.26	228.44
816.58	228.41
816.89	228.41
817.21	228.27
817.53	228.37
817.85	228.40
