SpectraSuite Data File
++++++++++++++++++++++++++++++++++++
Date: Wed Sep 04 17:57:13 EDT 2013
User: lab3
Dark Spectrum Present: Yes
Reference Spectrum Present: No
Number of Sampled Component Spectra: 1
Spectrometers: USB2E7196
Integration Time (usec): 170000 (USB2E7196)
Spectra Averaged: 20 (USB2E7196)
Boxcar Smoothing: 10 (USB2E7196)
Correct for Electrical Dark: No (USB2E7196)
Strobe/Lamp Enabled: No (USB2E7196)
Correct for Detector Non-linearity: No (USB2E7196)
Correct for Stray Light: No (USB2E7196)
Number of Pixels in Processed Spectrum: 2048
>>>>>Begin Processed Spectral Data<<<<<
339.09	0.00
339.48	213.30
339.86	213.75
340.24	215.40
340.63	217.00
341.01	225.45
341.39	221.35
341.78	222.45
342.16	225.15
342.54	222.85
342.93	212.43
343.31	223.10
343.69	223.63
344.07	224.14
344.46	224.67
344.84	225.07
345.22	225.03
345.60	225.25
345.99	225.45
346.37	225.52
346.75	225.61
347.13	225.70
347.52	225.79
347.90	226.06
348.28	226.14
348.66	226.28
349.05	226.23
349.43	226.32
349.81	226.34
350.19	226.35
350.57	226.42
350.96	226.50
351.34	226.67
351.72	226.77
352.10	226.86
352.48	226.88
352.87	226.96
353.25	227.06
353.63	227.06
354.01	227.06
354.39	227.13
354.77	227.34
355.15	227.50
355.54	227.46
355.92	227.32
356.30	227.34
356.68	227.67
357.06	227.75
357.44	227.76
357.82	227.84
358.20	228.30
358.58	228.44
358.97	228.53
359.35	228.67
359.73	228.79
360.11	228.78
360.49	228.91
360.87	228.91
361.25	229.05
361.63	229.36
362.01	229.52
362.39	229.55
362.77	229.59
363.15	229.60
363.53	229.74
363.91	229.84
364.29	229.93
364.67	229.46
365.05	229.49
365.43	229.56
365.81	229.62
366.19	229.51
366.57	229.66
366.95	229.65
367.33	229.56
367.71	229.54
368.09	229.75
368.47	229.71
368.85	229.76
369.23	229.84
369.61	229.54
369.99	229.66
370.37	229.76
370.75	229.92
371.13	229.85
371.51	229.72
371.89	229.67
372.27	229.64
372.65	229.73
373.03	229.65
373.41	229.59
373.78	229.50
374.16	229.15
374.54	228.96
374.92	228.87
375.30	228.81
375.68	228.74
376.06	228.65
376.44	228.52
376.82	228.48
377.19	228.43
377.57	228.40
377.95	228.13
378.33	227.88
378.71	227.57
379.09	227.53
379.47	227.51
379.84	227.37
380.22	227.23
380.60	227.09
380.98	227.01
381.36	226.94
381.73	226.79
382.11	226.81
382.49	226.75
382.87	226.57
383.25	226.50
383.62	226.99
384.00	226.80
384.38	226.78
384.76	226.76
385.13	226.76
385.51	226.71
385.89	226.63
386.27	226.64
386.64	226.61
387.02	226.49
387.40	226.42
387.78	226.34
388.15	226.39
388.53	226.20
388.91	226.15
389.29	226.06
389.66	226.17
390.04	226.13
390.42	226.15
390.79	226.20
391.17	226.14
391.55	225.55
391.92	225.53
392.30	225.54
392.68	225.48
393.05	225.42
393.43	225.51
393.81	225.62
394.18	225.56
394.56	225.57
394.94	225.78
395.31	225.78
395.69	226.01
396.06	226.05
396.44	226.28
396.82	226.31
397.19	226.64
397.57	226.64
397.95	226.76
398.32	226.71
398.70	226.80
399.07	227.03
399.45	227.11
399.82	227.24
400.20	227.23
400.58	227.34
400.95	227.27
401.33	227.48
401.70	227.85
402.08	228.01
402.45	228.22
402.83	228.42
403.20	228.59
403.58	228.73
403.95	229.04
404.33	229.23
404.71	229.50
405.08	229.94
405.46	230.17
405.83	230.44
406.21	230.69
406.58	231.05
406.96	231.33
407.33	231.73
407.70	232.06
408.08	232.87
408.45	233.35
408.83	233.99
409.20	234.37
409.58	234.59
409.95	235.10
410.33	235.63
410.70	235.99
411.08	236.61
411.45	237.24
411.82	237.77
412.20	238.62
412.57	239.55
412.95	239.91
413.32	240.78
413.69	241.59
414.07	242.62
414.44	243.61
414.82	244.64
415.19	245.87
415.56	247.10
415.94	248.08
416.31	249.50
416.68	250.76
417.06	252.31
417.43	253.95
417.81	255.70
418.18	257.56
418.55	259.53
418.93	261.64
419.30	263.71
419.67	265.95
420.04	268.12
420.42	270.36
420.79	273.42
421.16	276.17
421.54	279.23
421.91	282.14
422.28	285.16
422.66	288.40
423.03	291.79
423.40	295.22
423.77	298.78
424.15	302.31
424.52	306.15
424.89	310.37
425.26	314.28
425.64	318.00
426.01	322.10
426.38	326.46
426.75	330.90
427.13	335.52
427.50	340.26
427.87	345.14
428.24	350.15
428.61	354.66
428.99	359.99
429.36	365.45
429.73	371.01
430.10	376.61
430.47	382.39
430.85	387.99
431.22	394.15
431.59	401.09
431.96	407.35
432.33	414.31
432.70	420.97
433.08	428.85
433.45	436.43
433.82	443.87
434.19	452.06
434.56	460.26
434.93	467.95
435.30	475.71
435.68	484.44
436.05	492.97
436.42	501.29
436.79	509.04
437.16	517.39
437.53	526.17
437.90	535.02
438.27	543.64
438.64	552.64
439.01	560.88
439.38	568.07
439.75	575.46
440.13	583.55
440.50	591.10
440.87	597.25
441.24	603.56
441.61	610.62
441.98	615.66
442.35	621.46
442.72	627.44
443.09	633.20
443.46	636.54
443.83	638.81
444.20	640.84
444.57	643.57
444.94	644.69
445.31	645.73
445.68	646.88
446.05	647.01
446.42	645.73
446.79	644.41
447.16	642.83
447.53	641.40
447.90	637.58
448.27	633.82
448.64	629.03
449.01	625.42
449.37	619.17
449.74	613.07
450.11	606.19
450.48	598.46
450.85	590.45
451.22	583.65
451.59	577.13
451.96	570.75
452.33	562.50
452.70	555.05
453.07	546.51
453.43	537.49
453.80	528.93
454.17	520.69
454.54	512.87
454.91	504.63
455.28	496.54
455.65	489.13
456.02	482.30
456.38	475.81
456.75	468.08
457.12	461.51
457.49	455.32
457.86	448.93
458.23	443.76
458.59	438.15
458.96	432.31
459.33	427.00
459.70	421.97
460.07	417.99
460.43	413.39
460.80	408.99
461.17	405.19
461.54	401.27
461.91	397.60
462.27	393.75
462.64	390.46
463.01	386.98
463.38	383.61
463.74	379.70
464.11	376.62
464.48	373.96
464.85	371.15
465.21	368.96
465.58	366.68
465.95	363.85
466.32	361.59
466.68	359.28
467.05	357.10
467.42	354.81
467.78	352.46
468.15	350.22
468.52	348.70
468.88	346.51
469.25	344.58
469.62	343.15
469.98	341.64
470.35	340.08
470.72	338.61
471.08	336.96
471.45	335.59
471.82	334.29
472.18	332.82
472.55	331.84
472.92	330.56
473.28	329.38
473.65	328.28
474.02	327.13
474.38	326.32
474.75	325.66
475.11	324.79
475.48	324.17
475.85	323.57
476.21	322.75
476.58	322.17
476.94	321.80
477.31	321.30
477.67	320.72
478.04	320.39
478.41	320.15
478.77	320.42
479.14	320.09
479.50	320.05
479.87	320.03
480.23	320.03
480.60	319.96
480.96	319.94
481.33	320.39
481.69	320.67
482.06	320.92
482.42	321.05
482.79	321.49
483.15	321.85
483.52	322.44
483.88	323.04
484.25	323.65
484.61	324.31
484.98	324.93
485.34	325.92
485.71	326.84
486.07	327.79
486.44	328.44
486.80	329.62
487.17	330.69
487.53	332.16
487.90	333.51
488.26	335.17
488.62	337.03
488.99	338.43
489.35	340.21
489.72	342.11
490.08	344.15
490.44	346.23
490.81	348.58
491.17	350.74
491.54	353.27
491.90	355.88
492.26	358.60
492.63	361.36
492.99	364.26
493.36	367.38
493.72	370.70
494.08	374.12
494.45	377.92
494.81	381.86
495.17	385.63
495.54	389.88
495.90	394.06
496.26	398.47
496.63	403.09
496.99	407.83
497.35	412.85
497.72	418.13
498.08	423.50
498.44	429.15
498.80	435.29
499.17	441.28
499.53	447.56
499.89	454.08
500.26	461.05
500.62	468.00
500.98	475.37
501.34	482.87
501.71	490.61
502.07	498.39
502.43	506.61
502.79	515.07
503.16	523.81
503.52	532.73
503.88	541.99
504.24	551.77
504.60	561.91
504.97	572.09
505.33	582.54
505.69	593.64
506.05	604.67
506.41	615.85
506.78	627.70
507.14	639.90
507.50	652.50
507.86	664.90
508.22	677.82
508.59	690.85
508.95	704.38
509.31	718.55
509.67	732.72
510.03	747.04
510.39	761.67
510.75	776.55
511.12	791.91
511.48	807.59
511.84	823.27
512.20	839.13
512.56	855.49
512.92	872.29
513.28	889.00
513.64	906.38
514.00	923.83
514.37	941.35
514.73	959.41
515.09	977.44
515.45	996.00
515.81	1014.57
516.17	1033.53
516.53	1052.30
516.89	1071.01
517.25	1090.60
517.61	1110.72
517.97	1131.35
518.33	1151.47
518.69	1171.75
519.05	1192.24
519.41	1212.92
519.77	1233.88
520.13	1254.72
520.49	1275.24
520.85	1297.76
521.21	1319.03
521.57	1340.55
521.93	1361.42
522.29	1382.68
522.65	1403.54
523.01	1424.45
523.37	1445.00
523.73	1465.93
524.09	1486.72
524.45	1507.68
524.81	1528.38
525.17	1549.15
525.53	1569.20
525.89	1590.30
526.25	1611.24
526.61	1631.71
526.97	1652.84
527.33	1674.40
527.68	1696.29
528.04	1717.95
528.40	1737.39
528.76	1757.98
529.12	1778.72
529.48	1799.64
529.84	1819.85
530.20	1840.97
530.56	1861.77
530.91	1883.22
531.27	1903.68
531.63	1924.34
531.99	1944.88
532.35	1965.24
532.71	1985.45
533.07	2006.54
533.42	2026.36
533.78	2046.39
534.14	2066.24
534.50	2085.55
534.86	2104.54
535.21	2122.22
535.57	2140.64
535.93	2158.76
536.29	2176.83
536.65	2194.66
537.00	2212.64
537.36	2230.11
537.72	2246.87
538.08	2264.18
538.44	2280.76
538.79	2297.50
539.15	2314.14
539.51	2330.28
539.87	2345.51
540.22	2359.92
540.58	2374.44
540.94	2388.02
541.29	2400.77
541.65	2413.60
542.01	2426.30
542.37	2436.91
542.72	2447.70
543.08	2458.41
543.44	2470.01
543.79	2480.00
544.15	2489.91
544.51	2499.62
544.87	2509.26
545.22	2517.94
545.58	2525.64
545.94	2532.65
546.29	2539.26
546.65	2545.51
547.01	2550.89
547.36	2556.70
547.72	2561.86
548.07	2565.51
548.43	2570.64
548.79	2575.49
549.14	2579.71
549.50	2583.24
549.86	2587.38
550.21	2591.37
550.57	2594.77
550.92	2596.30
551.28	2597.94
551.64	2600.39
551.99	2602.57
552.35	2604.33
552.70	2606.22
553.06	2608.04
553.41	2609.69
553.77	2611.03
554.13	2612.57
554.48	2614.19
554.84	2615.66
555.19	2616.91
555.55	2618.80
555.90	2618.21
556.26	2617.35
556.61	2615.64
556.97	2613.54
557.32	2612.89
557.68	2611.70
558.03	2610.18
558.39	2608.82
558.74	2607.90
559.10	2604.72
559.45	2601.11
559.81	2596.49
560.16	2591.44
560.52	2586.41
560.87	2581.66
561.23	2576.50
561.58	2570.58
561.94	2563.64
562.29	2555.80
562.64	2548.94
563.00	2540.72
563.35	2534.22
563.71	2527.78
564.06	2521.57
564.42	2515.58
564.77	2508.82
565.12	2501.18
565.48	2493.34
565.83	2485.36
566.19	2477.17
566.54	2469.11
566.89	2461.12
567.25	2453.69
567.60	2446.67
567.96	2439.37
568.31	2431.52
568.66	2423.00
569.02	2414.11
569.37	2406.24
569.72	2399.02
570.08	2389.78
570.43	2380.17
570.78	2370.98
571.14	2361.31
571.49	2351.08
571.84	2341.12
572.20	2330.17
572.55	2320.60
572.90	2309.82
573.26	2299.76
573.61	2288.70
573.96	2277.65
574.31	2265.43
574.67	2253.50
575.02	2240.71
575.37	2227.78
575.72	2214.73
576.08	2202.54
576.43	2190.04
576.78	2176.97
577.13	2163.07
577.49	2150.07
577.84	2138.05
578.19	2126.00
578.54	2113.13
578.90	2101.25
579.25	2088.65
579.60	2075.99
579.95	2062.60
580.30	2049.51
580.66	2035.86
581.01	2022.45
581.36	2008.50
581.71	1995.81
582.06	1982.56
582.42	1969.98
582.77	1957.53
583.12	1945.38
583.47	1932.95
583.82	1920.90
584.17	1908.60
584.53	1896.69
584.88	1883.70
585.23	1870.78
585.58	1856.40
585.93	1843.22
586.28	1829.60
586.63	1815.50
586.98	1801.35
587.34	1788.15
587.69	1774.77
588.04	1761.95
588.39	1749.77
588.74	1737.54
589.09	1725.52
589.44	1712.86
589.79	1700.69
590.14	1688.62
590.49	1676.29
590.84	1664.05
591.19	1651.80
591.54	1639.53
591.89	1627.04
592.25	1617.07
592.60	1605.47
592.95	1593.90
593.30	1581.93
593.65	1570.05
594.00	1558.19
594.35	1548.49
594.70	1536.72
595.05	1525.39
595.40	1513.22
595.75	1501.13
596.10	1489.86
596.45	1478.36
596.80	1467.61
597.15	1456.05
597.50	1444.16
597.85	1432.75
598.19	1421.25
598.54	1409.54
598.89	1398.35
599.24	1387.85
599.59	1376.10
599.94	1365.17
600.29	1354.75
600.64	1344.54
600.99	1333.80
601.34	1324.32
601.69	1312.91
602.04	1302.72
602.39	1293.06
602.74	1284.19
603.08	1274.61
603.43	1265.33
603.78	1255.25
604.13	1245.59
604.48	1235.80
604.83	1226.17
605.18	1216.46
605.53	1206.84
605.87	1197.69
606.22	1188.87
606.57	1179.56
606.92	1170.04
607.27	1160.87
607.62	1152.31
607.96	1143.58
608.31	1135.50
608.66	1126.81
609.01	1118.21
609.36	1109.62
609.70	1101.07
610.05	1092.50
610.40	1084.27
610.75	1075.41
611.10	1067.24
611.44	1058.61
611.79	1050.41
612.14	1042.49
612.49	1034.45
612.83	1026.97
613.18	1019.16
613.53	1011.37
613.88	1003.50
614.22	995.70
614.57	988.22
614.92	980.10
615.27	972.42
615.61	964.79
615.96	957.35
616.31	949.80
616.65	942.95
617.00	935.48
617.35	927.95
617.70	920.61
618.04	913.53
618.39	906.53
618.74	900.06
619.08	893.23
619.43	886.16
619.78	879.10
620.12	871.75
620.47	864.94
620.82	857.70
621.16	850.80
621.51	844.52
621.85	837.92
622.20	831.39
622.55	824.81
622.89	818.21
623.24	811.83
623.59	805.68
623.93	799.26
624.28	793.08
624.62	787.42
624.97	781.62
625.32	775.82
625.66	769.87
626.01	763.73
626.35	758.17
626.70	752.60
627.04	747.51
627.39	742.04
627.73	736.64
628.08	731.64
628.43	726.14
628.77	720.80
629.12	715.59
629.46	710.71
629.81	705.95
630.15	701.22
630.50	696.20
630.84	691.20
631.19	686.30
631.53	681.77
631.88	676.48
632.22	671.64
632.57	667.10
632.91	662.44
633.26	657.83
633.60	653.10
633.95	648.35
634.29	643.49
634.64	639.02
634.98	634.14
635.32	629.68
635.67	625.80
636.01	621.34
636.36	616.74
636.70	612.70
637.05	608.44
637.39	604.24
637.73	600.15
638.08	596.13
638.42	591.88
638.77	587.40
639.11	583.10
639.45	578.62
639.80	574.17
640.14	570.08
640.49	566.19
640.83	562.40
641.17	558.81
641.52	555.08
641.86	551.39
642.20	548.32
642.55	544.55
642.89	540.79
643.23	537.36
643.58	534.43
643.92	530.72
644.26	527.38
644.61	524.13
644.95	520.71
645.29	517.22
645.64	514.14
645.98	511.14
646.32	508.26
646.66	505.29
647.01	502.35
647.35	499.76
647.69	496.80
648.04	493.95
648.38	491.05
648.72	488.13
649.06	485.11
649.41	481.97
649.75	479.13
650.09	476.33
650.43	473.46
650.78	470.37
651.12	467.46
651.46	464.62
651.80	461.94
652.14	459.26
652.49	456.97
652.83	454.38
653.17	451.80
653.51	449.09
653.85	446.83
654.20	444.35
654.54	441.60
654.88	439.10
655.22	436.84
655.56	434.50
655.90	432.18
656.25	429.94
656.59	427.65
656.93	425.46
657.27	423.40
657.61	420.96
657.95	418.82
658.29	416.77
658.64	414.79
658.98	412.47
659.32	410.25
659.66	407.98
660.00	405.84
660.34	403.70
660.68	401.76
661.02	399.68
661.36	397.80
661.70	395.82
662.05	393.86
662.39	391.85
662.73	390.06
663.07	388.48
663.41	386.70
663.75	384.87
664.09	383.09
664.43	381.09
664.77	379.50
665.11	377.73
665.45	376.04
665.79	374.31
666.13	372.63
666.47	371.02
666.81	369.33
667.15	367.68
667.49	366.15
667.83	364.71
668.17	363.06
668.51	361.52
668.85	360.12
669.19	359.00
669.53	357.52
669.87	355.86
670.21	354.19
670.55	352.73
670.89	351.52
671.23	350.09
671.57	348.70
671.91	347.40
672.25	346.07
672.58	344.87
672.92	343.41
673.26	342.09
673.60	340.91
673.94	339.77
674.28	338.60
674.62	337.45
674.96	336.11
675.30	334.95
675.64	333.77
675.97	332.48
676.31	331.06
676.65	329.73
676.99	328.87
677.33	327.74
677.67	326.67
678.01	325.34
678.34	324.28
678.68	323.36
679.02	322.22
679.36	321.24
679.70	320.20
680.04	319.31
680.37	318.34
680.71	317.25
681.05	316.34
681.39	315.37
681.73	314.39
682.06	313.48
682.40	312.54
682.74	311.74
683.08	311.06
683.42	310.15
683.75	309.38
684.09	308.28
684.43	307.54
684.77	306.67
685.10	305.96
685.44	305.12
685.78	304.29
686.12	303.45
686.45	302.61
686.79	301.72
687.13	301.00
687.46	300.35
687.80	299.71
688.14	298.83
688.48	298.11
688.81	297.33
689.15	296.72
689.49	296.04
689.82	295.34
690.16	294.40
690.50	293.67
690.83	292.97
691.17	292.21
691.51	291.50
691.84	290.89
692.18	290.13
692.52	289.48
692.85	288.84
693.19	288.44
693.52	287.77
693.86	287.08
694.20	286.42
694.53	285.80
694.87	285.17
695.21	284.55
695.54	283.94
695.88	283.33
696.21	282.49
696.55	281.93
696.88	281.29
697.22	280.78
697.56	280.29
697.89	279.69
698.23	279.25
698.56	278.69
698.90	278.23
699.23	277.67
699.57	277.18
699.90	276.52
700.24	275.84
700.58	275.49
700.91	275.13
701.25	275.12
701.58	274.98
701.92	274.59
702.25	274.16
702.59	273.68
702.92	273.30
703.26	273.01
703.59	272.60
703.93	272.59
704.26	272.27
704.60	271.86
704.93	271.42
705.26	270.90
705.60	270.53
705.93	269.93
706.27	269.74
706.60	269.47
706.94	269.31
707.27	268.96
707.61	268.55
707.94	268.11
708.27	267.22
708.61	266.48
708.94	266.05
709.28	265.73
709.61	265.36
709.94	265.02
710.28	264.65
710.61	264.26
710.95	263.42
711.28	263.34
711.61	263.01
711.95	262.77
712.28	262.40
712.61	262.06
712.95	262.01
713.28	261.80
713.61	261.35
713.95	260.92
714.28	260.66
714.61	260.28
714.95	259.92
715.28	259.55
715.61	259.10
715.95	258.87
716.28	258.45
716.61	258.30
716.95	257.91
717.28	257.60
717.61	257.28
717.94	256.95
718.28	256.29
718.61	255.95
718.94	255.61
719.27	255.40
719.61	255.15
719.94	254.81
720.27	254.36
720.60	254.07
720.94	253.85
721.27	253.52
721.60	253.35
721.93	253.20
722.27	253.17
722.60	253.07
722.93	252.67
723.26	252.50
723.59	252.11
723.93	251.95
724.26	251.76
724.59	251.56
724.92	251.44
725.25	251.33
725.59	251.12
725.92	251.01
726.25	250.75
726.58	250.59
726.91	250.27
727.24	250.11
727.57	249.96
727.91	249.69
728.24	249.53
728.57	249.24
728.90	249.05
729.23	248.68
729.56	248.70
729.89	248.52
730.22	248.29
730.55	248.01
730.89	247.87
731.22	247.61
731.55	247.43
731.88	247.21
732.21	246.96
732.54	246.69
732.87	246.46
733.20	246.40
733.53	246.18
733.86	246.06
734.19	245.82
734.52	245.62
734.85	245.77
735.18	245.48
735.51	245.51
735.84	245.36
736.17	245.25
736.50	244.87
736.83	245.24
737.16	245.14
737.49	245.07
737.82	244.85
738.15	244.79
738.48	244.62
738.81	244.45
739.14	244.20
739.47	244.13
739.80	244.02
740.13	243.83
740.46	243.56
740.79	243.36
741.12	243.25
741.45	243.02
741.78	242.62
742.11	242.63
742.44	242.35
742.77	242.28
743.10	242.09
743.43	241.92
743.75	241.33
744.08	241.74
744.41	241.54
744.74	241.37
745.07	241.17
745.40	241.13
745.73	241.21
746.06	241.13
746.39	241.01
746.71	240.80
747.04	240.65
747.37	240.58
747.70	240.56
748.03	240.43
748.36	240.39
748.68	240.32
749.01	240.03
749.34	239.86
749.67	239.79
750.00	239.78
750.33	240.05
750.65	239.96
750.98	239.30
751.31	239.22
751.64	239.21
751.97	239.21
752.29	239.07
752.62	238.78
752.95	238.66
753.28	238.54
753.60	238.49
753.93	238.56
754.26	238.59
754.59	238.28
754.91	238.13
755.24	238.05
755.57	237.92
755.90	237.85
756.22	237.79
756.55	237.58
756.88	237.37
757.20	236.95
757.53	236.77
757.86	236.75
758.19	236.73
758.51	236.57
758.84	236.38
759.17	236.18
759.49	236.09
759.82	236.27
760.15	236.27
760.47	236.13
760.80	235.90
761.13	235.76
761.45	235.63
761.78	235.54
762.11	235.38
762.43	235.19
762.76	235.09
763.08	235.09
763.41	235.07
763.74	235.10
764.06	235.02
764.39	234.90
764.71	234.74
765.04	234.58
765.37	234.48
765.69	234.35
766.02	234.32
766.34	234.18
766.67	233.90
767.00	233.82
767.32	234.05
767.65	234.23
767.97	234.10
768.30	234.19
768.62	234.05
768.95	234.00
769.27	233.92
769.60	233.94
769.92	233.70
770.25	233.46
770.57	233.26
770.90	233.21
771.22	233.15
771.55	233.12
771.87	233.15
772.20	233.08
772.52	233.49
772.85	234.02
773.17	233.91
773.50	233.80
773.82	233.73
774.15	233.40
774.47	233.07
774.80	233.05
775.12	232.93
775.45	232.96
775.77	232.97
776.09	232.94
776.42	232.89
776.74	233.07
777.07	233.05
777.39	233.01
777.72	232.90
778.04	232.90
778.36	232.82
778.69	232.71
779.01	232.75
779.33	232.29
779.66	231.65
779.98	231.64
780.31	231.61
780.63	231.78
780.95	231.87
781.28	231.83
781.60	231.68
781.92	231.66
782.25	231.60
782.57	231.53
782.89	231.50
783.22	231.38
783.54	231.22
783.86	231.20
784.19	231.14
784.51	231.18
784.83	231.00
785.16	230.94
785.48	230.91
785.80	230.75
786.12	230.79
786.45	230.82
786.77	230.84
787.09	230.79
787.42	230.55
787.74	230.46
788.06	230.44
788.38	230.40
788.71	230.39
789.03	230.35
789.35	230.39
789.67	230.26
789.99	230.33
790.32	230.26
790.64	230.31
790.96	230.70
791.28	230.56
791.61	230.54
791.93	230.55
792.25	230.48
792.57	230.81
792.89	230.63
793.21	230.53
793.54	230.46
793.86	230.37
794.18	230.36
794.50	230.19
794.82	230.15
795.14	230.24
795.47	230.34
795.79	230.34
796.11	230.18
796.43	230.25
796.75	230.21
797.07	230.21
797.39	230.13
797.71	229.75
798.04	229.84
798.36	229.90
798.68	229.82
799.00	229.88
799.32	229.68
799.64	229.76
799.96	229.85
800.28	229.91
800.60	229.86
800.92	229.89
801.24	229.92
801.56	229.97
801.89	229.89
802.21	229.89
802.53	229.77
802.85	229.90
803.17	230.08
803.49	229.96
803.81	229.90
804.13	229.89
804.45	229.77
804.77	229.71
805.09	229.69
805.41	229.71
805.73	229.60
806.05	229.48
806.37	229.41
806.69	229.27
807.01	229.21
807.33	229.37
807.65	229.19
807.97	229.40
808.28	229.34
808.60	229.31
808.92	229.15
809.24	229.48
809.56	229.37
809.88	229.19
810.20	229.21
810.52	229.29
810.84	229.17
811.16	229.24
811.48	229.20
811.80	229.36
812.12	229.34
812.43	229.38
812.75	229.44
813.07	229.40
813.39	229.44
813.71	229.33
814.03	229.19
814.35	229.20
814.67	229.00
814.98	228.91
815.30	228.81
815.62	228.70
815.94	228.36
816.26	228.57
816.58	228.45
816.89	228.45
817.21	228.31
817.53	228.34
817.85	228.29
