SpectraSuite Data File
++++++++++++++++++++++++++++++++++++
Date: Wed Sep 04 17:48:24 EDT 2013
User: lab3
Dark Spectrum Present: Yes
Reference Spectrum Present: No
Number of Sampled Component Spectra: 1
Spectrometers: USB2E7196
Integration Time (usec): 170000 (USB2E7196)
Spectra Averaged: 20 (USB2E7196)
Boxcar Smoothing: 10 (USB2E7196)
Correct for Electrical Dark: No (USB2E7196)
Strobe/Lamp Enabled: No (USB2E7196)
Correct for Detector Non-linearity: No (USB2E7196)
Correct for Stray Light: No (USB2E7196)
Number of Pixels in Processed Spectrum: 2048
>>>>>Begin Processed Spectral Data<<<<<
339.09	0.00
339.48	213.20
339.86	213.85
340.24	216.05
340.63	217.25
341.01	226.15
341.39	220.85
341.78	221.95
342.16	223.05
342.54	222.95
342.93	212.21
343.31	222.94
343.69	223.42
344.07	223.94
344.46	224.43
344.84	224.84
345.22	224.77
345.60	225.04
345.99	225.17
346.37	225.35
346.75	225.53
347.13	225.59
347.52	225.66
347.90	225.86
348.28	225.82
348.66	225.87
349.05	225.79
349.43	225.93
349.81	225.96
350.19	226.03
350.57	226.05
350.96	226.08
351.34	226.17
351.72	226.25
352.10	226.32
352.48	226.33
352.87	226.29
353.25	226.36
353.63	226.42
354.01	226.50
354.39	226.50
354.77	226.45
355.15	226.68
355.54	226.64
355.92	226.65
356.30	226.74
356.68	227.09
357.06	227.17
357.44	227.05
357.82	227.18
358.20	227.69
358.58	227.74
358.97	227.79
359.35	227.93
359.73	228.16
360.11	228.24
360.49	228.32
360.87	228.47
361.25	228.60
361.63	228.81
362.01	228.90
362.39	228.86
362.77	229.01
363.15	228.95
363.53	228.99
363.91	229.00
364.29	229.03
364.67	228.65
365.05	228.72
365.43	228.85
365.81	228.94
366.19	228.78
366.57	228.97
366.95	229.01
367.33	228.90
367.71	228.91
368.09	228.95
368.47	228.93
368.85	228.92
369.23	229.03
369.61	228.81
369.99	228.98
370.37	229.06
370.75	229.23
371.13	229.20
371.51	229.16
371.89	229.20
372.27	229.24
372.65	229.26
373.03	229.19
373.41	229.10
373.78	229.01
374.16	228.69
374.54	228.54
374.92	228.47
375.30	228.40
375.68	228.24
376.06	228.24
376.44	228.18
376.82	228.13
377.19	227.99
377.57	227.92
377.95	227.63
378.33	227.54
378.71	227.18
379.09	227.13
379.47	227.10
379.84	226.99
380.22	226.83
380.60	226.67
380.98	226.61
381.36	226.53
381.73	226.49
382.11	226.55
382.49	226.46
382.87	226.29
383.25	226.20
383.62	226.66
384.00	226.43
384.38	226.37
384.76	226.36
385.13	226.52
385.51	226.47
385.89	226.35
386.27	226.38
386.64	226.41
387.02	226.32
387.40	226.19
387.78	226.14
388.15	226.16
388.53	226.09
388.91	226.09
389.29	226.02
389.66	226.01
390.04	225.91
390.42	225.98
390.79	226.02
391.17	225.99
391.55	225.41
391.92	225.45
392.30	225.49
392.68	225.39
393.05	225.28
393.43	225.25
393.81	225.38
394.18	225.25
394.56	225.34
394.94	225.41
395.31	225.43
395.69	225.58
396.06	225.60
396.44	225.68
396.82	225.61
397.19	225.89
397.57	225.86
397.95	226.04
398.32	225.95
398.70	226.09
399.07	226.35
399.45	226.34
399.82	226.43
400.20	226.50
400.58	226.65
400.95	226.59
401.33	226.80
401.70	227.24
402.08	227.38
402.45	227.47
402.83	227.75
403.20	227.95
403.58	228.00
403.95	228.30
404.33	228.53
404.71	228.78
405.08	229.18
405.46	229.40
405.83	229.60
406.21	229.85
406.58	230.12
406.96	230.33
407.33	230.76
407.70	231.14
408.08	231.84
408.45	232.25
408.83	232.79
409.20	233.13
409.58	233.26
409.95	233.79
410.33	234.28
410.70	234.70
411.08	235.32
411.45	235.94
411.82	236.46
412.20	237.26
412.57	238.27
412.95	238.70
413.32	239.61
413.69	240.45
414.07	241.43
414.44	242.43
414.82	243.39
415.19	244.60
415.56	245.75
415.94	246.81
416.31	248.17
416.68	249.55
417.06	251.21
417.43	252.88
417.81	254.73
418.18	256.53
418.55	258.49
418.93	260.60
419.30	262.78
419.67	264.99
420.04	267.18
420.42	269.48
420.79	272.53
421.16	275.35
421.54	278.41
421.91	281.41
422.28	284.37
422.66	287.67
423.03	291.11
423.40	294.42
423.77	297.87
424.15	301.47
424.52	305.21
424.89	309.44
425.26	313.30
425.64	316.99
426.01	321.20
426.38	325.40
426.75	329.85
427.13	334.31
427.50	338.94
427.87	343.78
428.24	348.52
428.61	352.90
428.99	358.11
429.36	363.47
429.73	368.81
430.10	374.30
430.47	379.98
430.85	385.54
431.22	391.73
431.59	398.44
431.96	404.61
432.33	411.45
432.70	417.84
433.08	425.61
433.45	432.87
433.82	440.16
434.19	448.32
434.56	456.29
434.93	463.84
435.30	471.52
435.68	480.04
436.05	488.46
436.42	496.72
436.79	504.27
437.16	512.52
437.53	521.20
437.90	529.85
438.27	538.26
438.64	547.00
439.01	555.20
439.38	562.29
439.75	569.22
440.13	577.15
440.50	584.67
440.87	590.63
441.24	596.95
441.61	603.85
441.98	608.91
442.35	614.60
442.72	620.58
443.09	626.29
443.46	629.64
443.83	631.85
444.20	633.90
444.57	636.64
444.94	637.89
445.31	639.10
445.68	640.49
446.05	640.59
446.42	639.31
446.79	637.88
447.16	636.16
447.53	635.11
447.90	631.44
448.27	627.83
448.64	623.15
449.01	619.48
449.37	613.48
449.74	607.43
450.11	600.65
450.48	593.06
450.85	585.21
451.22	578.49
451.59	572.03
451.96	565.76
452.33	557.71
452.70	550.25
453.07	541.67
453.43	532.66
453.80	524.46
454.17	516.50
454.54	508.81
454.91	500.97
455.28	493.04
455.65	485.68
456.02	478.87
456.38	472.53
456.75	464.84
457.12	458.26
457.49	452.13
457.86	445.88
458.23	440.76
458.59	435.08
458.96	429.35
459.33	424.32
459.70	419.26
460.07	415.16
460.43	410.57
460.80	406.34
461.17	402.64
461.54	398.71
461.91	394.97
462.27	391.31
462.64	388.01
463.01	384.45
463.38	381.34
463.74	377.42
464.11	374.49
464.48	371.96
464.85	369.28
465.21	367.08
465.58	364.79
465.95	361.99
466.32	359.89
466.68	357.68
467.05	355.42
467.42	353.30
467.78	351.09
468.15	348.96
468.52	347.38
468.88	345.15
469.25	343.16
469.62	341.70
469.98	339.94
470.35	338.41
470.72	337.00
471.08	335.26
471.45	333.96
471.82	332.70
472.18	331.24
472.55	330.16
472.92	328.96
473.28	327.74
473.65	326.66
474.02	325.64
474.38	324.90
474.75	324.20
475.11	323.27
475.48	322.57
475.85	322.03
476.21	321.39
476.58	320.85
476.94	320.57
477.31	320.08
477.67	319.72
478.04	319.45
478.41	319.24
478.77	319.47
479.14	319.25
479.50	319.16
479.87	319.25
480.23	319.16
480.60	319.10
480.96	319.25
481.33	319.65
481.69	319.90
482.06	320.00
482.42	320.31
482.79	320.66
483.15	321.15
483.52	321.78
483.88	322.24
484.25	322.79
484.61	323.38
484.98	324.06
485.34	325.15
485.71	326.11
486.07	327.06
486.44	327.63
486.80	328.83
487.17	329.94
487.53	331.30
487.90	332.87
488.26	334.53
488.62	336.20
488.99	337.71
489.35	339.47
489.72	341.34
490.08	343.30
490.44	345.32
490.81	347.45
491.17	349.60
491.54	352.07
491.90	354.66
492.26	357.31
492.63	360.10
492.99	362.83
493.36	365.89
493.72	369.30
494.08	372.79
494.45	376.39
494.81	380.29
495.17	384.13
495.54	388.29
495.90	392.40
496.26	396.81
496.63	401.45
496.99	406.12
497.35	411.19
497.72	416.51
498.08	421.95
498.44	427.59
498.80	433.51
499.17	439.53
499.53	445.92
499.89	452.54
500.26	459.32
500.62	466.30
500.98	473.58
501.34	480.96
501.71	488.57
502.07	496.28
502.43	504.21
502.79	512.60
503.16	521.10
503.52	530.16
503.88	539.46
504.24	549.05
504.60	559.05
504.97	569.23
505.33	579.46
505.69	590.52
506.05	601.55
506.41	612.78
506.78	624.38
507.14	636.14
507.50	648.47
507.86	661.09
508.22	674.00
508.59	686.96
508.95	700.48
509.31	714.70
509.67	728.96
510.03	743.14
510.39	757.69
510.75	772.60
511.12	787.56
511.48	803.07
511.84	818.72
512.20	834.40
512.56	850.57
512.92	867.15
513.28	883.86
513.64	901.12
514.00	918.42
514.37	936.04
514.73	953.90
515.09	971.87
515.45	989.93
515.81	1008.10
516.17	1026.69
516.53	1045.01
516.89	1063.29
517.25	1082.43
517.61	1102.53
517.97	1122.71
518.33	1142.41
518.69	1162.71
519.05	1182.90
519.41	1203.31
519.77	1224.25
520.13	1244.77
520.49	1265.29
520.85	1287.38
521.21	1308.00
521.57	1329.09
521.93	1349.56
522.29	1370.70
522.65	1390.95
523.01	1411.77
523.37	1432.05
523.73	1452.86
524.09	1473.29
524.45	1493.75
524.81	1514.20
525.17	1534.33
525.53	1554.74
525.89	1575.48
526.25	1595.83
526.61	1615.81
526.97	1636.69
527.33	1657.63
527.68	1678.77
528.04	1699.79
528.40	1719.06
528.76	1739.71
529.12	1759.98
529.48	1780.63
529.84	1800.49
530.20	1821.88
530.56	1842.45
530.91	1863.32
531.27	1883.33
531.63	1903.47
531.99	1924.02
532.35	1943.85
532.71	1963.98
533.07	1983.84
533.42	2003.23
533.78	2022.76
534.14	2042.44
534.50	2060.94
534.86	2079.76
535.21	2097.47
535.57	2115.59
535.93	2132.88
536.29	2150.54
536.65	2168.12
537.00	2185.49
537.36	2202.70
537.72	2218.44
538.08	2234.88
538.44	2251.39
538.79	2267.78
539.15	2283.90
539.51	2299.22
539.87	2314.07
540.22	2327.50
540.58	2341.79
540.94	2355.05
541.29	2367.69
541.65	2379.79
542.01	2392.30
542.37	2402.64
542.72	2413.08
543.08	2423.44
543.44	2435.00
543.79	2444.82
544.15	2454.52
544.51	2464.45
544.87	2473.45
545.22	2481.88
545.58	2489.68
545.94	2496.26
546.29	2502.48
546.65	2508.76
547.01	2514.31
547.36	2519.56
547.72	2525.07
548.07	2528.68
548.43	2533.66
548.79	2537.96
549.14	2541.86
549.50	2545.17
549.86	2548.80
550.21	2552.66
550.57	2555.82
550.92	2557.00
551.28	2557.87
551.64	2559.80
551.99	2560.88
552.35	2562.56
552.70	2564.46
553.06	2565.97
553.41	2566.99
553.77	2568.39
554.13	2569.70
554.48	2571.00
554.84	2572.21
555.19	2573.13
555.55	2574.71
555.90	2573.98
556.26	2573.19
556.61	2571.88
556.97	2569.91
557.32	2569.12
557.68	2567.75
558.03	2566.14
558.39	2564.35
558.74	2563.28
559.10	2559.75
559.45	2556.16
559.81	2551.54
560.16	2546.49
560.52	2541.41
560.87	2536.79
561.23	2531.42
561.58	2525.28
561.94	2518.01
562.29	2510.69
562.64	2503.79
563.00	2495.32
563.35	2488.52
563.71	2481.28
564.06	2474.59
564.42	2467.87
564.77	2460.88
565.12	2453.41
565.48	2445.62
565.83	2437.69
566.19	2429.74
566.54	2422.14
566.89	2414.24
567.25	2406.43
567.60	2399.39
567.96	2391.62
568.31	2384.02
568.66	2375.23
569.02	2366.30
569.37	2358.33
569.72	2350.65
570.08	2341.39
570.43	2332.15
570.78	2323.08
571.14	2314.03
571.49	2303.71
571.84	2294.12
572.20	2283.22
572.55	2272.82
572.90	2261.93
573.26	2251.92
573.61	2241.08
573.96	2229.92
574.31	2217.89
574.67	2206.05
575.02	2192.98
575.37	2180.81
575.72	2167.66
576.08	2155.87
576.43	2143.59
576.78	2130.73
577.13	2117.30
577.49	2104.67
577.84	2092.90
578.19	2080.75
578.54	2068.16
578.90	2056.56
579.25	2044.49
579.60	2032.44
579.95	2019.86
580.30	2006.88
580.66	1993.35
581.01	1979.78
581.36	1966.10
581.71	1953.72
582.06	1941.27
582.42	1928.88
582.77	1916.42
583.12	1904.76
583.47	1892.36
583.82	1880.55
584.17	1868.77
584.53	1857.10
584.88	1844.45
585.23	1831.72
585.58	1817.50
585.93	1804.44
586.28	1791.30
586.63	1777.18
586.98	1763.04
587.34	1750.08
587.69	1737.19
588.04	1725.14
588.39	1713.34
588.74	1701.42
589.09	1689.51
589.44	1676.95
589.79	1665.22
590.14	1653.04
590.49	1640.78
590.84	1628.99
591.19	1617.20
591.54	1605.07
591.89	1593.06
592.25	1582.95
592.60	1571.43
592.95	1560.66
593.30	1549.08
593.65	1537.37
594.00	1525.86
594.35	1516.35
594.70	1504.56
595.05	1493.49
595.40	1481.50
595.75	1469.99
596.10	1458.97
596.45	1447.78
596.80	1437.02
597.15	1425.92
597.50	1414.51
597.85	1403.39
598.19	1392.05
598.54	1380.72
598.89	1369.68
599.24	1359.14
599.59	1347.86
599.94	1337.28
600.29	1327.27
600.64	1317.35
600.99	1306.78
601.34	1297.35
601.69	1286.46
602.04	1276.85
602.39	1267.24
602.74	1258.31
603.08	1249.12
603.43	1240.01
603.78	1230.27
604.13	1221.11
604.48	1211.48
604.83	1202.07
605.18	1192.47
605.53	1183.07
605.87	1174.04
606.22	1165.64
606.57	1156.54
606.92	1147.19
607.27	1138.19
607.62	1129.51
607.96	1121.25
608.31	1113.72
608.66	1105.39
609.01	1096.91
609.36	1088.51
609.70	1080.11
610.05	1071.65
610.40	1063.10
610.75	1054.52
611.10	1046.59
611.44	1038.04
611.79	1030.25
612.14	1022.49
612.49	1014.83
612.83	1007.47
613.18	999.84
613.53	992.16
613.88	984.54
614.22	977.16
614.57	969.62
614.92	961.90
615.27	954.18
615.61	946.57
615.96	939.26
616.31	932.07
616.65	925.39
617.00	918.31
617.35	911.26
617.70	904.34
618.04	897.38
618.39	890.50
618.74	884.30
619.08	877.53
619.43	870.69
619.78	863.90
620.12	856.83
620.47	850.06
620.82	843.02
621.16	836.40
621.51	830.19
621.85	824.10
622.20	817.59
622.55	811.08
622.89	804.78
623.24	798.56
623.59	792.14
623.93	785.73
624.28	779.78
624.62	774.32
624.97	768.67
625.32	763.19
625.66	757.28
626.01	751.25
626.35	745.68
626.70	740.26
627.04	735.10
627.39	729.66
627.73	724.62
628.08	719.60
628.43	714.25
628.77	708.75
629.12	703.57
629.46	699.09
629.81	694.62
630.15	689.90
630.50	685.05
630.84	680.39
631.19	675.86
631.53	671.27
631.88	666.08
632.22	661.42
632.57	656.88
632.91	652.45
633.26	648.13
633.60	643.78
633.95	639.34
634.29	634.64
634.64	630.37
634.98	625.76
635.32	621.67
635.67	617.83
636.01	613.80
636.36	609.45
636.70	605.37
637.05	601.22
637.39	597.00
637.73	593.04
638.08	589.09
638.42	584.77
638.77	580.68
639.11	576.34
639.45	571.94
639.80	567.77
640.14	563.83
640.49	559.89
640.83	556.05
641.17	552.49
641.52	549.03
641.86	545.47
642.20	542.27
642.55	538.68
642.89	535.00
643.23	531.57
643.58	528.44
643.92	524.81
644.26	521.36
644.61	518.33
644.95	514.95
645.29	511.63
645.64	508.65
645.98	505.49
646.32	502.74
646.66	499.80
647.01	496.75
647.35	493.99
647.69	491.14
648.04	488.36
648.38	485.50
648.72	482.61
649.06	479.66
649.41	476.56
649.75	473.53
650.09	470.77
650.43	467.93
650.78	465.23
651.12	462.51
651.46	459.76
651.80	457.04
652.14	454.43
652.49	452.00
652.83	449.54
653.17	446.97
653.51	444.25
653.85	441.97
654.20	439.60
654.54	436.94
654.88	434.40
655.22	432.16
655.56	429.80
655.90	427.45
656.25	425.32
656.59	423.17
656.93	421.15
657.27	419.16
657.61	416.75
657.95	414.44
658.29	412.33
658.64	410.47
658.98	408.27
659.32	406.08
659.66	403.95
660.00	401.81
660.34	399.84
660.68	397.81
661.02	395.80
661.36	393.90
661.70	391.98
662.05	390.09
662.39	388.11
662.73	386.35
663.07	384.77
663.41	382.95
663.75	381.00
664.09	379.12
664.43	377.08
664.77	375.54
665.11	373.88
665.45	372.25
665.79	370.45
666.13	368.78
666.47	367.23
666.81	365.48
667.15	363.68
667.49	362.19
667.83	360.96
668.17	359.38
668.51	357.93
668.85	356.63
669.19	355.48
669.53	353.93
669.87	352.42
670.21	350.87
670.55	349.47
670.89	348.44
671.23	347.15
671.57	345.98
671.91	344.65
672.25	343.30
672.58	342.03
672.92	340.66
673.26	339.53
673.60	338.36
673.94	337.21
674.28	336.32
674.62	335.16
674.96	333.85
675.30	332.81
675.64	331.68
675.97	330.54
676.31	329.27
676.65	328.15
676.99	327.19
677.33	326.10
677.67	325.15
678.01	323.88
678.34	322.79
678.68	321.82
679.02	320.84
679.36	319.89
679.70	318.80
680.04	317.95
680.37	316.95
680.71	315.95
681.05	315.19
681.39	314.21
681.73	313.29
682.06	312.41
682.40	311.62
682.74	310.78
683.08	310.08
683.42	309.22
683.75	308.47
684.09	307.55
684.43	306.72
684.77	305.82
685.10	305.07
685.44	304.39
685.78	303.57
686.12	302.68
686.45	301.88
686.79	301.12
687.13	300.45
687.46	299.72
687.80	299.09
688.14	298.16
688.48	297.41
688.81	296.70
689.15	296.11
689.49	295.37
689.82	294.66
690.16	293.71
690.50	293.00
690.83	292.27
691.17	291.49
691.51	290.81
691.84	290.10
692.18	289.35
692.52	288.62
692.85	287.99
693.19	287.67
693.52	286.99
693.86	286.33
694.20	285.64
694.53	285.05
694.87	284.36
695.21	283.76
695.54	283.18
695.88	282.49
696.21	281.68
696.55	280.94
696.88	280.27
697.22	279.70
697.56	279.24
697.89	278.61
698.23	278.08
698.56	277.47
698.90	277.08
699.23	276.51
699.57	276.03
699.90	275.49
700.24	274.74
700.58	274.31
700.91	273.88
701.25	273.81
701.58	273.61
701.92	273.23
702.25	272.80
702.59	272.33
702.92	271.91
703.26	271.52
703.59	271.16
703.93	271.24
704.26	270.82
704.60	270.33
704.93	269.88
705.26	269.42
705.60	269.12
705.93	268.53
706.27	268.34
706.60	268.08
706.94	267.88
707.27	267.47
707.61	267.16
707.94	266.80
708.27	266.00
708.61	265.33
708.94	264.93
709.28	264.59
709.61	264.17
709.94	263.82
710.28	263.50
710.61	263.18
710.95	262.33
711.28	262.31
711.61	262.00
711.95	261.70
712.28	261.36
712.61	260.98
712.95	260.91
713.28	260.69
713.61	260.24
713.95	259.79
714.28	259.56
714.61	259.18
714.95	258.79
715.28	258.40
715.61	258.11
715.95	257.83
716.28	257.41
716.61	257.16
716.95	256.85
717.28	256.55
717.61	256.21
717.94	256.00
718.28	255.37
718.61	255.01
718.94	254.75
719.27	254.51
719.61	254.30
719.94	253.92
720.27	253.43
720.60	253.18
720.94	252.85
721.27	252.59
721.60	252.45
721.93	252.25
722.27	252.21
722.60	252.02
722.93	251.73
723.26	251.65
723.59	251.43
723.93	251.31
724.26	251.11
724.59	250.86
724.92	250.62
725.25	250.56
725.59	250.37
725.92	250.23
726.25	250.00
726.58	249.83
726.91	249.64
727.24	249.50
727.57	249.26
727.91	249.06
728.24	248.88
728.57	248.56
728.90	248.40
729.23	248.07
729.56	248.08
729.89	247.95
730.22	247.77
730.55	247.55
730.89	247.30
731.22	247.09
731.55	246.91
731.88	246.78
732.21	246.58
732.54	246.36
732.87	246.19
733.20	246.10
733.53	245.93
733.86	245.83
734.19	245.58
734.52	245.50
734.85	245.69
735.18	245.47
735.51	245.45
735.84	245.27
736.17	245.21
736.50	244.77
736.83	245.10
737.16	244.89
737.49	244.69
737.82	244.48
738.15	244.42
738.48	244.30
738.81	244.13
739.14	243.88
739.47	243.71
739.80	243.55
740.13	243.38
740.46	243.15
740.79	242.84
741.12	242.64
741.45	242.39
741.78	241.86
742.11	241.87
742.44	241.69
742.77	241.70
743.10	241.50
743.43	241.44
743.75	240.84
744.08	241.32
744.41	241.25
744.74	241.12
745.07	240.90
745.40	240.82
745.73	240.81
746.06	240.64
746.39	240.58
746.71	240.33
747.04	240.13
747.37	240.00
747.70	240.06
748.03	240.06
748.36	240.03
748.68	239.99
749.01	239.65
749.34	239.46
749.67	239.29
750.00	239.25
750.33	239.42
750.65	239.35
750.98	238.63
751.31	238.46
751.64	238.42
751.97	238.43
752.29	238.32
752.62	238.10
752.95	238.03
753.28	237.85
753.60	237.81
753.93	237.79
754.26	237.73
754.59	237.44
754.91	237.26
755.24	237.13
755.57	237.04
755.90	237.04
756.22	236.96
756.55	236.84
756.88	236.66
757.20	236.25
757.53	236.01
757.86	235.95
758.19	235.96
758.51	235.88
758.84	235.67
759.17	235.53
759.49	235.45
759.82	235.62
760.15	235.61
760.47	235.50
760.80	235.40
761.13	235.32
761.45	235.25
761.78	235.21
762.11	235.14
762.43	234.97
762.76	234.84
763.08	234.85
763.41	234.79
763.74	234.71
764.06	234.60
764.39	234.56
764.71	234.39
765.04	234.21
765.37	234.02
765.69	233.92
766.02	233.83
766.34	233.63
766.67	233.38
767.00	233.28
767.32	233.50
767.65	233.64
767.97	233.63
768.30	233.64
768.62	233.62
768.95	233.47
769.27	233.40
769.60	233.41
769.92	233.18
770.25	232.99
770.57	232.85
770.90	232.86
771.22	232.70
771.55	232.71
771.87	232.64
772.20	232.64
772.52	233.00
772.85	233.50
773.17	233.51
773.50	233.38
773.82	233.27
774.15	232.93
774.47	232.66
774.80	232.52
775.12	232.32
775.45	232.24
775.77	232.26
776.09	232.29
776.42	232.25
776.74	232.38
777.07	232.37
777.39	232.31
777.72	232.15
778.04	232.10
778.36	232.04
778.69	232.07
779.01	232.05
779.33	231.63
779.66	231.07
779.98	230.99
780.31	230.99
780.63	231.18
780.95	231.21
781.28	231.11
781.60	231.05
781.92	231.06
782.25	230.94
782.57	230.84
782.89	230.75
783.22	230.66
783.54	230.49
783.86	230.45
784.19	230.45
784.51	230.63
784.83	230.62
785.16	230.61
785.48	230.56
785.80	230.51
786.12	230.48
786.45	230.41
786.77	230.40
787.09	230.36
787.42	230.21
787.74	230.20
788.06	230.18
788.38	230.13
788.71	230.08
789.03	230.13
789.35	230.23
789.67	230.13
789.99	230.11
790.32	230.08
790.64	230.03
790.96	230.36
791.28	230.18
791.61	230.11
791.93	230.06
792.25	230.01
792.57	230.28
792.89	230.14
793.21	230.10
793.54	230.08
793.86	229.98
794.18	229.92
794.50	229.88
794.82	229.91
795.14	229.88
795.47	229.96
795.79	229.95
796.11	229.75
796.43	229.75
796.75	229.75
797.07	229.72
797.39	229.78
797.71	229.37
798.04	229.37
798.36	229.45
798.68	229.40
799.00	229.40
799.32	229.20
799.64	229.30
799.96	229.29
800.28	229.31
800.60	229.28
800.92	229.34
801.24	229.26
801.56	229.21
801.89	229.22
802.21	229.26
802.53	229.11
802.85	229.21
803.17	229.44
803.49	229.26
803.81	229.21
804.13	229.14
804.45	229.18
804.77	229.19
805.09	229.10
805.41	229.07
805.73	228.93
806.05	228.79
806.37	228.75
806.69	228.74
807.01	228.70
807.33	228.74
807.65	228.56
807.97	228.74
808.28	228.78
808.60	228.80
808.92	228.67
809.24	228.99
809.56	228.95
809.88	228.69
810.20	228.80
810.52	228.85
810.84	228.73
811.16	228.60
811.48	228.49
811.80	228.65
812.12	228.64
812.43	228.81
812.75	228.85
813.07	228.75
813.39	228.79
813.71	228.67
814.03	228.67
814.35	228.66
814.67	228.50
814.98	228.32
815.30	228.23
815.62	228.20
815.94	227.86
816.26	228.00
816.58	227.94
816.89	227.83
817.21	227.76
817.53	227.78
817.85	227.80
