SpectraSuite Data File
++++++++++++++++++++++++++++++++++++
Date: Wed Sep 04 18:01:27 EDT 2013
User: lab3
Dark Spectrum Present: Yes
Reference Spectrum Present: No
Number of Sampled Component Spectra: 1
Spectrometers: USB2E7196
Integration Time (usec): 170000 (USB2E7196)
Spectra Averaged: 20 (USB2E7196)
Boxcar Smoothing: 10 (USB2E7196)
Correct for Electrical Dark: No (USB2E7196)
Strobe/Lamp Enabled: No (USB2E7196)
Correct for Detector Non-linearity: No (USB2E7196)
Correct for Stray Light: No (USB2E7196)
Number of Pixels in Processed Spectrum: 2048
>>>>>Begin Processed Spectral Data<<<<<
339.09	0.00
339.48	213.55
339.86	216.15
340.24	216.90
340.63	217.80
341.01	226.65
341.39	220.65
341.78	222.30
342.16	225.05
342.54	224.55
342.93	212.93
343.31	223.68
343.69	224.27
344.07	224.66
344.46	225.09
344.84	225.48
345.22	225.49
345.60	225.82
345.99	226.03
346.37	226.08
346.75	226.15
347.13	226.20
347.52	226.40
347.90	226.57
348.28	226.66
348.66	226.90
349.05	226.72
349.43	226.87
349.81	226.91
350.19	226.96
350.57	227.02
350.96	227.05
351.34	227.14
351.72	227.17
352.10	227.33
352.48	227.38
352.87	227.40
353.25	227.43
353.63	227.37
354.01	227.37
354.39	227.46
354.77	227.51
355.15	227.69
355.54	227.71
355.92	227.53
356.30	227.54
356.68	227.87
357.06	227.94
357.44	227.93
357.82	228.01
358.20	228.42
358.58	228.51
358.97	228.56
359.35	228.74
359.73	228.93
360.11	228.96
360.49	229.05
360.87	229.13
361.25	229.25
361.63	229.52
362.01	229.64
362.39	229.63
362.77	229.71
363.15	229.74
363.53	229.80
363.91	229.95
364.29	229.99
364.67	229.63
365.05	229.73
365.43	229.80
365.81	229.86
366.19	229.74
366.57	230.00
366.95	230.01
367.33	229.92
367.71	229.92
368.09	229.99
368.47	229.98
368.85	230.04
369.23	230.12
369.61	230.01
369.99	230.12
370.37	230.25
370.75	230.49
371.13	230.42
371.51	230.27
371.89	230.25
372.27	230.29
372.65	230.23
373.03	230.16
373.41	230.02
373.78	230.00
374.16	229.72
374.54	229.44
374.92	229.37
375.30	229.22
375.68	229.04
376.06	229.03
376.44	228.91
376.82	228.85
377.19	228.83
377.57	228.72
377.95	228.51
378.33	228.35
378.71	227.97
379.09	227.93
379.47	227.91
379.84	227.79
380.22	227.60
380.60	227.43
380.98	227.41
381.36	227.38
381.73	227.15
382.11	227.17
382.49	227.12
382.87	227.04
383.25	227.03
383.62	227.51
384.00	227.37
384.38	227.28
384.76	227.33
385.13	227.28
385.51	227.13
385.89	227.04
386.27	226.95
386.64	226.98
387.02	226.91
387.40	226.87
387.78	226.84
388.15	226.84
388.53	226.80
388.91	226.74
389.29	226.65
389.66	226.69
390.04	226.56
390.42	226.60
390.79	226.55
391.17	226.47
391.55	225.93
391.92	225.91
392.30	225.99
392.68	225.84
393.05	225.79
393.43	225.91
393.81	225.91
394.18	225.85
394.56	225.85
394.94	225.95
395.31	225.93
395.69	226.15
396.06	226.24
396.44	226.34
396.82	226.33
397.19	226.63
397.57	226.69
397.95	226.81
398.32	226.75
398.70	226.94
399.07	227.13
399.45	227.16
399.82	227.20
400.20	227.25
400.58	227.34
400.95	227.25
401.33	227.42
401.70	227.88
402.08	228.06
402.45	228.17
402.83	228.41
403.20	228.54
403.58	228.65
403.95	228.89
404.33	229.16
404.71	229.41
405.08	229.87
405.46	230.07
405.83	230.35
406.21	230.57
406.58	230.86
406.96	231.16
407.33	231.55
407.70	231.96
408.08	232.73
408.45	233.24
408.83	233.83
409.20	234.21
409.58	234.33
409.95	234.91
410.33	235.48
410.70	235.88
411.08	236.59
411.45	237.17
411.82	237.78
412.20	238.50
412.57	239.51
412.95	239.90
413.32	240.81
413.69	241.69
414.07	242.63
414.44	243.60
414.82	244.69
415.19	245.86
415.56	247.02
415.94	248.02
416.31	249.40
416.68	250.80
417.06	252.42
417.43	254.09
417.81	255.86
418.18	257.78
418.55	259.67
418.93	261.73
419.30	263.88
419.67	266.12
420.04	268.33
420.42	270.55
420.79	273.61
421.16	276.40
421.54	279.39
421.91	282.41
422.28	285.58
422.66	288.85
423.03	292.33
423.40	295.82
423.77	299.43
424.15	303.11
424.52	307.00
424.89	311.19
425.26	315.21
425.64	319.00
426.01	323.11
426.38	327.62
426.75	332.15
427.13	336.72
427.50	341.47
427.87	346.51
428.24	351.60
428.61	356.14
428.99	361.56
429.36	367.08
429.73	372.66
430.10	378.12
430.47	383.73
430.85	389.53
431.22	395.65
431.59	402.47
431.96	408.73
432.33	415.59
432.70	422.31
433.08	430.20
433.45	437.72
433.82	445.05
434.19	453.21
434.56	461.32
434.93	469.02
435.30	476.90
435.68	485.45
436.05	493.91
436.42	502.25
436.79	509.94
437.16	518.38
437.53	527.21
437.90	536.17
438.27	544.93
438.64	553.69
439.01	562.03
439.38	569.37
439.75	576.56
440.13	584.69
440.50	592.30
440.87	598.54
441.24	604.95
441.61	612.05
441.98	617.18
442.35	623.09
442.72	629.20
443.09	634.99
443.46	638.32
443.83	640.51
444.20	642.50
444.57	645.20
444.94	646.34
445.31	647.56
445.68	648.78
446.05	648.97
446.42	647.75
446.79	646.45
447.16	644.67
447.53	643.29
447.90	639.47
448.27	635.65
448.64	630.63
449.01	626.75
449.37	620.49
449.74	614.42
450.11	607.45
450.48	599.62
450.85	591.53
451.22	584.79
451.59	578.22
451.96	571.83
452.33	563.68
452.70	556.23
453.07	547.40
453.43	538.15
453.80	529.69
454.17	521.53
454.54	513.71
454.91	505.54
455.28	497.59
455.65	490.09
456.02	483.30
456.38	477.02
456.75	469.32
457.12	462.75
457.49	456.49
457.86	450.03
458.23	444.84
458.59	439.13
458.96	433.30
459.33	428.13
459.70	423.04
460.07	418.93
460.43	414.15
460.80	409.85
461.17	406.17
461.54	402.06
461.91	398.22
462.27	394.29
462.64	390.93
463.01	387.35
463.38	384.06
463.74	379.97
464.11	376.98
464.48	374.32
464.85	371.57
465.21	369.32
465.58	367.07
465.95	364.13
466.32	361.84
466.68	359.60
467.05	357.44
467.42	355.22
467.78	352.90
468.15	350.80
468.52	349.14
468.88	346.91
469.25	345.03
469.62	343.64
469.98	342.04
470.35	340.56
470.72	339.02
471.08	337.33
471.45	336.13
471.82	334.86
472.18	333.45
472.55	332.32
472.92	330.96
473.28	329.78
473.65	328.80
474.02	327.80
474.38	326.89
474.75	326.09
475.11	325.19
475.48	324.51
475.85	323.94
476.21	323.31
476.58	322.75
476.94	322.33
477.31	321.81
477.67	321.34
478.04	320.96
478.41	320.85
478.77	321.21
479.14	320.87
479.50	320.72
479.87	320.74
480.23	320.84
480.60	320.82
480.96	320.83
481.33	321.20
481.69	321.44
482.06	321.72
482.42	321.95
482.79	322.37
483.15	322.87
483.52	323.41
483.88	324.00
484.25	324.63
484.61	325.27
484.98	325.97
485.34	326.98
485.71	328.02
486.07	328.85
486.44	329.38
486.80	330.48
487.17	331.47
487.53	332.82
487.90	334.26
488.26	335.98
488.62	337.76
488.99	339.19
489.35	340.99
489.72	342.93
490.08	344.94
490.44	346.91
490.81	349.08
491.17	351.35
491.54	353.75
491.90	356.33
492.26	358.98
492.63	361.65
492.99	364.40
493.36	367.32
493.72	370.77
494.08	374.17
494.45	377.87
494.81	381.83
495.17	385.76
495.54	389.80
495.90	394.02
496.26	398.43
496.63	403.12
496.99	407.84
497.35	412.92
497.72	418.18
498.08	423.77
498.44	429.45
498.80	435.43
499.17	441.44
499.53	447.75
499.89	454.40
500.26	461.31
500.62	468.50
500.98	476.06
501.34	483.43
501.71	491.30
502.07	499.20
502.43	507.30
502.79	515.73
503.16	524.50
503.52	533.52
503.88	542.76
504.24	552.63
504.60	562.66
504.97	572.82
505.33	583.23
505.69	594.25
506.05	605.31
506.41	616.51
506.78	628.33
507.14	640.36
507.50	652.75
507.86	665.60
508.22	678.51
508.59	691.47
508.95	705.13
509.31	719.22
509.67	733.55
510.03	747.92
510.39	762.69
510.75	777.64
511.12	792.75
511.48	808.44
511.84	824.15
512.20	840.08
512.56	856.35
512.92	873.27
513.28	890.15
513.64	907.42
514.00	925.00
514.37	942.99
514.73	961.30
515.09	979.65
515.45	998.00
515.81	1016.39
516.17	1035.27
516.53	1054.00
516.89	1072.85
517.25	1092.06
517.61	1112.27
517.97	1132.78
518.33	1153.14
518.69	1173.59
519.05	1194.04
519.41	1214.64
519.77	1235.95
520.13	1256.83
520.49	1277.74
520.85	1300.26
521.21	1321.37
521.57	1342.73
521.93	1363.38
522.29	1384.60
522.65	1405.32
523.01	1426.24
523.37	1447.10
523.73	1468.41
524.09	1489.12
524.45	1510.03
524.81	1531.27
525.17	1551.97
525.53	1572.24
525.89	1592.93
526.25	1613.97
526.61	1634.60
526.97	1655.89
527.33	1677.18
527.68	1699.11
528.04	1720.40
528.40	1739.74
528.76	1761.08
529.12	1781.54
529.48	1802.33
529.84	1822.43
530.20	1843.85
530.56	1864.81
530.91	1885.90
531.27	1906.18
531.63	1926.90
531.99	1947.70
532.35	1967.97
532.71	1988.32
533.07	2009.30
533.42	2029.60
533.78	2049.56
534.14	2069.56
534.50	2088.66
534.86	2107.77
535.21	2125.39
535.57	2144.04
535.93	2161.92
536.29	2179.64
536.65	2198.25
537.00	2216.16
537.36	2234.03
537.72	2250.46
538.08	2267.93
538.44	2284.68
538.79	2301.45
539.15	2318.20
539.51	2333.90
539.87	2349.05
540.22	2363.54
540.58	2377.82
540.94	2390.94
541.29	2403.94
541.65	2416.27
542.01	2428.85
542.37	2439.70
542.72	2450.83
543.08	2461.55
543.44	2473.33
543.79	2483.55
544.15	2493.09
544.51	2502.85
544.87	2512.69
545.22	2521.61
545.58	2529.24
545.94	2536.31
546.29	2542.67
546.65	2549.20
547.01	2554.95
547.36	2560.54
547.72	2566.01
548.07	2570.19
548.43	2575.63
548.79	2580.24
549.14	2584.87
549.50	2588.84
549.86	2593.12
550.21	2597.07
550.57	2600.28
550.92	2602.08
551.28	2603.62
551.64	2606.17
551.99	2608.63
552.35	2609.92
552.70	2611.84
553.06	2613.86
553.41	2615.20
553.77	2617.33
554.13	2618.83
554.48	2620.34
554.84	2622.08
555.19	2623.21
555.55	2624.80
555.90	2624.21
556.26	2623.31
556.61	2621.75
556.97	2619.72
557.32	2618.97
557.68	2617.76
558.03	2616.49
558.39	2615.15
558.74	2614.27
559.10	2611.19
559.45	2607.70
559.81	2603.85
560.16	2599.20
560.52	2594.25
560.87	2590.09
561.23	2584.75
561.58	2578.74
561.94	2572.03
562.29	2564.52
562.64	2557.51
563.00	2549.30
563.35	2543.04
563.71	2536.23
564.06	2529.99
564.42	2523.35
564.77	2516.61
565.12	2509.30
565.48	2501.70
565.83	2494.04
566.19	2485.99
566.54	2478.06
566.89	2469.67
567.25	2461.30
567.60	2454.07
567.96	2446.69
568.31	2438.63
568.66	2430.06
569.02	2421.19
569.37	2413.15
569.72	2405.47
570.08	2396.12
570.43	2386.79
570.78	2377.35
571.14	2368.00
571.49	2358.08
571.84	2348.55
572.20	2337.24
572.55	2327.39
572.90	2316.39
573.26	2305.76
573.61	2294.65
573.96	2283.58
574.31	2271.69
574.67	2260.05
575.02	2247.14
575.37	2234.23
575.72	2220.78
576.08	2208.27
576.43	2195.94
576.78	2182.64
577.13	2168.81
577.49	2155.83
577.84	2143.73
578.19	2131.76
578.54	2119.44
578.90	2107.10
579.25	2094.50
579.60	2082.17
579.95	2068.83
580.30	2055.73
580.66	2042.44
581.01	2028.78
581.36	2014.46
581.71	2001.71
582.06	1988.58
582.42	1975.81
582.77	1962.89
583.12	1951.07
583.47	1938.42
583.82	1926.05
584.17	1914.19
584.53	1902.33
584.88	1889.83
585.23	1876.59
585.58	1862.08
585.93	1848.71
586.28	1835.01
586.63	1820.98
586.98	1806.68
587.34	1793.28
587.69	1779.74
588.04	1766.75
588.39	1754.91
588.74	1742.80
589.09	1730.53
589.44	1717.67
589.79	1705.65
590.14	1693.91
590.49	1681.76
590.84	1669.82
591.19	1657.68
591.54	1645.17
591.89	1632.81
592.25	1622.18
592.60	1610.90
592.95	1599.55
593.30	1587.23
593.65	1575.47
594.00	1563.56
594.35	1553.70
594.70	1541.80
595.05	1530.47
595.40	1518.26
595.75	1505.93
596.10	1494.76
596.45	1483.24
596.80	1472.58
597.15	1460.84
597.50	1448.55
597.85	1437.07
598.19	1425.33
598.54	1413.57
598.89	1402.13
599.24	1391.57
599.59	1379.97
599.94	1368.90
600.29	1358.35
600.64	1348.25
600.99	1337.58
601.34	1328.08
601.69	1316.75
602.04	1306.96
602.39	1297.29
602.74	1288.31
603.08	1278.93
603.43	1269.51
603.78	1259.79
604.13	1250.08
604.48	1240.35
604.83	1230.86
605.18	1221.17
605.53	1211.72
605.87	1202.60
606.22	1193.95
606.57	1184.48
606.92	1175.12
607.27	1166.03
607.62	1157.20
607.96	1148.57
608.31	1140.59
608.66	1132.16
609.01	1123.57
609.36	1114.76
609.70	1106.08
610.05	1097.11
610.40	1088.50
610.75	1079.67
611.10	1071.31
611.44	1062.66
611.79	1054.40
612.14	1046.64
612.49	1038.54
612.83	1030.89
613.18	1022.97
613.53	1015.34
613.88	1007.33
614.22	999.51
614.57	991.61
614.92	983.70
615.27	976.07
615.61	968.28
615.96	960.45
616.31	952.85
616.65	945.90
617.00	938.40
617.35	931.22
617.70	923.92
618.04	916.88
618.39	909.98
618.74	903.59
619.08	896.87
619.43	889.41
619.78	882.27
620.12	875.04
620.47	868.23
620.82	860.84
621.16	854.22
621.51	847.72
621.85	841.43
622.20	834.79
622.55	828.05
622.89	821.40
623.24	814.97
623.59	808.55
623.93	802.07
624.28	795.90
624.62	790.26
624.97	784.42
625.32	778.50
625.66	772.20
626.01	765.94
626.35	760.18
626.70	754.64
627.04	749.53
627.39	743.98
627.73	738.56
628.08	733.35
628.43	727.77
628.77	722.21
629.12	716.94
629.46	712.27
629.81	707.41
630.15	702.75
630.50	697.99
630.84	693.16
631.19	688.26
631.53	683.77
631.88	678.33
632.22	673.44
632.57	668.89
632.91	664.37
633.26	659.84
633.60	655.26
633.95	650.58
634.29	645.66
634.64	641.29
634.98	636.43
635.32	632.08
635.67	627.99
636.01	623.97
636.36	619.50
636.70	615.30
637.05	611.03
637.39	606.64
637.73	602.34
638.08	598.25
638.42	593.91
638.77	589.48
639.11	585.30
639.45	580.95
639.80	576.70
640.14	572.48
640.49	568.47
640.83	564.58
641.17	561.09
641.52	557.35
641.86	553.70
642.20	550.53
642.55	546.83
642.89	543.16
643.23	539.53
643.58	536.38
643.92	532.68
644.26	529.32
644.61	525.97
644.95	522.50
645.29	519.01
645.64	516.05
645.98	512.94
646.32	509.90
646.66	506.74
647.01	503.65
647.35	500.88
647.69	497.92
648.04	495.08
648.38	492.14
648.72	489.24
649.06	486.18
649.41	483.07
649.75	480.02
650.09	477.17
650.43	474.22
650.78	471.17
651.12	468.33
651.46	465.52
651.80	462.94
652.14	460.34
652.49	458.01
652.83	455.34
653.17	452.69
653.51	450.05
653.85	447.73
654.20	445.27
654.54	442.65
654.88	440.04
655.22	437.73
655.56	435.17
655.90	432.72
656.25	430.40
656.59	428.11
656.93	425.96
657.27	423.91
657.61	421.46
657.95	419.15
658.29	416.88
658.64	414.93
658.98	412.64
659.32	410.37
659.66	408.01
660.00	405.89
660.34	403.78
660.68	401.80
661.02	399.75
661.36	397.75
661.70	395.83
662.05	393.94
662.39	391.87
662.73	390.15
663.07	388.62
663.41	386.85
663.75	384.82
664.09	383.05
664.43	381.04
664.77	379.38
665.11	377.75
665.45	376.19
665.79	374.49
666.13	372.71
666.47	371.10
666.81	369.44
667.15	367.74
667.49	366.30
667.83	364.92
668.17	363.41
668.51	361.91
668.85	360.50
669.19	359.42
669.53	358.00
669.87	356.36
670.21	354.70
670.55	353.27
670.89	352.24
671.23	350.80
671.57	349.34
671.91	348.09
672.25	346.61
672.58	345.29
672.92	343.64
673.26	342.40
673.60	341.07
673.94	339.97
674.28	338.80
674.62	337.65
674.96	336.26
675.30	335.08
675.64	333.94
675.97	332.74
676.31	331.25
676.65	329.98
676.99	329.10
677.33	327.94
677.67	326.89
678.01	325.49
678.34	324.44
678.68	323.55
679.02	322.49
679.36	321.54
679.70	320.52
680.04	319.71
680.37	318.74
680.71	317.80
681.05	316.85
681.39	315.97
681.73	314.89
682.06	314.05
682.40	313.17
682.74	312.20
683.08	311.45
683.42	310.55
683.75	309.76
684.09	308.69
684.43	307.93
684.77	307.07
685.10	306.39
685.44	305.72
685.78	304.92
686.12	304.11
686.45	303.34
686.79	302.47
687.13	301.79
687.46	301.06
687.80	300.50
688.14	299.59
688.48	298.75
688.81	298.10
689.15	297.44
689.49	296.71
689.82	296.03
690.16	295.06
690.50	294.45
690.83	293.66
691.17	292.90
691.51	292.14
691.84	291.44
692.18	290.72
692.52	289.88
692.85	289.12
693.19	288.62
693.52	287.98
693.86	287.37
694.20	286.73
694.53	286.10
694.87	285.32
695.21	284.77
695.54	284.18
695.88	283.40
696.21	282.64
696.55	282.04
696.88	281.41
697.22	280.86
697.56	280.35
697.89	279.84
698.23	279.38
698.56	278.94
698.90	278.47
699.23	277.78
699.57	277.37
699.90	276.85
700.24	276.19
700.58	275.66
700.91	275.22
701.25	274.99
701.58	274.87
701.92	274.52
702.25	274.04
702.59	273.54
702.92	273.20
703.26	272.75
703.59	272.30
703.93	272.26
704.26	271.89
704.60	271.42
704.93	270.89
705.26	270.41
705.60	269.98
705.93	269.50
706.27	269.36
706.60	268.98
706.94	268.85
707.27	268.48
707.61	268.19
707.94	267.74
708.27	267.03
708.61	266.28
708.94	265.84
709.28	265.47
709.61	265.13
709.94	264.80
710.28	264.47
710.61	264.13
710.95	263.38
711.28	263.35
711.61	262.96
711.95	262.76
712.28	262.45
712.61	262.07
712.95	262.00
713.28	261.84
713.61	261.46
713.95	260.96
714.28	260.65
714.61	260.20
714.95	259.88
715.28	259.41
715.61	259.04
715.95	258.77
716.28	258.40
716.61	258.15
716.95	257.79
717.28	257.52
717.61	257.23
717.94	256.93
718.28	256.20
718.61	255.88
718.94	255.49
719.27	255.20
719.61	255.02
719.94	254.56
720.27	254.02
720.60	253.73
720.94	253.48
721.27	253.30
721.60	253.17
721.93	252.99
722.27	252.99
722.60	252.85
722.93	252.55
723.26	252.41
723.59	252.07
723.93	251.94
724.26	251.77
724.59	251.56
724.92	251.41
725.25	251.42
725.59	251.23
725.92	251.09
726.25	250.89
726.58	250.66
726.91	250.50
727.24	250.38
727.57	250.20
727.91	249.93
728.24	249.82
728.57	249.57
728.90	249.42
729.23	249.10
729.56	249.22
729.89	249.06
730.22	248.85
730.55	248.68
730.89	248.47
731.22	248.22
731.55	247.95
731.88	247.73
732.21	247.47
732.54	247.22
732.87	247.07
733.20	246.96
733.53	246.75
733.86	246.63
734.19	246.37
734.52	246.19
734.85	246.28
735.18	245.93
735.51	245.98
735.84	245.79
736.17	245.76
736.50	245.32
736.83	245.65
737.16	245.46
737.49	245.37
737.82	245.12
738.15	245.03
738.48	244.90
738.81	244.82
739.14	244.60
739.47	244.45
739.80	244.31
740.13	244.21
740.46	244.02
740.79	243.82
741.12	243.76
741.45	243.61
741.78	243.24
742.11	243.28
742.44	242.98
742.77	242.92
743.10	242.69
743.43	242.48
743.75	241.90
744.08	242.44
744.41	242.23
744.74	242.13
745.07	241.94
745.40	241.95
745.73	241.92
746.06	241.83
746.39	241.79
746.71	241.62
747.04	241.40
747.37	241.30
747.70	241.19
748.03	241.03
748.36	240.97
748.68	240.85
749.01	240.58
749.34	240.51
749.67	240.38
750.00	240.29
750.33	240.53
750.65	240.50
750.98	239.74
751.31	239.66
751.64	239.58
751.97	239.67
752.29	239.49
752.62	239.18
752.95	238.94
753.28	238.78
753.60	238.59
753.93	238.55
754.26	238.54
754.59	238.35
754.91	238.20
755.24	238.03
755.57	238.03
755.90	237.89
756.22	237.70
756.55	237.53
756.88	237.45
757.20	237.10
757.53	236.83
757.86	236.68
758.19	236.68
758.51	236.60
758.84	236.32
759.17	236.22
759.49	236.18
759.82	236.41
760.15	236.32
760.47	236.34
760.80	236.17
761.13	236.11
761.45	235.97
761.78	235.94
762.11	235.86
762.43	235.64
762.76	235.62
763.08	235.68
763.41	235.64
763.74	235.50
764.06	235.33
764.39	235.21
764.71	235.23
765.04	235.04
765.37	234.90
765.69	234.80
766.02	234.65
766.34	234.57
766.67	234.33
767.00	234.34
767.32	234.49
767.65	234.78
767.97	234.64
768.30	234.65
768.62	234.50
768.95	234.48
769.27	234.50
769.60	234.50
769.92	234.26
770.25	234.12
770.57	234.00
770.90	233.96
771.22	233.91
771.55	233.81
771.87	233.77
772.20	233.70
772.52	234.01
772.85	234.54
773.17	234.53
773.50	234.44
773.82	234.33
774.15	234.06
774.47	233.66
774.80	233.56
775.12	233.46
775.45	233.45
775.77	233.31
776.09	233.25
776.42	233.13
776.74	233.21
777.07	233.09
777.39	232.99
777.72	232.93
778.04	232.90
778.36	232.77
778.69	232.74
779.01	232.78
779.33	232.30
779.66	231.78
779.98	231.60
780.31	231.56
780.63	231.72
780.95	231.68
781.28	231.57
781.60	231.46
781.92	231.44
782.25	231.34
782.57	231.34
782.89	231.18
783.22	231.05
783.54	230.93
783.86	230.94
784.19	230.91
784.51	230.97
784.83	230.89
785.16	230.84
785.48	230.74
785.80	230.62
786.12	230.56
786.45	230.46
786.77	230.48
787.09	230.37
787.42	230.09
787.74	230.12
788.06	230.08
788.38	230.10
788.71	229.94
789.03	229.92
789.35	229.94
789.67	229.89
789.99	229.90
790.32	229.77
790.64	229.83
790.96	230.16
791.28	230.00
791.61	229.92
791.93	229.93
792.25	229.97
792.57	230.25
792.89	230.20
793.21	230.17
793.54	230.11
793.86	230.04
794.18	230.06
794.50	229.93
794.82	229.95
795.14	229.95
795.47	230.09
795.79	230.10
796.11	229.98
796.43	229.93
796.75	229.95
797.07	230.04
797.39	229.95
797.71	229.61
798.04	229.61
798.36	229.67
798.68	229.62
799.00	229.66
799.32	229.39
799.64	229.46
799.96	229.50
800.28	229.52
800.60	229.52
800.92	229.55
801.24	229.56
801.56	229.60
801.89	229.55
802.21	229.57
802.53	229.48
802.85	229.58
803.17	229.83
803.49	229.72
803.81	229.66
804.13	229.64
804.45	229.63
804.77	229.63
805.09	229.56
805.41	229.55
805.73	229.40
806.05	229.35
806.37	229.31
806.69	229.19
807.01	229.15
807.33	229.15
807.65	228.98
807.97	229.15
808.28	229.05
808.60	229.05
808.92	228.94
809.24	229.20
809.56	229.13
809.88	228.94
810.20	228.95
810.52	229.00
810.84	228.95
811.16	228.89
811.48	228.85
811.80	229.00
812.12	228.97
812.43	229.05
812.75	229.03
813.07	228.95
813.39	229.04
813.71	228.99
814.03	228.95
814.35	228.96
814.67	228.73
814.98	228.79
815.30	228.67
815.62	228.57
815.94	228.30
816.26	228.42
816.58	228.38
816.89	228.36
817.21	228.23
817.53	228.28
817.85	228.25
