SpectraSuite Data File
++++++++++++++++++++++++++++++++++++
Date: Wed Sep 04 17:52:00 EDT 2013
User: lab3
Dark Spectrum Present: Yes
Reference Spectrum Present: No
Number of Sampled Component Spectra: 1
Spectrometers: USB2E7196
Integration Time (usec): 170000 (USB2E7196)
Spectra Averaged: 20 (USB2E7196)
Boxcar Smoothing: 10 (USB2E7196)
Correct for Electrical Dark: No (USB2E7196)
Strobe/Lamp Enabled: No (USB2E7196)
Correct for Detector Non-linearity: No (USB2E7196)
Correct for Stray Light: No (USB2E7196)
Number of Pixels in Processed Spectrum: 2048
>>>>>Begin Processed Spectral Data<<<<<
339.09	0.00
339.48	214.95
339.86	215.80
340.24	215.65
340.63	217.75
341.01	226.15
341.39	220.05
341.78	222.60
342.16	223.95
342.54	222.70
342.93	212.36
343.31	223.04
343.69	223.50
344.07	223.89
344.46	224.36
344.84	224.82
345.22	224.84
345.60	225.15
345.99	225.31
346.37	225.40
346.75	225.52
347.13	225.55
347.52	225.62
347.90	225.85
348.28	225.98
348.66	226.12
349.05	226.00
349.43	226.05
349.81	226.20
350.19	226.21
350.57	226.23
350.96	226.28
351.34	226.33
351.72	226.39
352.10	226.53
352.48	226.54
352.87	226.52
353.25	226.53
353.63	226.52
354.01	226.60
354.39	226.67
354.77	226.80
355.15	227.00
355.54	226.95
355.92	226.90
356.30	226.89
356.68	227.31
357.06	227.46
357.44	227.45
357.82	227.48
358.20	227.91
358.58	227.91
358.97	227.98
359.35	228.16
359.73	228.37
360.11	228.39
360.49	228.54
360.87	228.59
361.25	228.70
361.63	228.90
362.01	228.94
362.39	228.96
362.77	229.00
363.15	228.99
363.53	229.12
363.91	229.16
364.29	229.19
364.67	228.72
365.05	228.72
365.43	228.84
365.81	228.99
366.19	228.96
366.57	229.26
366.95	229.22
367.33	229.17
367.71	229.10
368.09	229.22
368.47	229.20
368.85	229.20
369.23	229.29
369.61	229.13
369.99	229.29
370.37	229.38
370.75	229.62
371.13	229.53
371.51	229.44
371.89	229.51
372.27	229.60
372.65	229.64
373.03	229.70
373.41	229.65
373.78	229.50
374.16	229.19
374.54	228.95
374.92	228.90
375.30	228.91
375.68	228.79
376.06	228.72
376.44	228.63
376.82	228.61
377.19	228.49
377.57	228.46
377.95	228.25
378.33	228.16
378.71	227.87
379.09	227.98
379.47	227.99
379.84	227.79
380.22	227.68
380.60	227.54
380.98	227.39
381.36	227.34
381.73	227.20
382.11	227.20
382.49	227.15
382.87	227.09
383.25	226.99
383.62	227.44
384.00	227.35
384.38	227.34
384.76	227.43
385.13	227.53
385.51	227.39
385.89	227.22
386.27	227.14
386.64	227.05
387.02	226.87
387.40	226.69
387.78	226.71
388.15	226.66
388.53	226.51
388.91	226.41
389.29	226.31
389.66	226.33
390.04	226.16
390.42	226.17
390.79	226.10
391.17	226.01
391.55	225.50
391.92	225.43
392.30	225.47
392.68	225.27
393.05	225.20
393.43	225.31
393.81	225.49
394.18	225.36
394.56	225.36
394.94	225.46
395.31	225.46
395.69	225.60
396.06	225.69
396.44	225.82
396.82	225.84
397.19	226.15
397.57	226.14
397.95	226.39
398.32	226.35
398.70	226.43
399.07	226.66
399.45	226.71
399.82	226.73
400.20	226.70
400.58	226.82
400.95	226.78
401.33	226.97
401.70	227.26
402.08	227.40
402.45	227.52
402.83	227.80
403.20	228.04
403.58	228.12
403.95	228.38
404.33	228.64
404.71	228.95
405.08	229.38
405.46	229.60
405.83	229.78
406.21	230.08
406.58	230.45
406.96	230.71
407.33	231.03
407.70	231.46
408.08	232.24
408.45	232.65
408.83	233.17
409.20	233.50
409.58	233.68
409.95	234.33
410.33	234.89
410.70	235.21
411.08	235.86
411.45	236.50
411.82	237.10
412.20	237.84
412.57	238.79
412.95	239.09
413.32	240.05
413.69	240.93
414.07	241.93
414.44	242.87
414.82	243.84
415.19	245.06
415.56	246.25
415.94	247.16
416.31	248.58
416.68	249.98
417.06	251.61
417.43	253.30
417.81	254.99
418.18	256.84
418.55	258.77
418.93	260.73
419.30	262.76
419.67	264.90
420.04	267.20
420.42	269.44
420.79	272.54
421.16	275.28
421.54	278.34
421.91	281.20
422.28	284.30
422.66	287.54
423.03	290.99
423.40	294.32
423.77	297.96
424.15	301.57
424.52	305.29
424.89	309.39
425.26	313.34
425.64	317.14
426.01	321.24
426.38	325.67
426.75	330.18
427.13	334.84
427.50	339.55
427.87	344.45
428.24	349.38
428.61	353.83
428.99	359.07
429.36	364.44
429.73	369.97
430.10	375.44
430.47	381.17
430.85	386.75
431.22	392.89
431.59	399.60
431.96	405.82
432.33	412.72
432.70	419.35
433.08	427.26
433.45	434.63
433.82	441.90
434.19	450.07
434.56	458.13
434.93	465.63
435.30	473.47
435.68	482.04
436.05	490.34
436.42	498.70
436.79	506.37
437.16	514.58
437.53	523.27
437.90	532.02
438.27	540.41
438.64	549.15
439.01	557.37
439.38	564.46
439.75	571.62
440.13	579.67
440.50	587.26
440.87	593.12
441.24	599.61
441.61	606.61
441.98	611.61
442.35	617.44
442.72	623.61
443.09	629.14
443.46	632.56
443.83	634.87
444.20	636.80
444.57	639.46
444.94	640.66
445.31	641.82
445.68	643.13
446.05	643.44
446.42	642.29
446.79	640.80
447.16	639.20
447.53	637.80
447.90	634.05
448.27	630.27
448.64	625.46
449.01	621.65
449.37	615.51
449.74	609.43
450.11	602.75
450.48	594.92
450.85	587.17
451.22	580.25
451.59	573.71
451.96	567.44
452.33	559.38
452.70	552.03
453.07	543.35
453.43	534.23
453.80	525.84
454.17	517.84
454.54	510.48
454.91	502.35
455.28	494.43
455.65	487.07
456.02	480.39
456.38	474.19
456.75	466.50
457.12	460.03
457.49	453.93
457.86	447.34
458.23	442.16
458.59	436.41
458.96	430.60
459.33	425.62
459.70	420.57
460.07	416.55
460.43	411.89
460.80	407.76
461.17	404.17
461.54	400.24
461.91	396.45
462.27	392.43
462.64	389.20
463.01	385.77
463.38	382.48
463.74	378.38
464.11	375.22
464.48	372.62
464.85	369.77
465.21	367.50
465.58	365.33
465.95	362.64
466.32	360.42
466.68	358.15
467.05	355.85
467.42	353.64
467.78	351.29
468.15	349.15
468.52	347.54
468.88	345.24
469.25	343.18
469.62	341.77
469.98	340.17
470.35	338.67
470.72	337.12
471.08	335.40
471.45	334.15
471.82	332.97
472.18	331.45
472.55	330.43
472.92	329.12
473.28	328.01
473.65	326.81
474.02	325.78
474.38	325.04
474.75	324.37
475.11	323.44
475.48	322.79
475.85	322.18
476.21	321.38
476.58	320.89
476.94	320.62
477.31	320.03
477.67	319.64
478.04	319.31
478.41	319.09
478.77	319.39
479.14	319.13
479.50	319.07
479.87	319.17
480.23	319.18
480.60	319.14
480.96	319.07
481.33	319.46
481.69	319.77
482.06	319.86
482.42	320.06
482.79	320.43
483.15	320.87
483.52	321.45
483.88	321.92
484.25	322.41
484.61	323.09
484.98	323.80
485.34	324.76
485.71	325.73
486.07	326.70
486.44	327.36
486.80	328.49
487.17	329.54
487.53	330.88
487.90	332.32
488.26	334.01
488.62	335.64
488.99	337.15
489.35	338.82
489.72	340.84
490.08	342.75
490.44	344.76
490.81	347.05
491.17	349.22
491.54	351.72
491.90	354.30
492.26	356.91
492.63	359.71
492.99	362.54
493.36	365.56
493.72	368.98
494.08	372.21
494.45	375.79
494.81	379.69
495.17	383.51
495.54	387.73
495.90	391.92
496.26	396.39
496.63	401.14
496.99	405.90
497.35	410.89
497.72	416.15
498.08	421.62
498.44	427.16
498.80	433.14
499.17	439.28
499.53	445.69
499.89	452.37
500.26	459.29
500.62	466.28
500.98	473.62
501.34	480.94
501.71	488.85
502.07	496.71
502.43	504.84
502.79	513.26
503.16	521.88
503.52	530.94
503.88	540.22
504.24	549.79
504.60	559.92
504.97	570.17
505.33	580.63
505.69	591.69
506.05	602.67
506.41	613.96
506.78	625.57
507.14	637.52
507.50	649.90
507.86	662.42
508.22	675.36
508.59	688.53
508.95	702.18
509.31	716.25
509.67	730.47
510.03	744.73
510.39	759.36
510.75	774.30
511.12	789.34
511.48	805.15
511.84	820.84
512.20	836.70
512.56	852.96
512.92	869.80
513.28	886.61
513.64	904.03
514.00	921.51
514.37	939.18
514.73	957.41
515.09	975.20
515.45	993.35
515.81	1011.90
516.17	1030.57
516.53	1049.01
516.89	1067.68
517.25	1087.15
517.61	1107.17
517.97	1127.53
518.33	1147.59
518.69	1167.80
519.05	1188.09
519.41	1208.64
519.77	1229.78
520.13	1250.52
520.49	1270.85
520.85	1292.86
521.21	1313.71
521.57	1334.89
521.93	1355.54
522.29	1376.62
522.65	1397.49
523.01	1418.56
523.37	1439.03
523.73	1459.71
524.09	1480.37
524.45	1501.05
524.81	1521.83
525.17	1542.35
525.53	1562.70
525.89	1583.55
526.25	1604.42
526.61	1624.64
526.97	1645.59
527.33	1666.37
527.68	1688.10
528.04	1709.54
528.40	1729.31
528.76	1750.40
529.12	1770.84
529.48	1791.53
529.84	1811.25
530.20	1831.92
530.56	1852.37
530.91	1873.03
531.27	1893.53
531.63	1914.02
531.99	1934.37
532.35	1954.16
532.71	1974.09
533.07	1994.68
533.42	2014.30
533.78	2033.77
534.14	2053.68
534.50	2072.58
534.86	2091.62
535.21	2108.62
535.57	2126.65
535.93	2144.22
536.29	2161.37
536.65	2179.18
537.00	2196.80
537.36	2214.46
537.72	2231.04
538.08	2248.33
538.44	2264.93
538.79	2281.20
539.15	2297.28
539.51	2312.75
539.87	2327.81
540.22	2341.93
540.58	2355.85
540.94	2368.87
541.29	2381.64
541.65	2394.15
542.01	2406.67
542.37	2416.91
542.72	2428.13
543.08	2438.85
543.44	2450.38
543.79	2460.61
544.15	2470.72
544.51	2480.62
544.87	2489.82
545.22	2498.52
545.58	2505.95
545.94	2513.18
546.29	2519.81
546.65	2526.33
547.01	2532.17
547.36	2537.81
547.72	2543.15
548.07	2546.95
548.43	2552.10
548.79	2556.72
549.14	2560.52
549.50	2564.08
549.86	2568.21
550.21	2571.90
550.57	2575.36
550.92	2576.54
551.28	2577.52
551.64	2579.16
551.99	2580.65
552.35	2582.32
552.70	2584.35
553.06	2585.99
553.41	2587.08
553.77	2588.24
554.13	2589.64
554.48	2591.15
554.84	2592.13
555.19	2593.49
555.55	2595.20
555.90	2594.73
556.26	2593.79
556.61	2592.26
556.97	2589.83
557.32	2589.28
557.68	2588.09
558.03	2586.25
558.39	2585.10
558.74	2584.29
559.10	2581.26
559.45	2578.07
559.81	2573.52
560.16	2568.07
560.52	2563.16
560.87	2558.66
561.23	2553.43
561.58	2547.56
561.94	2540.56
562.29	2533.43
562.64	2526.33
563.00	2518.30
563.35	2511.62
563.71	2504.88
564.06	2498.24
564.42	2491.92
564.77	2484.77
565.12	2477.17
565.48	2469.61
565.83	2461.49
566.19	2453.54
566.54	2445.76
566.89	2437.50
567.25	2429.97
567.60	2423.04
567.96	2415.60
568.31	2407.50
568.66	2398.86
569.02	2390.01
569.37	2381.83
569.72	2374.38
570.08	2365.10
570.43	2355.42
570.78	2346.38
571.14	2336.95
571.49	2326.98
571.84	2317.45
572.20	2306.36
572.55	2296.35
572.90	2285.25
573.26	2275.00
573.61	2264.01
573.96	2252.62
574.31	2240.69
574.67	2228.63
575.02	2215.79
575.37	2203.11
575.72	2190.00
576.08	2178.06
576.43	2165.51
576.78	2152.46
577.13	2138.48
577.49	2125.87
577.84	2114.02
578.19	2101.93
578.54	2089.36
578.90	2077.66
579.25	2065.37
579.60	2053.30
579.95	2040.15
580.30	2027.13
580.66	2013.63
581.01	2000.14
581.36	1986.52
581.71	1973.74
582.06	1961.02
582.42	1948.74
582.77	1936.05
583.12	1924.25
583.47	1912.01
583.82	1899.94
584.17	1888.17
584.53	1876.50
584.88	1863.49
585.23	1850.49
585.58	1836.29
585.93	1823.29
586.28	1809.94
586.63	1795.98
586.98	1781.98
587.34	1768.90
587.69	1755.76
588.04	1743.54
588.39	1731.75
588.74	1719.44
589.09	1707.62
589.44	1695.14
589.79	1682.97
590.14	1671.20
590.49	1659.18
590.84	1647.28
591.19	1635.57
591.54	1623.18
591.89	1611.18
592.25	1601.10
592.60	1589.83
592.95	1578.72
593.30	1566.88
593.65	1554.82
594.00	1543.04
594.35	1533.22
594.70	1521.41
595.05	1510.38
595.40	1498.28
595.75	1486.32
596.10	1475.40
596.45	1464.06
596.80	1453.26
597.15	1442.08
597.50	1430.31
597.85	1419.13
598.19	1407.51
598.54	1395.67
598.89	1384.57
599.24	1374.06
599.59	1362.65
599.94	1351.83
600.29	1341.31
600.64	1331.29
600.99	1320.93
601.34	1311.37
601.69	1300.44
602.04	1290.85
602.39	1280.97
602.74	1271.81
603.08	1262.41
603.43	1253.11
603.78	1243.45
604.13	1234.15
604.48	1224.56
604.83	1215.01
605.18	1205.27
605.53	1195.86
605.87	1186.92
606.22	1178.42
606.57	1169.19
606.92	1159.66
607.27	1150.82
607.62	1142.17
607.96	1133.42
608.31	1125.48
608.66	1117.12
609.01	1108.51
609.36	1100.17
609.70	1091.92
610.05	1083.23
610.40	1074.83
610.75	1066.37
611.10	1058.07
611.44	1049.15
611.79	1040.83
612.14	1032.91
612.49	1024.99
612.83	1017.50
613.18	1009.75
613.53	1002.02
613.88	994.10
614.22	986.63
614.57	978.74
614.92	970.92
615.27	963.57
615.61	955.95
615.96	948.25
616.31	940.75
616.65	933.53
617.00	926.27
617.35	919.18
617.70	912.02
618.04	904.91
618.39	897.95
618.74	891.74
619.08	885.25
619.43	878.30
619.78	871.28
620.12	864.09
620.47	857.19
620.82	850.10
621.16	843.36
621.51	836.87
621.85	830.62
622.20	824.30
622.55	817.62
622.89	811.25
623.24	805.02
623.59	798.71
623.93	792.49
624.28	786.32
624.62	780.80
624.97	775.10
625.32	769.24
625.66	763.34
626.01	757.12
626.35	751.50
626.70	745.91
627.04	740.61
627.39	735.36
627.73	730.07
628.08	725.02
628.43	719.67
628.77	714.30
629.12	709.04
629.46	704.17
629.81	699.49
630.15	694.62
630.50	689.90
630.84	685.21
631.19	680.35
631.53	675.86
631.88	670.42
632.22	665.50
632.57	661.12
632.91	656.63
633.26	652.35
633.60	647.72
633.95	643.18
634.29	638.52
634.64	633.95
634.98	629.27
635.32	624.93
635.67	620.99
636.01	616.91
636.36	612.56
636.70	608.37
637.05	604.19
637.39	600.18
637.73	596.13
638.08	592.12
638.42	588.09
638.77	583.78
639.11	579.65
639.45	575.55
639.80	571.22
640.14	567.20
640.49	563.13
640.83	559.19
641.17	555.70
641.52	552.00
641.86	548.48
642.20	545.31
642.55	541.70
642.89	537.96
643.23	534.48
643.58	531.49
643.92	527.85
644.26	524.47
644.61	521.25
644.95	517.93
645.29	514.53
645.64	511.38
645.98	508.23
646.32	505.43
646.66	502.36
647.01	499.45
647.35	496.69
647.69	493.90
648.04	491.31
648.38	488.50
648.72	485.68
649.06	482.75
649.41	479.64
649.75	476.68
650.09	473.95
650.43	471.05
650.78	468.08
651.12	465.40
651.46	462.62
651.80	459.88
652.14	457.20
652.49	454.80
652.83	452.28
653.17	449.75
653.51	447.10
653.85	444.86
654.20	442.39
654.54	439.72
654.88	437.13
655.22	434.69
655.56	432.22
655.90	429.94
656.25	427.69
656.59	425.60
656.93	423.40
657.27	421.39
657.61	419.05
657.95	416.95
658.29	414.77
658.64	412.71
658.98	410.38
659.32	408.09
659.66	405.77
660.00	403.67
660.34	401.75
660.68	399.68
661.02	397.53
661.36	395.62
661.70	393.70
662.05	391.81
662.39	389.96
662.73	388.16
663.07	386.61
663.41	384.64
663.75	382.65
664.09	380.81
664.43	378.77
664.77	377.10
665.11	375.29
665.45	373.66
665.79	371.98
666.13	370.38
666.47	368.83
666.81	367.34
667.15	365.58
667.49	364.08
667.83	362.72
668.17	361.16
668.51	359.66
668.85	358.40
669.19	357.19
669.53	355.57
669.87	354.04
670.21	352.43
670.55	351.17
670.89	350.12
671.23	348.79
671.57	347.45
671.91	346.08
672.25	344.76
672.58	343.55
672.92	342.19
673.26	340.90
673.60	339.70
673.94	338.47
674.28	337.34
674.62	336.05
674.96	334.78
675.30	333.66
675.64	332.40
675.97	331.13
676.31	329.84
676.65	328.63
676.99	327.64
677.33	326.45
677.67	325.34
678.01	323.99
678.34	322.93
678.68	322.01
679.02	321.06
679.36	320.00
679.70	318.90
680.04	317.90
680.37	316.99
680.71	316.00
681.05	315.07
681.39	314.13
681.73	313.21
682.06	312.28
682.40	311.40
682.74	310.66
683.08	309.87
683.42	308.97
683.75	308.20
684.09	307.26
684.43	306.53
684.77	305.61
685.10	304.94
685.44	304.21
685.78	303.37
686.12	302.50
686.45	301.79
686.79	301.00
687.13	300.33
687.46	299.56
687.80	298.90
688.14	298.08
688.48	297.32
688.81	296.54
689.15	296.04
689.49	295.27
689.82	294.61
690.16	293.74
690.50	293.07
690.83	292.37
691.17	291.64
691.51	290.95
691.84	290.42
692.18	289.68
692.52	288.92
692.85	288.31
693.19	287.96
693.52	287.36
693.86	286.74
694.20	286.09
694.53	285.49
694.87	284.88
695.21	284.26
695.54	283.77
695.88	283.23
696.21	282.39
696.55	281.87
696.88	281.24
697.22	280.64
697.56	280.11
697.89	279.48
698.23	278.99
698.56	278.35
698.90	277.81
699.23	277.27
699.57	276.87
699.90	276.28
700.24	275.61
700.58	275.08
700.91	274.74
701.25	274.68
701.58	274.53
701.92	274.13
702.25	273.76
702.59	273.17
702.92	272.66
703.26	272.31
703.59	271.85
703.93	271.77
704.26	271.40
704.60	270.94
704.93	270.51
705.26	270.00
705.60	269.72
705.93	269.24
706.27	268.96
706.60	268.60
706.94	268.45
707.27	267.96
707.61	267.61
707.94	267.12
708.27	266.28
708.61	265.49
708.94	265.04
709.28	264.62
709.61	264.28
709.94	263.95
710.28	263.57
710.61	263.20
710.95	262.45
711.28	262.39
711.61	262.01
711.95	261.91
712.28	261.62
712.61	261.18
712.95	261.04
713.28	260.90
713.61	260.47
713.95	259.91
714.28	259.64
714.61	259.22
714.95	258.87
715.28	258.46
715.61	258.09
715.95	257.82
716.28	257.46
716.61	257.21
716.95	256.88
717.28	256.57
717.61	256.22
717.94	255.88
718.28	255.28
718.61	254.96
718.94	254.52
719.27	254.19
719.61	253.98
719.94	253.56
720.27	253.03
720.60	252.69
720.94	252.37
721.27	252.18
721.60	252.05
721.93	251.78
722.27	251.82
722.60	251.68
722.93	251.37
723.26	251.20
723.59	250.90
723.93	250.76
724.26	250.51
724.59	250.31
724.92	250.15
725.25	250.12
725.59	250.00
725.92	249.86
726.25	249.70
726.58	249.54
726.91	249.34
727.24	249.15
727.57	249.14
727.91	248.93
728.24	248.75
728.57	248.48
728.90	248.32
729.23	247.97
729.56	248.05
729.89	247.84
730.22	247.58
730.55	247.40
730.89	247.19
731.22	247.07
731.55	246.78
731.88	246.61
732.21	246.26
732.54	246.05
732.87	245.85
733.20	245.65
733.53	245.52
733.86	245.40
734.19	245.25
734.52	245.07
734.85	245.29
735.18	245.10
735.51	245.14
735.84	245.05
736.17	245.04
736.50	244.67
736.83	245.18
737.16	245.07
737.49	244.96
737.82	244.80
738.15	244.72
738.48	244.69
738.81	244.54
739.14	244.42
739.47	244.20
739.80	244.05
740.13	243.91
740.46	243.63
740.79	243.45
741.12	243.30
741.45	243.11
741.78	242.67
742.11	242.64
742.44	242.34
742.77	242.25
743.10	242.01
743.43	241.87
743.75	241.19
744.08	241.70
744.41	241.62
744.74	241.54
745.07	241.23
745.40	241.18
745.73	241.25
746.06	241.14
746.39	241.11
746.71	241.00
747.04	240.84
747.37	240.69
747.70	240.64
748.03	240.56
748.36	240.43
748.68	240.28
749.01	239.97
749.34	239.80
749.67	239.69
750.00	239.65
750.33	239.82
750.65	239.77
750.98	239.02
751.31	238.87
751.64	238.67
751.97	238.87
752.29	238.73
752.62	238.34
752.95	238.15
753.28	237.92
753.60	237.74
753.93	237.80
754.26	237.76
754.59	237.46
754.91	237.25
755.24	237.12
755.57	237.11
755.90	237.00
756.22	236.94
756.55	236.82
756.88	236.60
757.20	236.29
757.53	235.98
757.86	235.85
758.19	235.80
758.51	235.73
758.84	235.43
759.17	235.20
759.49	235.20
759.82	235.34
760.15	235.30
760.47	235.27
760.80	235.05
761.13	235.09
761.45	235.05
761.78	234.99
762.11	234.96
762.43	234.82
762.76	234.75
763.08	234.71
763.41	234.58
763.74	234.50
764.06	234.29
764.39	234.24
764.71	234.19
765.04	234.00
765.37	233.91
765.69	233.80
766.02	233.85
766.34	233.72
766.67	233.42
767.00	233.48
767.32	233.68
767.65	233.90
767.97	233.72
768.30	233.72
768.62	233.64
768.95	233.50
769.27	233.44
769.60	233.50
769.92	233.39
770.25	233.24
770.57	233.13
770.90	233.05
771.22	233.04
771.55	232.99
771.87	232.99
772.20	232.89
772.52	233.30
772.85	233.84
773.17	233.80
773.50	233.83
773.82	233.68
774.15	233.34
774.47	232.97
774.80	232.83
775.12	232.76
775.45	232.74
775.77	232.70
776.09	232.70
776.42	232.63
776.74	232.76
777.07	232.79
777.39	232.75
777.72	232.77
778.04	232.77
778.36	232.75
778.69	232.76
779.01	232.77
779.33	232.30
779.66	231.69
779.98	231.65
780.31	231.62
780.63	231.75
780.95	231.79
781.28	231.69
781.60	231.74
781.92	231.70
782.25	231.64
782.57	231.59
782.89	231.49
783.22	231.41
783.54	231.19
783.86	231.11
784.19	231.02
784.51	231.03
784.83	230.87
785.16	230.76
785.48	230.76
785.80	230.72
786.12	230.64
786.45	230.56
786.77	230.55
787.09	230.51
787.42	230.35
787.74	230.28
788.06	230.32
788.38	230.25
788.71	230.17
789.03	230.15
789.35	230.14
789.67	230.03
789.99	230.01
790.32	229.95
790.64	230.00
790.96	230.39
791.28	230.24
791.61	230.22
791.93	230.17
792.25	230.07
792.57	230.42
792.89	230.29
793.21	230.29
793.54	230.20
793.86	230.03
794.18	229.95
794.50	229.87
794.82	229.79
795.14	229.82
795.47	229.91
795.79	229.92
796.11	229.84
796.43	229.80
796.75	229.71
797.07	229.69
797.39	229.62
797.71	229.19
798.04	229.20
798.36	229.23
798.68	229.28
799.00	229.28
799.32	228.90
799.64	229.02
799.96	228.95
800.28	228.94
800.60	228.97
800.92	229.09
801.24	229.12
801.56	229.18
801.89	229.07
802.21	229.07
802.53	229.01
802.85	229.06
803.17	229.30
803.49	229.29
803.81	229.23
804.13	229.18
804.45	229.15
804.77	229.16
805.09	229.08
805.41	228.98
805.73	228.85
806.05	228.76
806.37	228.71
806.69	228.70
807.01	228.71
807.33	228.75
807.65	228.45
807.97	228.60
808.28	228.51
808.60	228.50
808.92	228.44
809.24	228.66
809.56	228.60
809.88	228.49
810.20	228.49
810.52	228.53
810.84	228.45
811.16	228.45
811.48	228.45
811.80	228.62
812.12	228.62
812.43	228.73
812.75	228.79
813.07	228.69
813.39	228.71
813.71	228.68
814.03	228.58
814.35	228.63
814.67	228.45
814.98	228.44
815.30	228.42
815.62	228.33
815.94	228.01
816.26	228.25
816.58	228.06
816.89	228.04
817.21	228.02
817.53	228.02
817.85	228.03
