SpectraSuite Data File
++++++++++++++++++++++++++++++++++++
Date: Wed Sep 04 17:41:47 EDT 2013
User: lab3
Dark Spectrum Present: Yes
Reference Spectrum Present: No
Number of Sampled Component Spectra: 1
Spectrometers: USB2E7196
Integration Time (usec): 170000 (USB2E7196)
Spectra Averaged: 20 (USB2E7196)
Boxcar Smoothing: 10 (USB2E7196)
Correct for Electrical Dark: No (USB2E7196)
Strobe/Lamp Enabled: No (USB2E7196)
Correct for Detector Non-linearity: No (USB2E7196)
Correct for Stray Light: No (USB2E7196)
Number of Pixels in Processed Spectrum: 2048
>>>>>Begin Processed Spectral Data<<<<<
339.09	0.00
339.48	212.60
339.86	214.10
340.24	216.15
340.63	216.65
341.01	225.55
341.39	219.70
341.78	220.65
342.16	223.35
342.54	224.30
342.93	212.06
343.31	222.70
343.69	223.25
344.07	223.69
344.46	224.17
344.84	224.52
345.22	224.52
345.60	224.86
345.99	225.09
346.37	225.21
346.75	225.24
347.13	225.32
347.52	225.37
347.90	225.58
348.28	225.59
348.66	225.71
349.05	225.63
349.43	225.78
349.81	225.81
350.19	225.88
350.57	225.82
350.96	225.86
351.34	225.99
351.72	226.08
352.10	226.19
352.48	226.16
352.87	226.28
353.25	226.34
353.63	226.25
354.01	226.27
354.39	226.37
354.77	226.47
355.15	226.62
355.54	226.63
355.92	226.57
356.30	226.62
356.68	226.98
357.06	227.05
357.44	226.98
357.82	227.06
358.20	227.46
358.58	227.55
358.97	227.58
359.35	227.73
359.73	227.83
360.11	227.90
360.49	227.96
360.87	228.02
361.25	228.05
361.63	228.32
362.01	228.35
362.39	228.34
362.77	228.31
363.15	228.30
363.53	228.32
363.91	228.38
364.29	228.47
364.67	228.06
365.05	228.07
365.43	228.16
365.81	228.31
366.19	228.14
366.57	228.39
366.95	228.32
367.33	228.15
367.71	228.16
368.09	228.19
368.47	228.28
368.85	228.19
369.23	228.28
369.61	228.09
369.99	228.30
370.37	228.34
370.75	228.67
371.13	228.58
371.51	228.53
371.89	228.53
372.27	228.46
372.65	228.48
373.03	228.51
373.41	228.43
373.78	228.28
374.16	228.04
374.54	227.71
374.92	227.65
375.30	227.69
375.68	227.56
376.06	227.58
376.44	227.39
376.82	227.38
377.19	227.29
377.57	227.18
377.95	226.87
378.33	226.74
378.71	226.31
379.09	226.31
379.47	226.28
379.84	226.10
380.22	225.98
380.60	225.82
380.98	225.68
381.36	225.50
381.73	225.34
382.11	225.35
382.49	225.38
382.87	225.27
383.25	225.17
383.62	225.63
384.00	225.46
384.38	225.45
384.76	225.49
385.13	225.66
385.51	225.62
385.89	225.60
386.27	225.51
386.64	225.60
387.02	225.49
387.40	225.41
387.78	225.46
388.15	225.47
388.53	225.45
388.91	225.43
389.29	225.42
389.66	225.49
390.04	225.41
390.42	225.46
390.79	225.48
391.17	225.53
391.55	224.96
391.92	224.92
392.30	224.95
392.68	224.85
393.05	224.82
393.43	224.88
393.81	224.90
394.18	224.90
394.56	224.90
394.94	225.09
395.31	225.08
395.69	225.21
396.06	225.40
396.44	225.47
396.82	225.50
397.19	225.89
397.57	225.94
397.95	226.03
398.32	225.98
398.70	226.17
399.07	226.34
399.45	226.52
399.82	226.69
400.20	226.78
400.58	226.88
400.95	226.68
401.33	226.90
401.70	227.31
402.08	227.51
402.45	227.62
402.83	227.78
403.20	228.03
403.58	228.15
403.95	228.33
404.33	228.50
404.71	228.69
405.08	229.05
405.46	229.25
405.83	229.46
406.21	229.67
406.58	229.85
406.96	230.08
407.33	230.27
407.70	230.55
408.08	231.27
408.45	231.71
408.83	232.25
409.20	232.54
409.58	232.70
409.95	233.17
410.33	233.62
410.70	233.94
411.08	234.39
411.45	234.87
411.82	235.30
412.20	235.98
412.57	236.88
412.95	237.11
413.32	237.87
413.69	238.53
414.07	239.33
414.44	240.18
414.82	241.05
415.19	242.14
415.56	243.15
415.94	243.84
416.31	245.11
416.68	246.23
417.06	247.54
417.43	248.90
417.81	250.40
418.18	251.87
418.55	253.51
418.93	255.27
419.30	257.00
419.67	258.83
420.04	260.76
420.42	262.60
420.79	265.21
421.16	267.50
421.54	270.10
421.91	272.57
422.28	275.19
422.66	277.82
423.03	280.69
423.40	283.39
423.77	286.36
424.15	289.13
424.52	292.27
424.89	295.80
425.26	299.07
425.64	302.21
426.01	305.71
426.38	309.27
426.75	313.04
427.13	316.87
427.50	320.80
427.87	324.74
428.24	328.82
428.61	332.56
428.99	337.00
429.36	341.50
429.73	346.09
430.10	350.66
430.47	355.35
430.85	359.96
431.22	365.13
431.59	370.85
431.96	376.14
432.33	381.88
432.70	387.33
433.08	393.84
433.45	399.92
433.82	405.99
434.19	412.98
434.56	419.70
434.93	426.05
435.30	432.52
435.68	439.71
436.05	446.61
436.42	453.33
436.79	459.72
437.16	466.65
437.53	473.92
437.90	481.20
438.27	488.37
438.64	495.73
439.01	502.58
439.38	508.54
439.75	514.54
440.13	521.30
440.50	527.51
440.87	532.58
441.24	537.85
441.61	543.67
441.98	547.76
442.35	552.55
442.72	557.62
443.09	562.59
443.46	565.39
443.83	567.42
444.20	569.26
444.57	571.49
444.94	572.42
445.31	573.43
445.68	574.73
446.05	574.98
446.42	573.98
446.79	572.93
447.16	571.60
447.53	570.54
447.90	567.52
448.27	564.52
448.64	560.46
449.01	557.50
449.37	552.54
449.74	547.72
450.11	542.17
450.48	535.71
450.85	528.96
451.22	523.34
451.59	517.95
451.96	512.91
452.33	506.25
452.70	500.25
453.07	493.03
453.43	485.26
453.80	478.32
454.17	471.67
454.54	465.37
454.91	458.68
455.28	452.11
455.65	445.90
456.02	440.59
456.38	435.38
456.75	429.06
457.12	423.65
457.49	418.27
457.86	412.85
458.23	408.80
458.59	404.19
458.96	399.47
459.33	395.23
459.70	390.90
460.07	387.55
460.43	383.70
460.80	380.30
461.17	377.38
461.54	374.09
461.91	371.04
462.27	367.86
462.64	365.12
463.01	362.22
463.38	359.57
463.74	356.09
464.11	353.72
464.48	351.45
464.85	349.11
465.21	347.49
465.58	345.70
465.95	343.20
466.32	341.25
466.68	339.43
467.05	337.71
467.42	335.93
467.78	333.96
468.15	332.14
468.52	330.80
468.88	328.84
469.25	327.24
469.62	325.92
469.98	324.52
470.35	323.26
470.72	322.04
471.08	320.56
471.45	319.47
471.82	318.33
472.18	317.26
472.55	316.48
472.92	315.32
473.28	314.38
473.65	313.63
474.02	312.80
474.38	312.13
474.75	311.46
475.11	310.62
475.48	310.12
475.85	309.53
476.21	308.91
476.58	308.51
476.94	308.17
477.31	307.92
477.67	307.62
478.04	307.33
478.41	307.20
478.77	307.64
479.14	307.47
479.50	307.43
479.87	307.47
480.23	307.53
480.60	307.59
480.96	307.70
481.33	307.94
481.69	308.25
482.06	308.48
482.42	308.77
482.79	309.26
483.15	309.75
483.52	310.45
483.88	310.96
484.25	311.57
484.61	312.33
484.98	313.03
485.34	313.97
485.71	314.88
486.07	315.74
486.44	316.25
486.80	317.22
487.17	318.26
487.53	319.58
487.90	320.85
488.26	322.42
488.62	323.95
488.99	325.45
489.35	327.06
489.72	328.75
490.08	330.52
490.44	332.42
490.81	334.57
491.17	336.61
491.54	338.89
491.90	341.29
492.26	343.70
492.63	346.35
492.99	348.91
493.36	351.85
493.72	354.98
494.08	358.14
494.45	361.66
494.81	365.28
495.17	368.83
495.54	372.75
495.90	376.55
496.26	380.63
496.63	384.86
496.99	389.19
497.35	393.75
497.72	398.64
498.08	403.51
498.44	408.43
498.80	413.94
499.17	419.45
499.53	425.05
499.89	431.15
500.26	437.17
500.62	443.38
500.98	449.97
501.34	456.65
501.71	463.50
502.07	470.35
502.43	477.57
502.79	484.92
503.16	492.52
503.52	500.51
503.88	508.65
504.24	516.97
504.60	525.82
504.97	534.90
505.33	544.01
505.69	553.76
506.05	563.33
506.41	573.07
506.78	583.15
507.14	593.65
507.50	603.95
507.86	614.70
508.22	625.94
508.59	636.87
508.95	648.47
509.31	660.51
509.67	672.76
510.03	684.81
510.39	697.42
510.75	710.19
511.12	723.01
511.48	736.35
511.84	749.69
512.20	763.08
512.56	776.70
512.92	790.80
513.28	804.66
513.64	819.14
514.00	833.62
514.37	848.21
514.73	863.02
515.09	878.20
515.45	893.28
515.81	908.25
516.17	923.82
516.53	939.14
516.89	954.34
517.25	970.25
517.61	986.75
517.97	1002.95
518.33	1019.11
518.69	1035.31
519.05	1051.56
519.41	1068.13
519.77	1084.95
520.13	1101.50
520.49	1117.78
520.85	1135.91
521.21	1152.81
521.57	1169.57
521.93	1185.91
522.29	1202.30
522.65	1218.54
523.01	1234.81
523.37	1250.90
523.73	1267.00
524.09	1283.01
524.45	1298.97
524.81	1314.60
525.17	1330.36
525.53	1346.02
525.89	1361.70
526.25	1377.68
526.61	1393.03
526.97	1408.69
527.33	1424.65
527.68	1441.10
528.04	1457.07
528.40	1471.13
528.76	1486.54
529.12	1501.43
529.48	1517.09
529.84	1532.03
530.20	1547.38
530.56	1562.58
530.91	1577.78
531.27	1592.59
531.63	1606.93
531.99	1621.61
532.35	1636.07
532.71	1650.27
533.07	1664.97
533.42	1679.07
533.78	1692.74
534.14	1706.59
534.50	1720.05
534.86	1733.06
535.21	1744.81
535.57	1757.35
535.93	1769.37
536.29	1781.35
536.65	1793.90
537.00	1805.33
537.36	1817.04
537.72	1827.83
538.08	1839.16
538.44	1849.93
538.79	1860.42
539.15	1871.35
539.51	1881.59
539.87	1891.01
540.22	1899.71
540.58	1908.58
540.94	1916.28
541.29	1923.85
541.65	1931.23
542.01	1938.52
542.37	1944.24
542.72	1950.15
543.08	1955.69
543.44	1962.07
543.79	1967.12
544.15	1971.95
544.51	1977.24
544.87	1981.78
545.22	1985.90
545.58	1988.95
545.94	1991.68
546.29	1994.18
546.65	1996.29
547.01	1998.14
547.36	1999.85
547.72	2001.44
548.07	2001.71
548.43	2003.09
548.79	2003.71
549.14	2004.43
549.50	2004.60
549.86	2005.08
550.21	2005.57
550.57	2005.37
550.92	2003.72
551.28	2002.22
551.64	2001.45
551.99	2000.30
552.35	1999.12
552.70	1998.22
553.06	1997.12
553.41	1995.99
553.77	1994.91
554.13	1993.69
554.48	1992.47
554.84	1991.01
555.19	1989.69
555.55	1988.51
555.90	1985.77
556.26	1983.19
556.61	1979.69
556.97	1975.75
557.32	1973.01
557.68	1970.03
558.03	1967.05
558.39	1964.29
558.74	1961.60
559.10	1957.07
559.45	1952.35
559.81	1947.27
560.16	1941.48
560.52	1936.09
560.87	1931.01
561.23	1925.39
561.58	1919.39
561.94	1912.62
562.29	1905.41
562.64	1898.48
563.00	1890.81
563.35	1884.56
563.71	1878.07
564.06	1871.88
564.42	1865.83
564.77	1859.42
565.12	1852.35
565.48	1845.57
565.83	1838.43
566.19	1831.33
566.54	1824.33
566.89	1817.20
567.25	1810.53
567.60	1804.03
567.96	1797.57
568.31	1790.70
568.66	1783.28
569.02	1775.46
569.37	1768.11
569.72	1761.88
570.08	1754.35
570.43	1746.48
570.78	1739.00
571.14	1731.43
571.49	1723.06
571.84	1715.15
572.20	1706.15
572.55	1697.94
572.90	1688.97
573.26	1680.50
573.61	1671.57
573.96	1662.88
574.31	1653.50
574.67	1644.22
575.02	1634.65
575.37	1624.39
575.72	1614.00
576.08	1604.72
576.43	1595.20
576.78	1585.30
577.13	1574.88
577.49	1565.16
577.84	1556.27
578.19	1547.04
578.54	1537.56
578.90	1528.63
579.25	1519.35
579.60	1510.35
579.95	1500.63
580.30	1491.06
580.66	1481.27
581.01	1471.36
581.36	1461.07
581.71	1451.73
582.06	1442.03
582.42	1432.64
582.77	1423.71
583.12	1415.03
583.47	1405.68
583.82	1396.91
584.17	1388.29
584.53	1379.63
584.88	1370.09
585.23	1360.57
585.58	1350.39
585.93	1340.69
586.28	1331.03
586.63	1321.15
586.98	1310.82
587.34	1301.62
587.69	1292.01
588.04	1283.13
588.39	1274.49
588.74	1265.86
589.09	1257.42
589.44	1248.45
589.79	1239.83
590.14	1231.32
590.49	1222.58
590.84	1214.30
591.19	1205.88
591.54	1197.20
591.89	1188.80
592.25	1181.77
592.60	1173.76
592.95	1165.93
593.30	1157.73
593.65	1149.48
594.00	1141.13
594.35	1134.85
594.70	1126.43
595.05	1118.72
595.40	1110.19
595.75	1101.93
596.10	1094.02
596.45	1086.08
596.80	1078.56
597.15	1070.68
597.50	1062.42
597.85	1054.92
598.19	1046.87
598.54	1038.85
598.89	1030.99
599.24	1023.57
599.59	1015.51
599.94	1008.10
600.29	1000.82
600.64	993.77
600.99	986.58
601.34	979.88
601.69	971.72
602.04	965.19
602.39	958.56
602.74	952.29
603.08	945.98
603.43	939.83
603.78	933.05
604.13	926.65
604.48	920.26
604.83	913.78
605.18	906.98
605.53	900.45
605.87	894.14
606.22	888.55
606.57	882.30
606.92	875.96
607.27	869.93
607.62	863.97
607.96	858.32
608.31	852.91
608.66	847.38
609.01	841.79
609.36	836.05
609.70	830.27
610.05	824.54
610.40	818.86
610.75	813.03
611.10	807.59
611.44	801.63
611.79	795.97
612.14	790.79
612.49	785.54
612.83	780.62
613.18	775.60
613.53	770.27
613.88	764.99
614.22	759.73
614.57	754.34
614.92	748.95
615.27	743.64
615.61	738.32
615.96	733.14
616.31	727.86
616.65	722.94
617.00	717.88
617.35	713.01
617.70	707.94
618.04	703.07
618.39	698.29
618.74	694.07
619.08	689.51
619.43	684.70
619.78	679.83
620.12	674.89
620.47	670.09
620.82	665.28
621.16	660.67
621.51	656.38
621.85	652.27
622.20	647.92
622.55	643.52
622.89	639.20
623.24	635.12
623.59	630.81
623.93	626.60
624.28	622.64
624.62	618.87
624.97	615.07
625.32	611.04
625.66	606.88
626.01	602.70
626.35	598.93
626.70	595.18
627.04	591.61
627.39	587.80
627.73	584.33
628.08	580.72
628.43	576.81
628.77	573.08
629.12	569.34
629.46	566.04
629.81	562.90
630.15	559.70
630.50	556.14
630.84	552.98
631.19	549.75
631.53	546.55
631.88	542.88
632.22	539.54
632.57	536.60
632.91	533.59
633.26	530.50
633.60	527.34
633.95	524.18
634.29	521.05
634.64	518.17
634.98	514.87
635.32	512.00
635.67	509.38
636.01	506.56
636.36	503.63
636.70	500.98
637.05	497.94
637.39	494.92
637.73	492.11
638.08	489.37
638.42	486.44
638.77	483.47
639.11	480.45
639.45	477.46
639.80	474.44
640.14	471.63
640.49	468.87
640.83	466.28
641.17	463.76
641.52	461.13
641.86	458.72
642.20	456.59
642.55	454.08
642.89	451.57
643.23	449.04
643.58	446.86
643.92	444.17
644.26	441.84
644.61	439.79
644.95	437.49
645.29	435.20
645.64	433.09
645.98	430.85
646.32	428.70
646.66	426.63
647.01	424.53
647.35	422.53
647.69	420.42
648.04	418.46
648.38	416.49
648.72	414.55
649.06	412.31
649.41	410.00
649.75	407.93
650.09	405.93
650.43	404.05
650.78	401.99
651.12	400.17
651.46	398.30
651.80	396.36
652.14	394.53
652.49	392.72
652.83	390.93
653.17	389.16
653.51	387.53
653.85	385.89
654.20	384.22
654.54	382.50
654.88	380.88
655.22	379.43
655.56	377.72
655.90	375.98
656.25	374.50
656.59	373.04
656.93	371.50
657.27	370.12
657.61	368.50
657.95	366.96
658.29	365.45
658.64	363.93
658.98	362.44
659.32	360.84
659.66	359.31
660.00	357.84
660.34	356.47
660.68	355.00
661.02	353.66
661.36	352.24
661.70	350.81
662.05	349.43
662.39	347.98
662.73	346.72
663.07	345.89
663.41	344.58
663.75	343.30
664.09	342.07
664.43	340.69
664.77	339.55
665.11	338.33
665.45	337.20
665.79	336.16
666.13	334.82
666.47	333.70
666.81	332.65
667.15	331.41
667.49	330.36
667.83	329.46
668.17	328.34
668.51	327.40
668.85	326.53
669.19	325.85
669.53	324.64
669.87	323.61
670.21	322.29
670.55	321.32
670.89	320.50
671.23	319.47
671.57	318.55
671.91	317.60
672.25	316.76
672.58	315.89
672.92	314.77
673.26	313.97
673.60	313.17
673.94	312.29
674.28	311.58
674.62	310.82
674.96	309.94
675.30	309.13
675.64	308.22
675.97	307.29
676.31	306.22
676.65	305.34
676.99	304.64
677.33	303.85
677.67	303.08
678.01	302.21
678.34	301.56
678.68	300.89
679.02	300.15
679.36	299.34
679.70	298.50
680.04	297.88
680.37	297.19
680.71	296.55
681.05	295.86
681.39	295.13
681.73	294.36
682.06	293.71
682.40	293.21
682.74	292.69
683.08	292.28
683.42	291.66
683.75	291.23
684.09	290.58
684.43	290.05
684.77	289.41
685.10	288.84
685.44	288.21
685.78	287.61
686.12	286.95
686.45	286.42
686.79	285.80
687.13	285.39
687.46	284.85
687.80	284.31
688.14	283.72
688.48	283.23
688.81	282.69
689.15	282.27
689.49	281.62
689.82	281.06
690.16	280.37
690.50	279.90
690.83	279.31
691.17	278.74
691.51	278.20
691.84	277.82
692.18	277.28
692.52	276.78
692.85	276.34
693.19	276.15
693.52	275.66
693.86	275.25
694.20	274.69
694.53	274.27
694.87	273.73
695.21	273.26
695.54	272.86
695.88	272.30
696.21	271.64
696.55	271.20
696.88	270.78
697.22	270.33
697.56	269.95
697.89	269.47
698.23	269.07
698.56	268.59
698.90	268.20
699.23	267.74
699.57	267.44
699.90	266.98
700.24	266.45
700.58	266.16
700.91	265.92
701.25	265.92
701.58	265.94
701.92	265.75
702.25	265.49
702.59	265.02
702.92	264.79
703.26	264.56
703.59	264.25
703.93	264.27
704.26	264.02
704.60	263.69
704.93	263.43
705.26	263.05
705.60	262.81
705.93	262.40
706.27	262.26
706.60	262.02
706.94	261.93
707.27	261.54
707.61	261.20
707.94	260.77
708.27	260.12
708.61	259.40
708.94	259.03
709.28	258.67
709.61	258.40
709.94	258.09
710.28	257.77
710.61	257.46
710.95	256.82
711.28	256.72
711.61	256.37
711.95	256.22
712.28	255.95
712.61	255.65
712.95	255.64
713.28	255.50
713.61	255.08
713.95	254.63
714.28	254.40
714.61	254.04
714.95	253.73
715.28	253.42
715.61	253.24
715.95	252.99
716.28	252.68
716.61	252.53
716.95	252.26
717.28	252.00
717.61	251.69
717.94	251.41
718.28	250.86
718.61	250.60
718.94	250.26
719.27	250.09
719.61	249.92
719.94	249.58
720.27	249.15
720.60	248.91
720.94	248.72
721.27	248.56
721.60	248.50
721.93	248.27
722.27	248.30
722.60	248.13
722.93	247.84
723.26	247.75
723.59	247.40
723.93	247.28
724.26	247.10
724.59	246.94
724.92	246.75
725.25	246.69
725.59	246.55
725.92	246.45
726.25	246.27
726.58	246.07
726.91	245.89
727.24	245.82
727.57	245.69
727.91	245.42
728.24	245.29
728.57	245.02
728.90	245.10
729.23	244.74
729.56	244.73
729.89	244.65
730.22	244.38
730.55	244.33
730.89	244.22
731.22	244.06
731.55	243.93
731.88	243.80
732.21	243.56
732.54	243.34
732.87	243.10
733.20	242.92
733.53	242.80
733.86	242.67
734.19	242.39
734.52	242.31
734.85	242.60
735.18	242.33
735.51	242.43
735.84	242.22
736.17	242.21
736.50	241.84
736.83	242.24
737.16	242.16
737.49	242.08
737.82	241.84
738.15	241.79
738.48	241.59
738.81	241.42
739.14	241.32
739.47	241.17
739.80	241.02
740.13	240.93
740.46	240.75
740.79	240.58
741.12	240.47
741.45	240.28
741.78	239.83
742.11	239.86
742.44	239.58
742.77	239.51
743.10	239.27
743.43	239.19
743.75	238.52
744.08	239.15
744.41	238.90
744.74	238.80
745.07	238.57
745.40	238.60
745.73	238.69
746.06	238.61
746.39	238.61
746.71	238.51
747.04	238.33
747.37	238.22
747.70	238.20
748.03	238.16
748.36	238.17
748.68	238.07
749.01	237.90
749.34	237.79
749.67	237.67
750.00	237.68
750.33	237.91
750.65	237.93
750.98	237.12
751.31	237.07
751.64	237.01
751.97	237.10
752.29	236.94
752.62	236.69
752.95	236.58
753.28	236.39
753.60	236.31
753.93	236.46
754.26	236.39
754.59	236.14
754.91	235.99
755.24	235.82
755.57	235.71
755.90	235.61
756.22	235.52
756.55	235.35
756.88	235.21
757.20	234.75
757.53	234.48
757.86	234.35
758.19	234.29
758.51	234.10
758.84	233.87
759.17	233.74
759.49	233.64
759.82	233.77
760.15	233.72
760.47	233.63
760.80	233.31
761.13	233.30
761.45	233.23
761.78	233.21
762.11	233.17
762.43	233.06
762.76	232.94
763.08	232.82
763.41	232.82
763.74	232.73
764.06	232.74
764.39	232.71
764.71	232.69
765.04	232.60
765.37	232.59
765.69	232.54
766.02	232.45
766.34	232.37
766.67	232.10
767.00	232.14
767.32	232.33
767.65	232.58
767.97	232.49
768.30	232.43
768.62	232.30
768.95	232.17
769.27	232.15
769.60	232.20
769.92	232.13
770.25	232.02
770.57	231.92
770.90	231.80
771.22	231.67
771.55	231.62
771.87	231.61
772.20	231.54
772.52	231.88
772.85	232.39
773.17	232.34
773.50	232.25
773.82	232.12
774.15	231.89
774.47	231.55
774.80	231.40
775.12	231.35
775.45	231.35
775.77	231.36
776.09	231.32
776.42	231.21
776.74	231.28
777.07	231.18
777.39	231.14
777.72	231.08
778.04	231.16
778.36	231.11
778.69	231.08
779.01	231.16
779.33	230.76
779.66	230.30
779.98	230.28
780.31	230.34
780.63	230.53
780.95	230.52
781.28	230.52
781.60	230.50
781.92	230.50
782.25	230.41
782.57	230.36
782.89	230.29
783.22	230.32
783.54	230.20
783.86	230.23
784.19	230.11
784.51	230.25
784.83	230.11
785.16	230.06
785.48	229.92
785.80	229.83
786.12	229.78
786.45	229.81
786.77	229.74
787.09	229.64
787.42	229.47
787.74	229.53
788.06	229.52
788.38	229.47
788.71	229.38
789.03	229.41
789.35	229.40
789.67	229.32
789.99	229.29
790.32	229.21
790.64	229.19
790.96	229.63
791.28	229.38
791.61	229.40
791.93	229.44
792.25	229.46
792.57	229.79
792.89	229.67
793.21	229.48
793.54	229.47
793.86	229.36
794.18	229.32
794.50	229.11
794.82	229.01
795.14	229.10
795.47	229.16
795.79	229.21
796.11	229.14
796.43	229.08
796.75	229.04
797.07	229.12
797.39	229.14
797.71	228.80
798.04	228.78
798.36	228.76
798.68	228.69
799.00	228.67
799.32	228.33
799.64	228.44
799.96	228.45
800.28	228.54
800.60	228.61
800.92	228.64
801.24	228.62
801.56	228.73
801.89	228.64
802.21	228.68
802.53	228.49
802.85	228.62
803.17	228.88
803.49	228.77
803.81	228.66
804.13	228.52
804.45	228.46
804.77	228.51
805.09	228.50
805.41	228.38
805.73	228.31
806.05	228.22
806.37	228.17
806.69	228.16
807.01	228.07
807.33	228.03
807.65	227.78
807.97	227.93
808.28	227.86
808.60	227.83
808.92	227.73
809.24	228.04
809.56	227.88
809.88	227.66
810.20	227.68
810.52	227.74
810.84	227.70
811.16	227.64
811.48	227.66
811.80	227.77
812.12	227.79
812.43	227.91
812.75	227.94
813.07	227.84
813.39	227.92
813.71	227.82
814.03	227.81
814.35	227.93
814.67	227.81
814.98	227.76
815.30	227.72
815.62	227.63
815.94	227.30
816.26	227.52
816.58	227.48
816.89	227.54
817.21	227.45
817.53	227.51
817.85	227.56
818.17	227.52
818.48	227.33
818.80	227.45
