SpectraSuite Data File
++++++++++++++++++++++++++++++++++++
Date: Wed Sep 04 17:40:27 EDT 2013
User: lab3
Dark Spectrum Present: Yes
Reference Spectrum Present: No
Number of Sampled Component Spectra: 1
Spectrometers: USB2E7196
Integration Time (usec): 170000 (USB2E7196)
Spectra Averaged: 20 (USB2E7196)
Boxcar Smoothing: 10 (USB2E7196)
Correct for Electrical Dark: No (USB2E7196)
Strobe/Lamp Enabled: No (USB2E7196)
Correct for Detector Non-linearity: No (USB2E7196)
Correct for Stray Light: No (USB2E7196)
Number of Pixels in Processed Spectrum: 2048
>>>>>Begin Processed Spectral Data<<<<<
339.09	0.00
339.48	212.95
339.86	213.55
340.24	215.15
340.63	216.10
341.01	226.00
341.39	219.60
341.78	220.95
342.16	222.90
342.54	222.40
342.93	211.76
343.31	222.45
343.69	222.94
344.07	223.43
344.46	223.92
344.84	224.35
345.22	224.26
345.60	224.58
345.99	224.80
346.37	224.88
346.75	224.92
347.13	224.93
347.52	225.00
347.90	225.32
348.28	225.36
348.66	225.42
349.05	225.30
349.43	225.34
349.81	225.36
350.19	225.44
350.57	225.54
350.96	225.64
351.34	225.76
351.72	225.86
352.10	225.96
352.48	225.94
352.87	225.93
353.25	225.95
353.63	225.95
354.01	226.00
354.39	226.11
354.77	226.28
355.15	226.52
355.54	226.53
355.92	226.36
356.30	226.39
356.68	226.76
357.06	226.72
357.44	226.70
357.82	226.77
358.20	227.21
358.58	227.23
358.97	227.30
359.35	227.37
359.73	227.51
360.11	227.51
360.49	227.62
360.87	227.70
361.25	227.89
361.63	227.98
362.01	228.08
362.39	228.08
362.77	228.12
363.15	228.10
363.53	228.15
363.91	228.19
364.29	228.25
364.67	227.88
365.05	228.02
365.43	228.17
365.81	228.32
366.19	228.19
366.57	228.37
366.95	228.40
367.33	228.28
367.71	228.36
368.09	228.49
368.47	228.47
368.85	228.53
369.23	228.57
369.61	228.52
369.99	228.55
370.37	228.64
370.75	228.94
371.13	228.93
371.51	228.88
371.89	228.91
372.27	228.97
372.65	228.88
373.03	228.89
373.41	228.74
373.78	228.61
374.16	228.27
374.54	228.08
374.92	227.94
375.30	227.99
375.68	227.84
376.06	227.80
376.44	227.77
376.82	227.74
377.19	227.60
377.57	227.41
377.95	227.29
378.33	227.15
378.71	226.65
379.09	226.64
379.47	226.60
379.84	226.51
380.22	226.35
380.60	226.29
380.98	226.19
381.36	226.11
381.73	225.97
382.11	226.05
382.49	226.05
382.87	225.98
383.25	225.86
383.62	226.27
384.00	226.10
384.38	225.97
384.76	226.02
385.13	226.19
385.51	226.25
385.89	226.08
386.27	226.04
386.64	226.12
387.02	225.98
387.40	225.90
387.78	225.88
388.15	225.82
388.53	225.76
388.91	225.72
389.29	225.69
389.66	225.76
390.04	225.55
390.42	225.56
390.79	225.52
391.17	225.50
391.55	224.96
391.92	224.96
392.30	225.07
392.68	224.89
393.05	224.82
393.43	224.77
393.81	224.87
394.18	224.83
394.56	224.87
394.94	225.01
395.31	225.09
395.69	225.31
396.06	225.40
396.44	225.47
396.82	225.47
397.19	225.74
397.57	225.74
397.95	226.00
398.32	225.92
398.70	226.12
399.07	226.35
399.45	226.39
399.82	226.47
400.20	226.49
400.58	226.59
400.95	226.48
401.33	226.70
401.70	227.07
402.08	227.22
402.45	227.42
402.83	227.61
403.20	227.63
403.58	227.68
403.95	227.94
404.33	228.13
404.71	228.29
405.08	228.72
405.46	228.90
405.83	229.10
406.21	229.32
406.58	229.45
406.96	229.57
407.33	229.94
407.70	230.30
408.08	230.97
408.45	231.33
408.83	231.81
409.20	232.12
409.58	232.25
409.95	232.76
410.33	233.08
410.70	233.41
411.08	234.07
411.45	234.54
411.82	234.94
412.20	235.57
412.57	236.44
412.95	236.68
413.32	237.47
413.69	238.14
414.07	238.98
414.44	239.88
414.82	240.85
415.19	241.83
415.56	242.89
415.94	243.71
416.31	244.97
416.68	246.21
417.06	247.52
417.43	248.90
417.81	250.33
418.18	251.89
418.55	253.37
418.93	254.97
419.30	256.77
419.67	258.57
420.04	260.40
420.42	262.28
420.79	264.89
421.16	267.20
421.54	269.77
421.91	272.19
422.28	274.67
422.66	277.32
423.03	280.28
423.40	282.97
423.77	285.92
424.15	288.89
424.52	291.96
424.89	295.53
425.26	298.78
425.64	301.93
426.01	305.34
426.38	309.05
426.75	312.89
427.13	316.61
427.50	320.61
427.87	324.69
428.24	328.77
428.61	332.40
428.99	336.76
429.36	341.25
429.73	345.81
430.10	350.44
430.47	355.07
430.85	359.63
431.22	364.70
431.59	370.32
431.96	375.40
432.33	381.17
432.70	386.62
433.08	393.12
433.45	399.21
433.82	405.31
434.19	412.15
434.56	418.87
434.93	425.45
435.30	432.03
435.68	439.26
436.05	446.24
436.42	453.16
436.79	459.56
437.16	466.55
437.53	473.87
437.90	481.18
438.27	488.44
438.64	495.69
439.01	502.64
439.38	508.48
439.75	514.56
440.13	521.24
440.50	527.58
440.87	532.66
441.24	538.13
441.61	543.99
441.98	548.22
442.35	552.90
442.72	557.75
443.09	562.48
443.46	565.31
443.83	567.17
444.20	568.85
444.57	571.16
444.94	572.12
445.31	573.10
445.68	574.34
446.05	574.55
446.42	573.63
446.79	572.53
447.16	571.33
447.53	570.36
447.90	567.37
448.27	564.36
448.64	560.45
449.01	557.31
449.37	552.23
449.74	547.30
450.11	541.93
450.48	535.67
450.85	529.15
451.22	523.50
451.59	518.25
451.96	513.23
452.33	506.50
452.70	500.39
453.07	493.16
453.43	485.48
453.80	478.49
454.17	471.89
454.54	465.48
454.91	458.76
455.28	452.13
455.65	445.96
456.02	440.39
456.38	435.10
456.75	428.72
457.12	423.32
457.49	418.07
457.86	412.62
458.23	408.34
458.59	403.59
458.96	398.84
459.33	394.57
459.70	390.26
460.07	386.91
460.43	383.05
460.80	379.58
461.17	376.60
461.54	373.32
461.91	370.17
462.27	367.01
462.64	364.27
463.01	361.25
463.38	358.53
463.74	355.06
464.11	352.52
464.48	350.37
464.85	348.02
465.21	346.29
465.58	344.48
465.95	342.05
466.32	340.18
466.68	338.34
467.05	336.50
467.42	334.71
467.78	332.84
468.15	331.06
468.52	329.74
468.88	327.87
469.25	326.27
469.62	325.15
469.98	323.89
470.35	322.73
470.72	321.65
471.08	320.28
471.45	319.29
471.82	318.40
472.18	317.21
472.55	316.47
472.92	315.40
473.28	314.53
473.65	313.63
474.02	312.84
474.38	312.22
474.75	311.77
475.11	310.99
475.48	310.51
475.85	310.03
476.21	309.50
476.58	309.12
476.94	308.92
477.31	308.53
477.67	308.20
478.04	307.94
478.41	307.76
478.77	308.10
479.14	307.93
479.50	307.78
479.87	307.98
480.23	308.02
480.60	308.09
480.96	308.12
481.33	308.56
481.69	308.86
482.06	309.02
482.42	309.25
482.79	309.66
483.15	310.10
483.52	310.70
483.88	311.26
484.25	311.87
484.61	312.48
484.98	313.25
485.34	314.18
485.71	315.12
486.07	316.14
486.44	316.66
486.80	317.73
487.17	318.90
487.53	320.16
487.90	321.54
488.26	323.11
488.62	324.70
488.99	326.15
489.35	327.68
489.72	329.44
490.08	331.23
490.44	333.11
490.81	335.08
491.17	337.15
491.54	339.45
491.90	341.83
492.26	344.30
492.63	346.80
492.99	349.41
493.36	352.16
493.72	355.16
494.08	358.28
494.45	361.65
494.81	365.13
495.17	368.60
495.54	372.34
495.90	376.22
496.26	380.16
496.63	384.40
496.99	388.78
497.35	393.31
497.72	398.12
498.08	403.09
498.44	408.23
498.80	413.73
499.17	419.10
499.53	424.70
499.89	430.57
500.26	436.59
500.62	442.82
500.98	449.43
501.34	456.05
501.71	462.94
502.07	469.84
502.43	477.06
502.79	484.48
503.16	492.16
503.52	499.97
503.88	508.13
504.24	516.56
504.60	525.33
504.97	534.46
505.33	543.45
505.69	553.23
506.05	562.86
506.41	572.59
506.78	582.62
507.14	593.05
507.50	603.75
507.86	614.55
508.22	625.78
508.59	636.92
508.95	648.51
509.31	660.76
509.67	672.96
510.03	685.14
510.39	697.71
510.75	710.50
511.12	723.50
511.48	736.78
511.84	749.97
512.20	763.29
512.56	776.95
512.92	791.15
513.28	805.01
513.64	819.53
514.00	833.88
514.37	848.77
514.73	863.74
515.09	878.61
515.45	893.89
515.81	908.89
516.17	924.43
516.53	939.77
516.89	954.88
517.25	970.62
517.61	987.11
517.97	1003.42
518.33	1019.47
518.69	1035.65
519.05	1051.91
519.41	1068.73
519.77	1085.68
520.13	1102.12
520.49	1118.55
520.85	1136.66
521.21	1153.08
521.57	1170.13
521.93	1186.21
522.29	1202.82
522.65	1219.15
523.01	1235.70
523.37	1251.79
523.73	1267.96
524.09	1283.64
524.45	1299.40
524.81	1315.40
525.17	1331.05
525.53	1346.93
525.89	1362.73
526.25	1378.44
526.61	1393.70
526.97	1409.37
527.33	1425.25
527.68	1441.59
528.04	1457.32
528.40	1471.43
528.76	1487.08
529.12	1502.24
529.48	1517.89
529.84	1532.50
530.20	1547.83
530.56	1562.58
530.91	1577.96
531.27	1592.48
531.63	1607.35
531.99	1622.12
532.35	1636.30
532.71	1650.56
533.07	1664.96
533.42	1679.02
533.78	1693.01
534.14	1707.07
534.50	1720.02
534.86	1733.29
535.21	1745.07
535.57	1757.59
535.93	1769.34
536.29	1781.39
536.65	1793.19
537.00	1804.99
537.36	1816.28
537.72	1826.97
538.08	1838.31
538.44	1848.98
538.79	1859.73
539.15	1870.27
539.51	1880.80
539.87	1890.44
540.22	1898.89
540.58	1907.63
540.94	1915.45
541.29	1922.77
541.65	1929.97
542.01	1937.01
542.37	1942.77
542.72	1948.75
543.08	1954.56
543.44	1961.18
543.79	1965.95
544.15	1971.07
544.51	1976.05
544.87	1981.22
545.22	1985.39
545.58	1988.56
545.94	1991.30
546.29	1993.73
546.65	1996.00
547.01	1997.49
547.36	1998.97
547.72	2000.99
548.07	2001.47
548.43	2002.95
548.79	2003.80
549.14	2004.35
549.50	2004.79
549.86	2004.92
550.21	2005.18
550.57	2005.11
550.92	2003.43
551.28	2002.25
551.64	2001.55
551.99	2000.37
552.35	1998.94
552.70	1998.09
553.06	1996.97
553.41	1995.55
553.77	1994.56
554.13	1993.59
554.48	1992.28
554.84	1990.97
555.19	1989.30
555.55	1988.18
555.90	1985.40
556.26	1982.83
556.61	1979.78
556.97	1976.07
557.32	1973.56
557.68	1970.57
558.03	1967.63
558.39	1964.74
558.74	1961.87
559.10	1957.54
559.45	1952.58
559.81	1947.39
560.16	1941.67
560.52	1936.44
560.87	1931.22
561.23	1925.15
561.58	1918.97
561.94	1912.09
562.29	1905.23
562.64	1898.47
563.00	1890.58
563.35	1884.34
563.71	1877.93
564.06	1871.67
564.42	1865.74
564.77	1859.12
565.12	1852.21
565.48	1845.01
565.83	1837.91
566.19	1830.84
566.54	1823.48
566.89	1816.71
567.25	1810.16
567.60	1803.59
567.96	1796.97
568.31	1790.39
568.66	1783.49
569.02	1775.86
569.37	1768.99
569.72	1762.59
570.08	1755.07
570.43	1747.37
570.78	1739.74
571.14	1731.95
571.49	1723.58
571.84	1715.71
572.20	1707.20
572.55	1699.29
572.90	1690.53
573.26	1682.10
573.61	1673.25
573.96	1664.60
574.31	1655.03
574.67	1645.43
575.02	1635.67
575.37	1625.56
575.72	1614.97
576.08	1605.40
576.43	1595.63
576.78	1585.83
577.13	1575.12
577.49	1565.34
577.84	1556.41
578.19	1547.04
578.54	1537.47
578.90	1528.41
579.25	1519.00
579.60	1509.70
579.95	1500.06
580.30	1490.23
580.66	1480.47
581.01	1470.58
581.36	1460.25
581.71	1451.07
582.06	1441.60
582.42	1432.66
582.77	1423.40
583.12	1414.81
583.47	1405.62
583.82	1396.99
584.17	1387.91
584.53	1379.45
584.88	1370.01
585.23	1360.53
585.58	1350.49
585.93	1340.92
586.28	1331.31
586.63	1321.26
586.98	1310.98
587.34	1301.20
587.69	1291.82
588.04	1282.59
588.39	1274.01
588.74	1265.49
589.09	1256.87
589.44	1248.02
589.79	1239.16
590.14	1230.63
590.49	1222.03
590.84	1213.70
591.19	1205.14
591.54	1196.52
591.89	1187.77
592.25	1180.49
592.60	1172.28
592.95	1164.25
593.30	1156.01
593.65	1147.81
594.00	1139.63
594.35	1133.15
594.70	1125.06
595.05	1117.15
595.40	1108.92
595.75	1100.49
596.10	1092.83
596.45	1084.90
596.80	1077.30
597.15	1069.41
597.50	1061.32
597.85	1053.75
598.19	1045.55
598.54	1037.63
598.89	1030.01
599.24	1022.69
599.59	1014.68
599.94	1007.36
600.29	1000.22
600.64	993.22
600.99	985.88
601.34	979.31
601.69	971.12
602.04	964.52
602.39	957.88
602.74	951.56
603.08	945.23
603.43	938.88
603.78	932.31
604.13	925.74
604.48	919.32
604.83	912.84
605.18	905.95
605.53	899.58
605.87	893.26
606.22	887.43
606.57	881.27
606.92	874.93
607.27	868.92
607.62	863.12
607.96	857.37
608.31	852.15
608.66	846.40
609.01	840.88
609.36	835.05
609.70	829.31
610.05	823.44
610.40	817.85
610.75	811.86
611.10	806.14
611.44	800.56
611.79	795.04
612.14	789.56
612.49	784.36
612.83	779.22
613.18	773.97
613.53	768.86
613.88	763.44
614.22	758.12
614.57	752.71
614.92	747.30
615.27	742.03
615.61	736.73
615.96	731.53
616.31	726.42
616.65	721.47
617.00	716.54
617.35	711.77
617.70	706.84
618.04	702.08
618.39	697.34
618.74	692.91
619.08	688.32
619.43	683.86
619.78	678.95
620.12	673.97
620.47	669.42
620.82	664.55
621.16	660.07
621.51	655.96
621.85	651.85
622.20	647.54
622.55	643.17
622.89	638.85
623.24	634.58
623.59	630.17
623.93	626.13
624.28	622.15
624.62	618.40
624.97	614.61
625.32	610.71
625.66	606.71
626.01	602.57
626.35	598.74
626.70	594.91
627.04	591.47
627.39	587.97
627.73	584.38
628.08	581.01
628.43	577.26
628.77	573.46
629.12	569.74
629.46	566.49
629.81	563.29
630.15	559.88
630.50	556.57
630.84	553.39
631.19	550.08
631.53	546.93
631.88	543.25
632.22	539.83
632.57	536.75
632.91	533.65
633.26	530.65
633.60	527.45
633.95	524.24
634.29	520.96
634.64	517.94
634.98	514.55
635.32	511.47
635.67	508.86
636.01	506.10
636.36	503.09
636.70	500.33
637.05	497.39
637.39	494.64
637.73	491.86
638.08	489.21
638.42	486.40
638.77	483.37
639.11	480.50
639.45	477.62
639.80	474.57
640.14	471.80
640.49	468.97
640.83	466.27
641.17	463.73
641.52	461.25
641.86	458.85
642.20	456.76
642.55	454.12
642.89	451.58
643.23	449.19
643.58	447.20
643.92	444.53
644.26	442.20
644.61	440.04
644.95	437.67
645.29	435.25
645.64	433.06
645.98	430.89
646.32	428.95
646.66	426.78
647.01	424.84
647.35	422.91
647.69	420.92
648.04	419.00
648.38	417.13
648.72	415.18
649.06	412.96
649.41	410.83
649.75	408.82
650.09	406.81
650.43	404.77
650.78	402.60
651.12	400.57
651.46	398.67
651.80	396.69
652.14	394.91
652.49	393.17
652.83	391.35
653.17	389.63
653.51	387.65
653.85	386.06
654.20	384.27
654.54	382.45
654.88	380.78
655.22	379.35
655.56	377.62
655.90	375.92
656.25	374.41
656.59	372.94
656.93	371.55
657.27	370.11
657.61	368.40
657.95	366.92
658.29	365.49
658.64	364.08
658.98	362.56
659.32	360.91
659.66	359.44
660.00	358.00
660.34	356.56
660.68	355.23
661.02	353.76
661.36	352.40
661.70	351.00
662.05	349.69
662.39	348.27
662.73	347.07
663.07	346.07
663.41	344.78
663.75	343.43
664.09	342.12
664.43	340.71
664.77	339.64
665.11	338.42
665.45	337.27
665.79	336.12
666.13	334.86
666.47	333.80
666.81	332.65
667.15	331.40
667.49	330.35
667.83	329.53
668.17	328.54
668.51	327.58
668.85	326.71
669.19	325.94
669.53	324.81
669.87	323.78
670.21	322.60
670.55	321.62
670.89	320.86
671.23	319.95
671.57	319.01
671.91	318.14
672.25	317.18
672.58	316.41
672.92	315.38
673.26	314.50
673.60	313.68
673.94	312.79
674.28	312.09
674.62	311.22
674.96	310.15
675.30	309.30
675.64	308.42
675.97	307.50
676.31	306.52
676.65	305.59
676.99	304.92
677.33	304.07
677.67	303.29
678.01	302.21
678.34	301.34
678.68	300.80
679.02	300.00
679.36	299.35
679.70	298.55
680.04	297.85
680.37	297.20
680.71	296.51
681.05	295.96
681.39	295.29
681.73	294.65
682.06	293.99
682.40	293.37
682.74	292.80
683.08	292.36
683.42	291.57
683.75	291.09
684.09	290.34
684.43	289.81
684.77	289.18
685.10	288.69
685.44	288.17
685.78	287.44
686.12	286.82
686.45	286.15
686.79	285.49
687.13	285.05
687.46	284.49
687.80	284.05
688.14	283.38
688.48	282.78
688.81	282.19
689.15	281.80
689.49	281.20
689.82	280.72
690.16	279.98
690.50	279.61
690.83	278.97
691.17	278.33
691.51	277.80
691.84	277.39
692.18	276.87
692.52	276.26
692.85	275.82
693.19	275.53
693.52	275.13
693.86	274.60
694.20	274.08
694.53	273.69
694.87	273.14
695.21	272.62
695.54	272.12
695.88	271.53
696.21	270.98
696.55	270.59
696.88	270.03
697.22	269.59
697.56	269.16
697.89	268.76
698.23	268.45
698.56	267.96
698.90	267.68
699.23	267.22
699.57	266.97
699.90	266.55
700.24	265.94
700.58	265.54
700.91	265.31
701.25	265.31
701.58	265.26
701.92	265.02
702.25	264.72
702.59	264.45
702.92	264.23
703.26	263.89
703.59	263.46
703.93	263.58
704.26	263.32
704.60	262.98
704.93	262.63
705.26	262.30
705.60	262.07
705.93	261.57
706.27	261.45
706.60	261.23
706.94	261.07
707.27	260.88
707.61	260.62
707.94	260.33
708.27	259.66
708.61	258.99
708.94	258.59
709.28	258.41
709.61	258.12
709.94	257.95
710.28	257.72
710.61	257.45
710.95	256.73
711.28	256.75
711.61	256.48
711.95	256.39
712.28	256.10
712.61	255.85
712.95	255.86
713.28	255.72
713.61	255.29
713.95	254.91
714.28	254.63
714.61	254.28
714.95	253.97
715.28	253.63
715.61	253.40
715.95	253.13
716.28	252.70
716.61	252.50
716.95	252.14
717.28	251.85
717.61	251.63
717.94	251.45
718.28	250.84
718.61	250.67
718.94	250.34
719.27	250.08
719.61	249.88
719.94	249.49
720.27	249.13
720.60	248.99
720.94	248.81
721.27	248.72
721.60	248.69
721.93	248.55
722.27	248.45
722.60	248.33
722.93	248.20
723.26	248.10
723.59	247.84
723.93	247.79
724.26	247.62
724.59	247.44
724.92	247.24
725.25	247.26
725.59	247.03
725.92	246.88
726.25	246.78
726.58	246.60
726.91	246.42
727.24	246.22
727.57	245.96
727.91	245.72
728.24	245.50
728.57	245.22
728.90	245.06
729.23	244.82
729.56	244.88
729.89	244.67
730.22	244.48
730.55	244.29
730.89	243.97
731.22	243.84
731.55	243.71
731.88	243.58
732.21	243.31
732.54	243.04
732.87	242.94
733.20	242.74
733.53	242.63
733.86	242.59
734.19	242.42
734.52	242.46
734.85	242.68
735.18	242.48
735.51	242.51
735.84	242.42
736.17	242.44
736.50	242.06
736.83	242.48
737.16	242.35
737.49	242.30
737.82	242.24
738.15	242.16
738.48	242.00
738.81	241.85
739.14	241.59
739.47	241.57
739.80	241.43
740.13	241.38
740.46	241.18
740.79	240.91
741.12	240.78
741.45	240.59
741.78	240.16
742.11	240.17
742.44	239.92
742.77	239.80
743.10	239.56
743.43	239.37
743.75	238.71
744.08	239.23
744.41	238.99
744.74	238.79
745.07	238.53
745.40	238.46
745.73	238.57
746.06	238.57
746.39	238.48
746.71	238.30
747.04	238.12
747.37	238.01
747.70	237.96
748.03	237.82
748.36	237.77
748.68	237.66
749.01	237.40
749.34	237.28
749.67	237.18
750.00	237.20
750.33	237.48
750.65	237.50
750.98	236.82
751.31	236.79
751.64	236.75
751.97	236.88
752.29	236.74
752.62	236.36
752.95	236.24
753.28	236.04
753.60	235.96
753.93	235.98
754.26	235.91
754.59	235.75
754.91	235.65
755.24	235.46
755.57	235.41
755.90	235.33
756.22	235.23
756.55	235.06
756.88	234.83
757.20	234.39
757.53	234.14
757.86	233.96
758.19	233.92
758.51	233.78
758.84	233.48
759.17	233.43
759.49	233.42
759.82	233.60
760.15	233.61
760.47	233.49
760.80	233.36
761.13	233.34
761.45	233.23
761.78	233.20
762.11	233.15
762.43	233.03
762.76	232.95
763.08	232.93
763.41	232.96
763.74	232.87
764.06	232.82
764.39	232.79
764.71	232.80
765.04	232.71
765.37	232.67
765.69	232.61
766.02	232.52
766.34	232.44
766.67	232.12
767.00	232.16
767.32	232.43
767.65	232.50
767.97	232.33
768.30	232.31
768.62	232.30
768.95	232.17
769.27	232.13
769.60	232.20
769.92	232.14
770.25	231.92
770.57	231.82
770.90	231.69
771.22	231.59
771.55	231.51
771.87	231.46
772.20	231.34
772.52	231.65
772.85	232.16
773.17	232.11
773.50	232.10
773.82	231.97
774.15	231.59
774.47	231.36
774.80	231.38
775.12	231.35
775.45	231.24
775.77	231.22
776.09	231.22
776.42	231.15
776.74	231.23
777.07	231.24
777.39	231.22
777.72	231.28
778.04	231.31
778.36	231.32
778.69	231.27
779.01	231.35
779.33	230.96
779.66	230.45
779.98	230.35
780.31	230.35
780.63	230.55
780.95	230.62
781.28	230.56
781.60	230.47
781.92	230.45
782.25	230.40
782.57	230.39
782.89	230.31
783.22	230.20
783.54	230.09
783.86	230.12
784.19	230.10
784.51	230.17
784.83	230.05
785.16	229.97
785.48	230.02
785.80	229.93
786.12	229.91
786.45	229.86
786.77	229.92
787.09	229.86
787.42	229.55
787.74	229.55
788.06	229.57
788.38	229.51
788.71	229.45
789.03	229.38
789.35	229.42
789.67	229.36
789.99	229.41
790.32	229.26
790.64	229.22
790.96	229.63
791.28	229.38
791.61	229.39
791.93	229.33
792.25	229.31
792.57	229.63
792.89	229.53
793.21	229.52
793.54	229.40
793.86	229.31
794.18	229.38
794.50	229.24
794.82	229.23
795.14	229.30
795.47	229.39
795.79	229.42
796.11	229.26
796.43	229.16
796.75	229.15
797.07	229.16
797.39	229.15
797.71	228.82
798.04	228.89
798.36	228.83
798.68	228.82
799.00	228.71
799.32	228.45
799.64	228.64
799.96	228.52
800.28	228.61
800.60	228.62
800.92	228.59
801.24	228.59
801.56	228.55
801.89	228.45
802.21	228.45
802.53	228.34
802.85	228.46
803.17	228.74
803.49	228.61
803.81	228.54
804.13	228.50
804.45	228.38
804.77	228.45
805.09	228.49
805.41	228.44
805.73	228.44
806.05	228.36
806.37	228.24
806.69	228.24
807.01	228.23
807.33	228.26
807.65	228.08
807.97	228.29
808.28	228.21
808.60	228.26
808.92	228.10
809.24	228.41
809.56	228.37
809.88	228.15
810.20	228.15
810.52	228.26
810.84	228.12
811.16	228.11
811.48	227.95
811.80	228.08
812.12	228.07
812.43	228.09
812.75	228.09
813.07	228.07
813.39	228.13
813.71	228.08
814.03	227.94
814.35	227.95
814.67	227.75
814.98	227.71
815.30	227.68
815.62	227.62
815.94	227.26
816.26	227.44
816.58	227.32
816.89	227.40
817.21	227.25
817.53	227.24
817.85	227.26
818.17	227.25
818.48	227.07
818.80	227.21
