SpectraSuite Data File
++++++++++++++++++++++++++++++++++++
Date: Wed Sep 04 17:40:34 EDT 2013
User: lab3
Dark Spectrum Present: Yes
Reference Spectrum Present: No
Number of Sampled Component Spectra: 1
Spectrometers: USB2E7196
Integration Time (usec): 170000 (USB2E7196)
Spectra Averaged: 20 (USB2E7196)
Boxcar Smoothing: 10 (USB2E7196)
Correct for Electrical Dark: No (USB2E7196)
Strobe/Lamp Enabled: No (USB2E7196)
Correct for Detector Non-linearity: No (USB2E7196)
Correct for Stray Light: No (USB2E7196)
Number of Pixels in Processed Spectrum: 2048
>>>>>Begin Processed Spectral Data<<<<<
339.09	0.00
339.48	211.85
339.86	213.30
340.24	215.35
340.63	217.05
341.01	224.45
341.39	219.80
341.78	221.95
342.16	223.40
342.54	222.90
342.93	211.75
343.31	222.39
343.69	223.05
344.07	223.59
344.46	224.05
344.84	224.49
345.22	224.49
345.60	224.79
345.99	224.98
346.37	225.07
346.75	225.14
347.13	225.23
347.52	225.32
347.90	225.60
348.28	225.61
348.66	225.71
349.05	225.55
349.43	225.65
349.81	225.75
350.19	225.72
350.57	225.80
350.96	225.89
351.34	226.11
351.72	226.01
352.10	226.02
352.48	226.02
352.87	225.95
353.25	225.99
353.63	225.94
354.01	225.97
354.39	226.03
354.77	226.06
355.15	226.23
355.54	226.23
355.92	226.07
356.30	226.06
356.68	226.41
357.06	226.53
357.44	226.45
357.82	226.44
358.20	226.95
358.58	227.02
358.97	227.06
359.35	227.10
359.73	227.35
360.11	227.50
360.49	227.58
360.87	227.72
361.25	227.89
361.63	228.11
362.01	228.20
362.39	228.23
362.77	228.31
363.15	228.28
363.53	228.34
363.91	228.37
364.29	228.47
364.67	228.05
365.05	228.03
365.43	228.15
365.81	228.31
366.19	228.11
366.57	228.30
366.95	228.40
367.33	228.30
367.71	228.26
368.09	228.28
368.47	228.37
368.85	228.31
369.23	228.40
369.61	228.30
369.99	228.48
370.37	228.54
370.75	228.88
371.13	228.79
371.51	228.70
371.89	228.78
372.27	228.86
372.65	228.87
373.03	228.93
373.41	228.89
373.78	228.81
374.16	228.54
374.54	228.32
374.92	228.16
375.30	228.15
375.68	228.13
376.06	228.10
376.44	227.94
376.82	227.95
377.19	227.84
377.57	227.73
377.95	227.42
378.33	227.36
378.71	226.96
379.09	227.00
379.47	227.00
379.84	226.96
380.22	226.76
380.60	226.64
380.98	226.50
381.36	226.37
381.73	226.18
382.11	226.21
382.49	226.16
382.87	225.98
383.25	225.91
383.62	226.30
384.00	226.10
384.38	226.09
384.76	226.16
385.13	226.23
385.51	226.12
385.89	226.05
386.27	225.97
386.64	225.96
387.02	225.87
387.40	225.75
387.78	225.64
388.15	225.64
388.53	225.59
388.91	225.63
389.29	225.58
389.66	225.59
390.04	225.48
390.42	225.50
390.79	225.58
391.17	225.50
391.55	225.01
391.92	225.04
392.30	225.06
392.68	224.89
393.05	224.93
393.43	224.96
393.81	225.01
394.18	224.97
394.56	225.02
394.94	225.15
395.31	225.17
395.69	225.39
396.06	225.55
396.44	225.66
396.82	225.64
397.19	225.94
397.57	226.00
397.95	226.11
398.32	226.05
398.70	226.12
399.07	226.30
399.45	226.34
399.82	226.45
400.20	226.52
400.58	226.60
400.95	226.47
401.33	226.71
401.70	227.15
402.08	227.23
402.45	227.34
402.83	227.54
403.20	227.71
403.58	227.73
403.95	227.89
404.33	228.11
404.71	228.28
405.08	228.70
405.46	228.86
405.83	229.04
406.21	229.24
406.58	229.55
406.96	229.78
407.33	230.08
407.70	230.42
408.08	231.17
408.45	231.61
408.83	232.12
409.20	232.45
409.58	232.43
409.95	233.00
410.33	233.38
410.70	233.71
411.08	234.28
411.45	234.80
411.82	235.25
412.20	235.89
412.57	236.75
412.95	236.96
413.32	237.75
413.69	238.51
414.07	239.35
414.44	240.10
414.82	241.00
415.19	242.06
415.56	243.04
415.94	243.73
416.31	244.89
416.68	246.00
417.06	247.33
417.43	248.81
417.81	250.21
418.18	251.82
418.55	253.46
418.93	255.09
419.30	256.80
419.67	258.65
420.04	260.53
420.42	262.45
420.79	265.10
421.16	267.49
421.54	270.02
421.91	272.53
422.28	275.13
422.66	277.84
423.03	280.67
423.40	283.49
423.77	286.46
424.15	289.53
424.52	292.62
424.89	296.12
425.26	299.39
425.64	302.55
426.01	306.07
426.38	309.59
426.75	313.37
427.13	317.25
427.50	321.15
427.87	325.17
428.24	329.24
428.61	332.81
428.99	337.15
429.36	341.72
429.73	346.25
430.10	350.86
430.47	355.49
430.85	360.18
431.22	365.23
431.59	370.90
431.96	375.97
432.33	381.77
432.70	387.25
433.08	393.93
433.45	400.10
433.82	406.13
434.19	412.98
434.56	419.65
434.93	426.08
435.30	432.48
435.68	439.64
436.05	446.65
436.42	453.53
436.79	459.81
437.16	466.70
437.53	473.92
437.90	481.11
438.27	488.35
438.64	495.70
439.01	502.55
439.38	508.50
439.75	514.35
440.13	521.05
440.50	527.28
440.87	532.12
441.24	537.40
441.61	543.34
441.98	547.51
442.35	552.29
442.72	557.21
443.09	562.23
443.46	565.13
443.83	567.04
444.20	568.90
444.57	571.19
444.94	572.20
445.31	573.34
445.68	574.76
446.05	574.78
446.42	573.81
446.79	572.80
447.16	571.53
447.53	570.79
447.90	567.73
448.27	564.68
448.64	560.81
449.01	557.90
449.37	552.72
449.74	547.81
450.11	542.35
450.48	536.01
450.85	529.32
451.22	523.64
451.59	518.30
451.96	513.03
452.33	506.39
452.70	500.27
453.07	493.00
453.43	485.23
453.80	478.53
454.17	471.83
454.54	465.40
454.91	458.59
455.28	451.81
455.65	445.65
456.02	440.26
456.38	434.91
456.75	428.35
457.12	422.89
457.49	417.72
457.86	412.40
458.23	408.25
458.59	403.65
458.96	398.90
459.33	394.57
459.70	390.40
460.07	387.05
460.43	383.21
460.80	379.79
461.17	376.77
461.54	373.41
461.91	370.27
462.27	367.18
462.64	364.47
463.01	361.50
463.38	358.90
463.74	355.48
464.11	352.97
464.48	350.91
464.85	348.61
465.21	346.95
465.58	345.11
465.95	342.63
466.32	340.78
466.68	338.81
467.05	337.09
467.42	335.24
467.78	333.30
468.15	331.52
468.52	330.24
468.88	328.37
469.25	326.81
469.62	325.70
469.98	324.27
470.35	323.05
470.72	321.96
471.08	320.51
471.45	319.48
471.82	318.54
472.18	317.38
472.55	316.64
472.92	315.44
473.28	314.46
473.65	313.56
474.02	312.70
474.38	312.09
474.75	311.46
475.11	310.82
475.48	310.43
475.85	310.03
476.21	309.41
476.58	309.12
476.94	308.85
477.31	308.39
477.67	308.15
478.04	307.99
478.41	307.91
478.77	308.22
479.14	308.04
479.50	308.01
479.87	308.09
480.23	308.04
480.60	308.17
480.96	308.35
481.33	308.82
481.69	309.07
482.06	309.35
482.42	309.69
482.79	310.14
483.15	310.53
483.52	311.08
483.88	311.60
484.25	312.09
484.61	312.64
484.98	313.33
485.34	314.25
485.71	315.15
486.07	315.98
486.44	316.54
486.80	317.57
487.17	318.63
487.53	319.89
487.90	321.35
488.26	322.82
488.62	324.38
488.99	325.72
489.35	327.33
489.72	329.07
490.08	330.80
490.44	332.63
490.81	334.67
491.17	336.78
491.54	339.06
491.90	341.35
492.26	343.93
492.63	346.45
492.99	348.94
493.36	351.80
493.72	354.82
494.08	358.01
494.45	361.40
494.81	364.94
495.17	368.45
495.54	372.10
495.90	375.98
496.26	379.89
496.63	384.12
496.99	388.43
497.35	392.91
497.72	397.68
498.08	402.67
498.44	407.71
498.80	413.12
499.17	418.60
499.53	424.15
499.89	429.94
500.26	436.06
500.62	442.30
500.98	448.87
501.34	455.56
501.71	462.30
502.07	469.17
502.43	476.31
502.79	483.80
503.16	491.57
503.52	499.41
503.88	507.63
504.24	516.16
504.60	524.90
504.97	533.90
505.33	543.08
505.69	552.66
506.05	562.38
506.41	572.03
506.78	582.04
507.14	592.58
507.50	603.34
507.86	614.20
508.22	625.48
508.59	636.63
508.95	648.23
509.31	660.43
509.67	672.67
510.03	684.96
510.39	697.42
510.75	710.15
511.12	723.19
511.48	736.30
511.84	749.54
512.20	762.88
512.56	776.70
512.92	790.83
513.28	804.95
513.64	819.32
514.00	833.92
514.37	848.73
514.73	863.84
515.09	878.89
515.45	893.99
515.81	909.10
516.17	924.38
516.53	939.61
516.89	954.96
517.25	970.70
517.61	987.06
517.97	1003.50
518.33	1019.78
518.69	1036.02
519.05	1052.53
519.41	1069.15
519.77	1086.10
520.13	1102.65
520.49	1118.69
520.85	1136.53
521.21	1153.24
521.57	1169.88
521.93	1186.16
522.29	1202.58
522.65	1218.58
523.01	1234.89
523.37	1250.86
523.73	1267.19
524.09	1283.09
524.45	1298.94
524.81	1314.96
525.17	1330.60
525.53	1346.11
525.89	1361.97
526.25	1377.82
526.61	1393.05
526.97	1408.86
527.33	1424.95
527.68	1441.06
528.04	1457.35
528.40	1471.59
528.76	1486.96
529.12	1502.18
529.48	1517.59
529.84	1532.41
530.20	1547.70
530.56	1563.19
530.91	1578.50
531.27	1593.35
531.63	1608.14
531.99	1622.61
532.35	1636.81
532.71	1650.95
533.07	1665.61
533.42	1679.49
533.78	1693.39
534.14	1707.45
534.50	1720.50
534.86	1733.42
535.21	1745.36
535.57	1757.89
535.93	1769.75
536.29	1781.83
536.65	1793.95
537.00	1805.71
537.36	1816.95
537.72	1828.00
538.08	1838.86
538.44	1849.54
538.79	1859.86
539.15	1870.51
539.51	1880.95
539.87	1890.34
540.22	1898.84
540.58	1907.59
540.94	1915.43
541.29	1922.69
541.65	1929.75
542.01	1937.11
542.37	1942.78
542.72	1948.73
543.08	1954.14
543.44	1960.66
543.79	1965.86
544.15	1970.86
544.51	1976.08
544.87	1981.30
545.22	1985.31
545.58	1988.85
545.94	1991.70
546.29	1994.32
546.65	1996.45
547.01	1998.00
547.36	1999.95
547.72	2001.72
548.07	2002.01
548.43	2003.28
548.79	2004.28
549.14	2005.03
549.50	2005.40
549.86	2005.70
550.21	2006.26
550.57	2006.51
550.92	2004.80
551.28	2003.09
551.64	2002.29
551.99	2000.98
552.35	1999.39
552.70	1998.68
553.06	1997.60
553.41	1996.18
553.77	1995.02
554.13	1993.99
554.48	1992.84
554.84	1991.30
555.19	1990.10
555.55	1989.30
555.90	1986.87
556.26	1984.10
556.61	1980.70
556.97	1976.60
557.32	1974.17
557.68	1970.94
558.03	1967.71
558.39	1964.84
558.74	1962.16
559.10	1957.70
559.45	1952.94
559.81	1947.82
560.16	1941.88
560.52	1936.17
560.87	1931.19
561.23	1925.43
561.58	1919.45
561.94	1912.62
562.29	1905.32
562.64	1898.32
563.00	1890.61
563.35	1883.99
563.71	1877.44
564.06	1871.53
564.42	1865.37
564.77	1858.73
565.12	1851.99
565.48	1844.81
565.83	1837.80
566.19	1830.74
566.54	1823.75
566.89	1816.63
567.25	1809.58
567.60	1803.35
567.96	1796.66
568.31	1789.93
568.66	1782.51
569.02	1774.74
569.37	1767.87
569.72	1761.64
570.08	1753.74
570.43	1745.71
570.78	1738.19
571.14	1730.51
571.49	1721.83
571.84	1714.11
572.20	1705.64
572.55	1697.16
572.90	1688.27
573.26	1679.95
573.61	1671.15
573.96	1662.31
574.31	1652.86
574.67	1643.74
575.02	1633.76
575.37	1623.88
575.72	1613.48
576.08	1604.21
576.43	1594.61
576.78	1584.59
577.13	1574.30
577.49	1564.80
577.84	1555.87
578.19	1546.65
578.54	1537.10
578.90	1528.35
579.25	1518.91
579.60	1509.32
579.95	1499.74
580.30	1490.42
580.66	1480.18
581.01	1470.11
581.36	1459.68
581.71	1450.53
582.06	1441.14
582.42	1431.92
582.77	1422.50
583.12	1413.72
583.47	1404.65
583.82	1395.88
584.17	1387.10
584.53	1378.48
584.88	1369.05
585.23	1359.69
585.58	1349.62
585.93	1339.98
586.28	1330.52
586.63	1320.66
586.98	1310.61
587.34	1301.23
587.69	1291.60
588.04	1282.79
588.39	1274.45
588.74	1265.98
589.09	1257.48
589.44	1248.53
589.79	1239.90
590.14	1231.46
590.49	1222.73
590.84	1213.89
591.19	1205.30
591.54	1196.70
591.89	1187.93
592.25	1180.92
592.60	1172.64
592.95	1164.60
593.30	1156.37
593.65	1147.62
594.00	1139.37
594.35	1132.94
594.70	1124.75
595.05	1116.79
595.40	1108.60
595.75	1100.18
596.10	1092.46
596.45	1084.47
596.80	1076.79
597.15	1069.06
597.50	1060.96
597.85	1053.19
598.19	1045.45
598.54	1037.32
598.89	1029.49
599.24	1022.30
599.59	1014.36
599.94	1006.97
600.29	999.95
600.64	992.95
600.99	985.92
601.34	979.37
601.69	971.42
602.04	964.60
602.39	958.03
602.74	951.68
603.08	945.23
603.43	939.02
603.78	932.20
604.13	925.78
604.48	919.27
604.83	912.87
605.18	906.28
605.53	899.94
605.87	893.84
606.22	888.23
606.57	881.93
606.92	875.41
607.27	869.45
607.62	863.46
607.96	857.78
608.31	852.31
608.66	846.58
609.01	840.91
609.36	835.44
609.70	829.79
610.05	823.95
610.40	818.38
610.75	812.39
611.10	806.98
611.44	801.27
611.79	795.65
612.14	790.32
612.49	785.05
612.83	780.02
613.18	774.77
613.53	769.37
613.88	763.96
614.22	758.93
614.57	753.56
614.92	748.24
615.27	743.15
615.61	737.84
615.96	732.66
616.31	727.40
616.65	722.51
617.00	717.47
617.35	712.55
617.70	707.68
618.04	702.77
618.39	698.01
618.74	693.76
619.08	689.12
619.43	684.22
619.78	679.49
620.12	674.39
620.47	669.81
620.82	664.91
621.16	660.27
621.51	655.93
621.85	651.57
622.20	647.10
622.55	642.64
622.89	638.45
623.24	634.22
623.59	629.88
623.93	625.59
624.28	621.38
624.62	617.73
624.97	613.86
625.32	610.06
625.66	606.03
626.01	601.90
626.35	598.17
626.70	594.55
627.04	590.96
627.39	587.34
627.73	583.67
628.08	580.20
628.43	576.54
628.77	572.96
629.12	569.45
629.46	566.24
629.81	563.05
630.15	559.73
630.50	556.32
630.84	553.05
631.19	549.78
631.53	546.78
631.88	543.01
632.22	539.51
632.57	536.49
632.91	533.32
633.26	530.28
633.60	527.19
633.95	524.00
634.29	520.72
634.64	517.81
634.98	514.65
635.32	511.75
635.67	509.22
636.01	506.17
636.36	503.25
636.70	500.30
637.05	497.31
637.39	494.47
637.73	491.72
638.08	489.11
638.42	486.25
638.77	483.32
639.11	480.36
639.45	477.40
639.80	474.38
640.14	471.67
640.49	468.77
640.83	466.07
641.17	463.64
641.52	461.10
641.86	458.59
642.20	456.40
642.55	453.86
642.89	451.20
643.23	448.75
643.58	446.62
643.92	444.20
644.26	441.81
644.61	439.68
644.95	437.37
645.29	434.95
645.64	432.82
645.98	430.62
646.32	428.70
646.66	426.58
647.01	424.52
647.35	422.47
647.69	420.55
648.04	418.66
648.38	416.66
648.72	414.71
649.06	412.66
649.41	410.46
649.75	408.36
650.09	406.40
650.43	404.47
650.78	402.40
651.12	400.40
651.46	398.55
651.80	396.64
652.14	394.73
652.49	393.01
652.83	391.26
653.17	389.50
653.51	387.69
653.85	386.14
654.20	384.36
654.54	382.55
654.88	380.82
655.22	379.22
655.56	377.50
655.90	375.84
656.25	374.21
656.59	372.67
656.93	371.13
657.27	369.68
657.61	368.11
657.95	366.69
658.29	365.14
658.64	363.69
658.98	362.11
659.32	360.60
659.66	359.11
660.00	357.53
660.34	356.09
660.68	354.59
661.02	353.20
661.36	351.88
661.70	350.62
662.05	349.24
662.39	347.75
662.73	346.63
663.07	345.63
663.41	344.43
663.75	343.05
664.09	341.85
664.43	340.50
664.77	339.30
665.11	337.93
665.45	336.91
665.79	335.80
666.13	334.55
666.47	333.35
666.81	332.16
667.15	331.02
667.49	329.99
667.83	329.17
668.17	328.14
668.51	327.10
668.85	326.07
669.19	325.27
669.53	324.20
669.87	323.10
670.21	321.98
670.55	320.89
670.89	320.17
671.23	319.21
671.57	318.38
671.91	317.52
672.25	316.70
672.58	315.86
672.92	314.71
673.26	313.89
673.60	313.14
673.94	312.29
674.28	311.52
674.62	310.68
674.96	309.76
675.30	308.85
675.64	308.05
675.97	307.28
676.31	306.37
676.65	305.58
676.99	304.88
677.33	303.94
677.67	303.35
678.01	302.42
678.34	301.77
678.68	301.04
679.02	300.25
679.36	299.48
679.70	298.72
680.04	298.15
680.37	297.50
680.71	296.89
681.05	296.31
681.39	295.70
681.73	295.00
682.06	294.41
682.40	293.87
682.74	293.25
683.08	292.80
683.42	292.14
683.75	291.66
684.09	290.99
684.43	290.50
684.77	289.76
685.10	289.27
685.44	288.62
685.78	288.00
686.12	287.40
686.45	286.80
686.79	286.18
687.13	285.80
687.46	285.24
687.80	284.76
688.14	284.04
688.48	283.44
688.81	282.90
689.15	282.32
689.49	281.75
689.82	281.28
690.16	280.52
690.50	280.01
690.83	279.39
691.17	278.82
691.51	278.30
691.84	277.91
692.18	277.28
692.52	276.79
692.85	276.39
693.19	276.13
693.52	275.78
693.86	275.30
694.20	274.76
694.53	274.38
694.87	273.77
695.21	273.37
695.54	272.90
695.88	272.35
696.21	271.73
696.55	271.25
696.88	270.72
697.22	270.29
697.56	269.94
697.89	269.53
698.23	269.14
698.56	268.61
698.90	268.22
699.23	267.76
699.57	267.44
699.90	266.94
700.24	266.39
700.58	265.95
700.91	265.64
701.25	265.59
701.58	265.50
701.92	265.23
702.25	264.94
702.59	264.60
702.92	264.38
703.26	264.15
703.59	263.92
703.93	264.08
704.26	263.81
704.60	263.43
704.93	263.06
705.26	262.75
705.60	262.52
705.93	262.13
706.27	262.03
706.60	261.82
706.94	261.73
707.27	261.51
707.61	261.24
707.94	260.87
708.27	260.14
708.61	259.46
708.94	259.10
709.28	258.77
709.61	258.48
709.94	258.19
710.28	257.83
710.61	257.48
710.95	256.74
711.28	256.73
711.61	256.35
711.95	256.20
712.28	255.83
712.61	255.64
712.95	255.60
713.28	255.52
713.61	255.07
713.95	254.63
714.28	254.27
714.61	253.93
714.95	253.70
715.28	253.41
715.61	253.17
715.95	253.00
716.28	252.74
716.61	252.50
716.95	252.20
717.28	251.99
717.61	251.69
717.94	251.44
718.28	250.84
718.61	250.68
718.94	250.30
719.27	250.10
719.61	249.85
719.94	249.50
720.27	249.05
720.60	248.83
720.94	248.62
721.27	248.54
721.60	248.47
721.93	248.20
722.27	248.22
722.60	248.08
722.93	247.83
723.26	247.75
723.59	247.55
723.93	247.46
724.26	247.31
724.59	247.14
724.92	247.07
725.25	247.00
725.59	246.82
725.92	246.79
726.25	246.60
726.58	246.46
726.91	246.26
727.24	246.11
727.57	245.95
727.91	245.80
728.24	245.59
728.57	245.31
728.90	245.24
729.23	244.92
729.56	244.92
729.89	244.74
730.22	244.48
730.55	244.36
730.89	244.14
731.22	243.96
731.55	243.82
731.88	243.55
732.21	243.29
732.54	243.02
732.87	242.80
733.20	242.71
733.53	242.57
733.86	242.54
734.19	242.36
734.52	242.31
734.85	242.45
735.18	242.19
735.51	242.25
735.84	242.16
736.17	242.10
736.50	241.79
736.83	242.21
737.16	242.01
737.49	241.90
737.82	241.78
738.15	241.76
738.48	241.61
738.81	241.47
739.14	241.33
739.47	241.25
739.80	241.13
740.13	241.05
740.46	240.83
740.79	240.56
741.12	240.39
741.45	240.18
741.78	239.80
742.11	239.87
742.44	239.58
742.77	239.45
743.10	239.28
743.43	239.15
743.75	238.47
744.08	239.02
744.41	238.81
744.74	238.65
745.07	238.43
745.40	238.38
745.73	238.52
746.06	238.44
746.39	238.38
746.71	238.26
747.04	238.10
747.37	238.00
747.70	237.96
748.03	237.89
748.36	237.83
748.68	237.72
749.01	237.45
749.34	237.43
749.67	237.39
750.00	237.40
750.33	237.63
750.65	237.62
750.98	236.97
751.31	236.94
751.64	236.84
751.97	237.01
752.29	236.87
752.62	236.52
752.95	236.39
753.28	236.26
753.60	236.20
753.93	236.20
754.26	236.14
754.59	235.95
754.91	235.82
755.24	235.70
755.57	235.58
755.90	235.45
756.22	235.25
756.55	235.05
756.88	234.79
757.20	234.37
757.53	234.12
757.86	234.00
758.19	233.95
758.51	233.93
758.84	233.60
759.17	233.48
759.49	233.46
759.82	233.66
760.15	233.64
760.47	233.45
760.80	233.28
761.13	233.23
761.45	233.13
761.78	233.04
762.11	232.99
762.43	232.88
762.76	232.80
763.08	232.88
763.41	232.84
763.74	232.88
764.06	232.78
764.39	232.74
764.71	232.74
765.04	232.60
765.37	232.50
765.69	232.45
766.02	232.45
766.34	232.33
766.67	232.09
767.00	232.08
767.32	232.34
767.65	232.59
767.97	232.55
768.30	232.52
768.62	232.49
768.95	232.41
769.27	232.41
769.60	232.45
769.92	232.30
770.25	232.19
770.57	231.96
770.90	231.95
771.22	231.89
771.55	231.77
771.87	231.75
772.20	231.68
772.52	232.06
772.85	232.58
773.17	232.55
773.50	232.50
773.82	232.40
774.15	232.11
774.47	231.72
774.80	231.65
775.12	231.67
775.45	231.60
775.77	231.58
776.09	231.57
776.42	231.52
776.74	231.67
777.07	231.61
777.39	231.66
777.72	231.58
778.04	231.66
778.36	231.60
778.69	231.54
779.01	231.55
779.33	231.05
779.66	230.49
779.98	230.45
780.31	230.39
780.63	230.60
780.95	230.62
781.28	230.54
781.60	230.52
781.92	230.48
782.25	230.53
782.57	230.52
782.89	230.44
783.22	230.42
783.54	230.27
783.86	230.29
784.19	230.20
784.51	230.29
784.83	230.19
785.16	230.19
785.48	230.25
785.80	230.19
786.12	230.20
786.45	230.13
786.77	230.13
787.09	230.14
787.42	229.84
787.74	229.85
788.06	229.89
788.38	229.81
788.71	229.70
789.03	229.66
789.35	229.67
789.67	229.60
789.99	229.61
790.32	229.50
790.64	229.53
790.96	229.93
791.28	229.78
791.61	229.71
791.93	229.75
792.25	229.66
792.57	230.00
792.89	229.88
793.21	229.90
793.54	229.85
793.86	229.78
794.18	229.83
794.50	229.71
794.82	229.78
795.14	229.80
795.47	229.89
795.79	229.91
796.11	229.76
796.43	229.68
796.75	229.60
797.07	229.66
797.39	229.60
797.71	229.20
798.04	229.21
798.36	229.22
798.68	229.17
799.00	229.17
799.32	228.84
799.64	228.95
799.96	228.89
800.28	228.97
800.60	228.86
800.92	228.83
801.24	228.87
801.56	228.80
801.89	228.74
802.21	228.73
802.53	228.55
802.85	228.66
803.17	228.97
803.49	228.92
803.81	228.77
804.13	228.76
804.45	228.65
804.77	228.67
805.09	228.63
805.41	228.56
805.73	228.49
806.05	228.38
806.37	228.30
806.69	228.25
807.01	228.15
807.33	228.21
807.65	228.07
807.97	228.23
808.28	228.20
808.60	228.21
808.92	228.11
809.24	228.41
809.56	228.31
809.88	228.05
810.20	227.94
810.52	228.10
810.84	227.98
811.16	228.00
811.48	227.93
811.80	228.12
812.12	228.10
812.43	228.15
812.75	228.15
813.07	228.10
813.39	228.18
813.71	228.11
814.03	228.04
814.35	228.06
814.67	227.87
814.98	227.79
815.30	227.73
815.62	227.66
815.94	227.33
816.26	227.55
816.58	227.46
816.89	227.51
817.21	227.33
817.53	227.42
817.85	227.41
818.17	227.40
818.48	227.21
818.80	227.30
