SpectraSuite Data File
++++++++++++++++++++++++++++++++++++
Date: Wed Sep 04 17:45:37 EDT 2013
User: lab3
Dark Spectrum Present: Yes
Reference Spectrum Present: No
Number of Sampled Component Spectra: 1
Spectrometers: USB2E7196
Integration Time (usec): 170000 (USB2E7196)
Spectra Averaged: 20 (USB2E7196)
Boxcar Smoothing: 10 (USB2E7196)
Correct for Electrical Dark: No (USB2E7196)
Strobe/Lamp Enabled: No (USB2E7196)
Correct for Detector Non-linearity: No (USB2E7196)
Correct for Stray Light: No (USB2E7196)
Number of Pixels in Processed Spectrum: 2048
>>>>>Begin Processed Spectral Data<<<<<
339.09	0.00
339.48	213.90
339.86	213.20
340.24	215.30
340.63	217.85
341.01	225.05
341.39	218.70
341.78	222.20
342.16	223.15
342.54	222.65
342.93	212.11
343.31	222.87
343.69	223.35
344.07	223.83
344.46	224.38
344.84	224.78
345.22	224.75
345.60	225.12
345.99	225.36
346.37	225.48
346.75	225.56
347.13	225.70
347.52	225.76
347.90	225.94
348.28	225.95
348.66	226.07
349.05	225.88
349.43	225.89
349.81	226.01
350.19	226.04
350.57	226.15
350.96	226.21
351.34	226.30
351.72	226.40
352.10	226.57
352.48	226.58
352.87	226.66
353.25	226.73
353.63	226.75
354.01	226.72
354.39	226.86
354.77	226.99
355.15	227.12
355.54	227.13
355.92	226.99
356.30	227.03
356.68	227.40
357.06	227.53
357.44	227.49
357.82	227.54
358.20	228.01
358.58	227.98
358.97	228.08
359.35	228.17
359.73	228.32
360.11	228.36
360.49	228.37
360.87	228.35
361.25	228.50
361.63	228.64
362.01	228.74
362.39	228.70
362.77	228.73
363.15	228.74
363.53	228.84
363.91	228.95
364.29	228.99
364.67	228.55
365.05	228.62
365.43	228.77
365.81	228.83
366.19	228.67
366.57	228.91
366.95	228.87
367.33	228.79
367.71	228.75
368.09	228.78
368.47	228.85
368.85	228.89
369.23	228.93
369.61	228.73
369.99	228.84
370.37	228.91
370.75	229.17
371.13	229.11
371.51	228.95
371.89	228.92
372.27	228.91
372.65	228.88
373.03	228.86
373.41	228.80
373.78	228.60
374.16	228.33
374.54	228.19
374.92	228.13
375.30	228.09
375.68	228.00
376.06	228.05
376.44	227.96
376.82	227.87
377.19	227.78
377.57	227.82
377.95	227.66
378.33	227.40
378.71	227.03
379.09	226.96
379.47	226.95
379.84	226.85
380.22	226.75
380.60	226.64
380.98	226.53
381.36	226.41
381.73	226.32
382.11	226.34
382.49	226.28
382.87	226.13
383.25	226.08
383.62	226.63
384.00	226.39
384.38	226.30
384.76	226.36
385.13	226.49
385.51	226.41
385.89	226.30
386.27	226.37
386.64	226.40
387.02	226.35
387.40	226.31
387.78	226.30
388.15	226.25
388.53	226.19
388.91	226.17
389.29	226.08
389.66	226.16
390.04	226.04
390.42	226.05
390.79	226.04
391.17	225.94
391.55	225.30
391.92	225.32
392.30	225.36
392.68	225.20
393.05	225.10
393.43	225.07
393.81	224.99
394.18	224.93
394.56	224.90
394.94	225.03
395.31	224.96
395.69	225.15
396.06	225.25
396.44	225.33
396.82	225.27
397.19	225.59
397.57	225.51
397.95	225.67
398.32	225.58
398.70	225.73
399.07	225.90
399.45	225.97
399.82	226.00
400.20	226.03
400.58	226.15
400.95	226.16
401.33	226.27
401.70	226.76
402.08	226.92
402.45	227.03
402.83	227.28
403.20	227.48
403.58	227.54
403.95	227.80
404.33	228.04
404.71	228.27
405.08	228.73
405.46	228.98
405.83	229.21
406.21	229.49
406.58	229.79
406.96	230.05
407.33	230.39
407.70	230.82
408.08	231.53
408.45	231.97
408.83	232.45
409.20	232.88
409.58	233.00
409.95	233.53
410.33	234.08
410.70	234.42
411.08	235.04
411.45	235.63
411.82	236.18
412.20	236.95
412.57	238.01
412.95	238.36
413.32	239.29
413.69	240.13
414.07	241.08
414.44	242.08
414.82	243.13
415.19	244.39
415.56	245.55
415.94	246.57
416.31	247.95
416.68	249.25
417.06	250.93
417.43	252.67
417.81	254.49
418.18	256.25
418.55	258.18
418.93	260.20
419.30	262.34
419.67	264.54
420.04	266.76
420.42	268.97
420.79	271.92
421.16	274.53
421.54	277.57
421.91	280.46
422.28	283.42
422.66	286.63
423.03	290.00
423.40	293.31
423.77	296.79
424.15	300.38
424.52	304.13
424.89	308.24
425.26	312.08
425.64	315.68
426.01	319.85
426.38	324.12
426.75	328.55
427.13	332.96
427.50	337.54
427.87	342.27
428.24	347.10
428.61	351.43
428.99	356.76
429.36	362.09
429.73	367.50
430.10	372.85
430.47	378.48
430.85	383.99
431.22	390.02
431.59	396.60
431.96	402.56
432.33	409.32
432.70	415.77
433.08	423.46
433.45	430.74
433.82	437.89
434.19	445.80
434.56	453.67
434.93	461.13
435.30	468.82
435.68	477.27
436.05	485.55
436.42	493.82
436.79	501.25
437.16	509.35
437.53	517.88
437.90	526.46
438.27	534.74
438.64	543.35
439.01	551.37
439.38	558.44
439.75	565.52
440.13	573.33
440.50	580.69
440.87	586.46
441.24	592.52
441.61	599.34
441.98	604.42
442.35	610.03
442.72	615.88
443.09	621.49
443.46	624.82
443.83	626.99
444.20	628.86
444.57	631.58
444.94	632.75
445.31	633.82
445.68	635.02
446.05	635.16
446.42	633.95
446.79	632.62
447.16	631.07
447.53	629.78
447.90	626.20
448.27	622.53
448.64	617.89
449.01	614.41
449.37	608.39
449.74	602.54
450.11	595.96
450.48	588.52
450.85	580.66
451.22	573.96
451.59	567.63
451.96	561.57
452.33	553.57
452.70	546.26
453.07	537.77
453.43	528.97
453.80	520.75
454.17	512.84
454.54	505.28
454.91	497.29
455.28	489.46
455.65	482.29
456.02	475.63
456.38	469.43
456.75	461.90
457.12	455.46
457.49	449.29
457.86	443.07
458.23	438.00
458.59	432.49
458.96	426.89
459.33	421.84
459.70	416.84
460.07	412.82
460.43	408.34
460.80	404.26
461.17	400.61
461.54	396.91
461.91	393.31
462.27	389.48
462.64	386.29
463.01	382.94
463.38	379.69
463.74	375.88
464.11	372.93
464.48	370.35
464.85	367.64
465.21	365.58
465.58	363.31
465.95	360.55
466.32	358.35
466.68	356.12
467.05	353.99
467.42	351.77
467.78	349.55
468.15	347.49
468.52	345.89
468.88	343.72
469.25	341.74
469.62	340.24
469.98	338.77
470.35	337.31
470.72	335.80
471.08	334.08
471.45	332.81
471.82	331.60
472.18	330.25
472.55	329.29
472.92	327.96
473.28	326.90
473.65	325.84
474.02	324.80
474.38	323.97
474.75	323.20
475.11	322.38
475.48	321.86
475.85	321.17
476.21	320.51
476.58	320.12
476.94	319.76
477.31	319.25
477.67	318.81
478.04	318.53
478.41	318.39
478.77	318.70
479.14	318.40
479.50	318.31
479.87	318.35
480.23	318.42
480.60	318.37
480.96	318.31
481.33	318.69
481.69	318.96
482.06	319.18
482.42	319.42
482.79	319.82
483.15	320.28
483.52	320.92
483.88	321.40
484.25	321.93
484.61	322.45
484.98	323.11
485.34	324.11
485.71	325.01
486.07	325.86
486.44	326.42
486.80	327.55
487.17	328.69
487.53	330.00
487.90	331.35
488.26	333.03
488.62	334.73
488.99	336.29
489.35	338.07
489.72	339.98
490.08	341.89
490.44	343.92
490.81	345.97
491.17	348.04
491.54	350.52
491.90	353.09
492.26	355.83
492.63	358.69
492.99	361.42
493.36	364.48
493.72	367.85
494.08	371.30
494.45	374.97
494.81	378.73
495.17	382.61
495.54	386.81
495.90	390.99
496.26	395.35
496.63	399.98
496.99	404.61
497.35	409.57
497.72	414.86
498.08	420.21
498.44	425.90
498.80	431.98
499.17	437.96
499.53	444.07
499.89	450.66
500.26	457.36
500.62	464.26
500.98	471.48
501.34	478.93
501.71	486.57
502.07	494.37
502.43	502.41
502.79	510.65
503.16	519.03
503.52	527.96
503.88	537.16
504.24	546.67
504.60	556.60
504.97	566.90
505.33	577.21
505.69	588.26
506.05	599.27
506.41	610.33
506.78	621.83
507.14	633.78
507.50	645.91
507.86	658.34
508.22	671.21
508.59	684.20
508.95	697.63
509.31	711.57
509.67	725.62
510.03	739.75
510.39	754.23
510.75	768.98
511.12	783.95
511.48	799.33
511.84	814.85
512.20	830.40
512.56	846.29
512.92	862.79
513.28	879.22
513.64	896.09
514.00	913.33
514.37	930.92
514.73	948.81
515.09	966.74
515.45	984.98
515.81	1003.13
516.17	1021.48
516.53	1039.78
516.89	1058.10
517.25	1077.23
517.61	1096.99
517.97	1116.81
518.33	1136.60
518.69	1156.39
519.05	1176.50
519.41	1196.65
519.77	1217.37
520.13	1237.78
520.49	1258.05
520.85	1278.42
521.21	1299.05
521.57	1320.03
521.93	1340.35
522.29	1361.08
522.65	1381.01
523.01	1401.39
523.37	1421.90
523.73	1442.48
524.09	1462.83
524.45	1483.00
524.81	1503.30
525.17	1523.76
525.53	1544.08
525.89	1564.47
526.25	1584.93
526.61	1604.69
526.97	1625.36
527.33	1646.08
527.68	1667.08
528.04	1687.73
528.40	1708.52
528.76	1728.92
529.12	1748.74
529.48	1768.90
529.84	1788.55
530.20	1809.48
530.56	1829.30
530.91	1849.39
531.27	1869.17
531.63	1889.08
531.99	1909.11
532.35	1928.46
532.71	1947.70
533.07	1967.47
533.42	1986.76
533.78	2006.05
534.14	2025.43
534.50	2043.76
534.86	2062.29
535.21	2079.25
535.57	2097.24
535.93	2114.06
536.29	2130.83
536.65	2148.32
537.00	2165.16
537.36	2182.19
537.72	2197.48
538.08	2214.29
538.44	2230.29
538.79	2246.13
539.15	2261.80
539.51	2277.35
539.87	2292.17
540.22	2305.43
540.58	2319.22
540.94	2331.54
541.29	2343.51
541.65	2355.45
542.01	2367.34
542.37	2377.48
542.72	2388.20
543.08	2397.86
543.44	2408.89
543.79	2418.63
544.15	2427.95
544.51	2437.51
544.87	2446.14
545.22	2454.67
545.58	2462.05
545.94	2468.85
546.29	2474.86
546.65	2480.60
547.01	2485.68
547.36	2490.57
547.72	2495.66
548.07	2498.95
548.43	2503.91
548.79	2507.78
549.14	2511.51
549.50	2515.02
549.86	2518.42
550.21	2521.68
550.57	2525.10
550.92	2526.10
551.28	2527.33
551.64	2529.11
551.99	2530.43
552.35	2531.79
552.70	2533.82
553.06	2534.84
553.41	2535.68
553.77	2537.11
554.13	2538.21
554.48	2539.22
554.84	2540.25
555.19	2541.20
555.55	2542.79
555.90	2542.08
556.26	2541.20
556.61	2539.31
556.97	2536.38
557.32	2535.18
557.68	2533.87
558.03	2531.88
558.39	2530.21
558.74	2528.70
559.10	2525.18
559.45	2521.49
559.81	2516.71
560.16	2511.21
560.52	2506.01
560.87	2501.36
561.23	2495.50
561.58	2489.75
561.94	2482.75
562.29	2475.40
562.64	2468.15
563.00	2459.67
563.35	2452.68
563.71	2446.11
564.06	2439.86
564.42	2433.90
564.77	2426.87
565.12	2419.39
565.48	2411.67
565.83	2404.07
566.19	2396.04
566.54	2388.47
566.89	2380.60
567.25	2372.87
567.60	2365.63
567.96	2358.22
568.31	2350.20
568.66	2341.74
569.02	2332.60
569.37	2324.66
569.72	2316.83
570.08	2307.81
570.43	2298.57
570.78	2289.62
571.14	2280.39
571.49	2270.15
571.84	2260.54
572.20	2250.00
572.55	2239.90
572.90	2229.17
573.26	2218.63
573.61	2208.06
573.96	2196.89
574.31	2185.07
574.67	2173.65
575.02	2161.19
575.37	2149.23
575.72	2136.34
576.08	2124.57
576.43	2112.65
576.78	2099.60
577.13	2086.37
577.49	2074.01
577.84	2062.35
578.19	2050.32
578.54	2037.54
578.90	2026.13
579.25	2013.67
579.60	2001.56
579.95	1988.70
580.30	1975.77
580.66	1962.92
581.01	1949.84
581.36	1936.23
581.71	1923.97
582.06	1911.25
582.42	1899.11
582.77	1886.37
583.12	1874.84
583.47	1862.79
583.82	1851.07
584.17	1839.48
584.53	1828.19
584.88	1815.40
585.23	1802.76
585.58	1789.47
585.93	1776.97
586.28	1763.75
586.63	1750.51
586.98	1736.62
587.34	1723.78
587.69	1710.98
588.04	1698.81
588.39	1686.83
588.74	1675.12
589.09	1663.18
589.44	1650.81
589.79	1639.28
590.14	1627.80
590.49	1615.81
590.84	1604.23
591.19	1592.50
591.54	1580.63
591.89	1568.45
592.25	1558.65
592.60	1547.22
592.95	1536.17
593.30	1524.66
593.65	1513.30
594.00	1501.63
594.35	1492.46
594.70	1481.08
595.05	1470.25
595.40	1458.64
595.75	1447.23
596.10	1436.20
596.45	1425.39
596.80	1415.02
597.15	1403.89
597.50	1392.50
597.85	1381.65
598.19	1370.55
598.54	1359.06
598.89	1348.48
599.24	1338.44
599.59	1327.33
599.94	1316.90
600.29	1306.76
600.64	1296.81
600.99	1286.51
601.34	1277.68
601.69	1266.82
602.04	1257.60
602.39	1248.26
602.74	1239.44
603.08	1230.47
603.43	1221.47
603.78	1212.13
604.13	1202.89
604.48	1193.35
604.83	1183.96
605.18	1174.60
605.53	1165.27
605.87	1156.59
606.22	1148.22
606.57	1139.33
606.92	1130.43
607.27	1122.30
607.62	1114.07
607.96	1105.91
608.31	1098.35
608.66	1090.01
609.01	1081.78
609.36	1073.30
609.70	1065.08
610.05	1056.60
610.40	1048.55
610.75	1040.36
611.10	1032.34
611.44	1024.26
611.79	1016.57
612.14	1009.02
612.49	1001.37
612.83	994.39
613.18	986.93
613.53	979.28
613.88	971.59
614.22	964.09
614.57	956.31
614.92	948.78
615.27	941.64
615.61	934.01
615.96	926.71
616.31	919.40
616.65	912.69
617.00	905.65
617.35	898.72
617.70	891.85
618.04	885.00
618.39	878.32
618.74	871.88
619.08	865.21
619.43	858.48
619.78	851.75
620.12	844.58
620.47	837.97
620.82	831.23
621.16	824.75
621.51	818.72
621.85	812.64
622.20	806.05
622.55	799.58
622.89	793.46
623.24	787.40
623.59	781.35
623.93	775.27
624.28	769.32
624.62	763.86
624.97	758.31
625.32	752.86
625.66	747.06
626.01	741.12
626.35	735.88
626.70	730.72
627.04	725.68
627.39	720.61
627.73	715.58
628.08	710.69
628.43	705.52
628.77	700.13
629.12	694.97
629.46	690.54
629.81	685.87
630.15	681.21
630.50	676.55
630.84	671.99
631.19	667.35
631.53	662.95
631.88	658.00
632.22	653.17
632.57	648.84
632.91	644.43
633.26	640.50
633.60	635.91
633.95	631.40
634.29	626.73
634.64	622.40
634.98	617.85
635.32	613.50
635.67	609.52
636.01	605.63
636.36	601.58
636.70	597.54
637.05	593.47
637.39	589.57
637.73	585.47
638.08	581.60
638.42	577.57
638.77	573.48
639.11	569.35
639.45	565.32
639.80	560.97
640.14	557.09
640.49	553.17
640.83	549.53
641.17	546.02
641.52	542.57
641.86	539.15
642.20	536.08
642.55	532.60
642.89	529.16
643.23	525.71
643.58	522.67
643.92	519.26
644.26	516.11
644.61	513.04
644.95	509.92
645.29	506.65
645.64	503.68
645.98	500.87
646.32	498.13
646.66	495.12
647.01	492.37
647.35	489.63
647.69	486.95
648.04	484.33
648.38	481.62
648.72	478.88
649.06	475.84
649.41	472.88
649.75	470.05
650.09	467.39
650.43	464.74
650.78	461.96
651.12	459.28
651.46	456.62
651.80	453.85
652.14	451.31
652.49	448.99
652.83	446.52
653.17	443.94
653.51	441.39
653.85	439.07
654.20	436.65
654.54	434.22
654.88	431.58
655.22	429.26
655.56	426.95
655.90	424.73
656.25	422.71
656.59	420.66
656.93	418.65
657.27	416.54
657.61	414.31
657.95	412.09
658.29	409.93
658.64	407.80
658.98	405.64
659.32	403.47
659.66	401.27
660.00	399.18
660.34	397.25
660.68	395.20
661.02	393.20
661.36	391.30
661.70	389.31
662.05	387.58
662.39	385.83
662.73	384.00
663.07	382.43
663.41	380.58
663.75	378.61
664.09	376.79
664.43	374.96
664.77	373.27
665.11	371.58
665.45	369.89
665.79	368.33
666.13	366.72
666.47	365.13
666.81	363.61
667.15	361.86
667.49	360.31
667.83	359.07
668.17	357.73
668.51	356.33
668.85	355.04
669.19	353.83
669.53	352.29
669.87	350.95
670.21	349.44
670.55	348.15
670.89	347.17
671.23	345.79
671.57	344.38
671.91	343.13
672.25	341.82
672.58	340.77
672.92	339.35
673.26	338.19
673.60	337.01
673.94	335.79
674.28	334.78
674.62	333.62
674.96	332.34
675.30	331.14
675.64	329.97
675.97	328.74
676.31	327.40
676.65	326.10
676.99	325.08
677.33	323.90
677.67	322.79
678.01	321.42
678.34	320.42
678.68	319.58
679.02	318.58
679.36	317.62
679.70	316.58
680.04	315.72
680.37	314.85
680.71	313.80
681.05	312.92
681.39	312.11
681.73	311.24
682.06	310.35
682.40	309.48
682.74	308.70
683.08	308.07
683.42	307.24
683.75	306.60
684.09	305.59
684.43	304.84
684.77	304.09
685.10	303.40
685.44	302.64
685.78	301.81
686.12	300.92
686.45	300.24
686.79	299.51
687.13	298.87
687.46	298.07
687.80	297.54
688.14	296.69
688.48	295.95
688.81	295.19
689.15	294.66
689.49	293.96
689.82	293.26
690.16	292.36
690.50	291.67
690.83	291.00
691.17	290.30
691.51	289.66
691.84	288.98
692.18	288.24
692.52	287.62
692.85	287.06
693.19	286.80
693.52	286.13
693.86	285.47
694.20	284.89
694.53	284.38
694.87	283.81
695.21	283.28
695.54	282.62
695.88	282.02
696.21	281.28
696.55	280.69
696.88	280.15
697.22	279.58
697.56	279.08
697.89	278.49
698.23	278.08
698.56	277.49
698.90	277.05
699.23	276.57
699.57	276.06
699.90	275.54
700.24	274.78
700.58	274.38
700.91	273.98
701.25	273.78
701.58	273.59
701.92	273.17
702.25	272.81
702.59	272.46
702.92	272.20
703.26	271.88
703.59	271.57
703.93	271.60
704.26	271.35
704.60	271.03
704.93	270.58
705.26	270.07
705.60	269.73
705.93	269.16
706.27	268.85
706.60	268.59
706.94	268.34
707.27	268.01
707.61	267.62
707.94	267.18
708.27	266.43
708.61	265.73
708.94	265.25
709.28	264.81
709.61	264.32
709.94	263.87
710.28	263.41
710.61	262.99
710.95	262.11
711.28	261.99
711.61	261.49
711.95	261.24
712.28	260.85
712.61	260.51
712.95	260.51
713.28	260.40
713.61	259.92
713.95	259.40
714.28	259.02
714.61	258.60
714.95	258.26
715.28	257.94
715.61	257.56
715.95	257.24
716.28	256.88
716.61	256.67
716.95	256.33
717.28	256.04
717.61	255.73
717.94	255.46
718.28	254.80
718.61	254.53
718.94	254.20
719.27	253.87
719.61	253.64
719.94	253.19
720.27	252.63
720.60	252.31
720.94	252.10
721.27	251.88
721.60	251.64
721.93	251.41
722.27	251.28
722.60	251.16
722.93	250.91
723.26	250.77
723.59	250.47
723.93	250.31
724.26	250.12
724.59	249.84
724.92	249.73
725.25	249.65
725.59	249.44
725.92	249.27
726.25	249.10
726.58	248.94
726.91	248.71
727.24	248.55
727.57	248.41
727.91	248.18
728.24	248.05
728.57	247.87
728.90	247.77
729.23	247.53
729.56	247.56
729.89	247.41
730.22	247.15
730.55	246.97
730.89	246.75
731.22	246.57
731.55	246.47
731.88	246.26
732.21	246.04
732.54	245.85
732.87	245.70
733.20	245.61
733.53	245.40
733.86	245.33
734.19	245.20
734.52	245.15
734.85	245.39
735.18	245.10
735.51	245.09
735.84	244.93
736.17	244.93
736.50	244.53
736.83	244.97
737.16	244.87
737.49	244.81
737.82	244.62
738.15	244.50
738.48	244.33
738.81	244.21
739.14	244.01
739.47	243.93
739.80	243.83
740.13	243.76
740.46	243.62
740.79	243.32
741.12	243.12
741.45	242.84
741.78	242.34
742.11	242.43
742.44	242.21
742.77	242.16
743.10	241.93
743.43	241.81
743.75	241.13
744.08	241.68
744.41	241.48
744.74	241.33
745.07	241.11
745.40	241.04
745.73	241.09
746.06	240.97
746.39	240.82
746.71	240.60
747.04	240.32
747.37	240.14
747.70	240.17
748.03	240.12
748.36	240.14
748.68	240.02
749.01	239.74
749.34	239.53
749.67	239.35
750.00	239.26
750.33	239.47
750.65	239.40
750.98	238.56
751.31	238.47
751.64	238.40
751.97	238.58
752.29	238.51
752.62	238.07
752.95	237.95
753.28	237.80
753.60	237.66
753.93	237.79
754.26	237.75
754.59	237.50
754.91	237.34
755.24	237.13
755.57	237.05
755.90	236.90
756.22	236.85
756.55	236.63
756.88	236.36
757.20	235.85
757.53	235.65
757.86	235.70
758.19	235.57
758.51	235.49
758.84	235.11
759.17	234.90
759.49	234.96
759.82	235.01
760.15	234.97
760.47	234.87
760.80	234.61
761.13	234.54
761.45	234.44
761.78	234.34
762.11	234.40
762.43	234.28
762.76	234.17
763.08	234.08
763.41	234.13
763.74	234.19
764.06	234.12
764.39	233.99
764.71	233.71
765.04	233.60
765.37	233.51
765.69	233.44
766.02	233.39
766.34	233.22
766.67	232.97
767.00	232.96
767.32	233.19
767.65	233.44
767.97	233.35
768.30	233.35
768.62	233.27
768.95	233.06
769.27	232.95
769.60	233.02
769.92	232.91
770.25	232.74
770.57	232.58
770.90	232.56
771.22	232.52
771.55	232.60
771.87	232.51
772.20	232.46
772.52	232.84
772.85	233.34
773.17	233.30
773.50	233.26
773.82	233.11
774.15	232.79
774.47	232.39
774.80	232.26
775.12	232.16
775.45	232.10
775.77	232.10
776.09	232.05
776.42	231.98
776.74	232.05
777.07	232.01
777.39	231.94
777.72	231.82
778.04	231.85
778.36	231.70
778.69	231.75
779.01	231.71
779.33	231.27
779.66	230.67
779.98	230.64
780.31	230.60
780.63	230.84
780.95	230.90
781.28	230.94
781.60	230.89
781.92	230.83
782.25	230.77
782.57	230.74
782.89	230.73
783.22	230.68
783.54	230.52
783.86	230.56
784.19	230.53
784.51	230.70
784.83	230.56
785.16	230.64
785.48	230.59
785.80	230.54
786.12	230.58
786.45	230.52
786.77	230.51
787.09	230.45
787.42	230.22
787.74	230.12
788.06	230.04
788.38	230.00
788.71	229.91
789.03	229.90
789.35	229.95
789.67	229.88
789.99	229.88
790.32	229.79
790.64	229.74
790.96	230.07
791.28	229.78
791.61	229.78
791.93	229.69
792.25	229.62
792.57	229.91
792.89	229.77
793.21	229.79
793.54	229.71
793.86	229.70
794.18	229.70
794.50	229.63
794.82	229.60
795.14	229.67
795.47	229.80
795.79	229.80
796.11	229.68
796.43	229.64
796.75	229.55
797.07	229.58
797.39	229.49
797.71	229.15
798.04	229.23
798.36	229.23
798.68	229.23
799.00	229.18
799.32	228.89
799.64	229.02
799.96	229.02
800.28	229.08
800.60	228.98
800.92	229.05
801.24	229.03
801.56	229.01
801.89	228.94
802.21	228.96
802.53	228.82
802.85	228.94
803.17	229.10
803.49	229.02
803.81	228.97
804.13	228.93
804.45	228.91
804.77	228.93
805.09	228.94
805.41	228.86
805.73	228.86
806.05	228.75
806.37	228.62
806.69	228.54
807.01	228.43
807.33	228.51
807.65	228.30
807.97	228.51
808.28	228.48
808.60	228.48
808.92	228.41
809.24	228.70
809.56	228.56
809.88	228.40
810.20	228.42
810.52	228.57
810.84	228.56
811.16	228.43
811.48	228.40
811.80	228.55
812.12	228.53
812.43	228.58
812.75	228.64
813.07	228.58
813.39	228.66
813.71	228.59
814.03	228.45
814.35	228.49
814.67	228.22
814.98	228.23
815.30	228.16
815.62	227.96
815.94	227.68
816.26	227.89
816.58	227.80
816.89	227.84
817.21	227.74
817.53	227.73
817.85	227.80
