SpectraSuite Data File
++++++++++++++++++++++++++++++++++++
Date: Wed Sep 04 18:03:39 EDT 2013
User: lab3
Dark Spectrum Present: Yes
Reference Spectrum Present: No
Number of Sampled Component Spectra: 1
Spectrometers: USB2E7196
Integration Time (usec): 170000 (USB2E7196)
Spectra Averaged: 20 (USB2E7196)
Boxcar Smoothing: 10 (USB2E7196)
Correct for Electrical Dark: No (USB2E7196)
Strobe/Lamp Enabled: No (USB2E7196)
Correct for Detector Non-linearity: No (USB2E7196)
Correct for Stray Light: No (USB2E7196)
Number of Pixels in Processed Spectrum: 2048
>>>>>Begin Processed Spectral Data<<<<<
339.09	0.00
339.48	213.60
339.86	214.30
340.24	216.25
340.63	217.15
341.01	226.60
341.39	219.85
341.78	222.45
342.16	224.40
342.54	223.30
342.93	212.43
343.31	223.13
343.69	223.66
344.07	224.10
344.46	224.60
344.84	225.02
345.22	224.97
345.60	225.31
345.99	225.46
346.37	225.54
346.75	225.61
347.13	225.68
347.52	225.76
347.90	225.94
348.28	225.98
348.66	226.10
349.05	225.97
349.43	226.10
349.81	226.22
350.19	226.35
350.57	226.42
350.96	226.47
351.34	226.56
351.72	226.65
352.10	226.82
352.48	226.91
352.87	227.00
353.25	227.01
353.63	226.99
354.01	227.06
354.39	227.19
354.77	227.33
355.15	227.56
355.54	227.54
355.92	227.47
356.30	227.53
356.68	227.89
357.06	227.97
357.44	227.96
357.82	228.05
358.20	228.54
358.58	228.52
358.97	228.58
359.35	228.75
359.73	228.90
360.11	228.91
360.49	228.93
360.87	228.96
361.25	229.17
361.63	229.35
362.01	229.43
362.39	229.44
362.77	229.45
363.15	229.45
363.53	229.52
363.91	229.57
364.29	229.62
364.67	229.25
365.05	229.36
365.43	229.46
365.81	229.56
366.19	229.33
366.57	229.57
366.95	229.60
367.33	229.50
367.71	229.48
368.09	229.70
368.47	229.71
368.85	229.69
369.23	229.71
369.61	229.65
369.99	229.76
370.37	229.85
370.75	230.10
371.13	229.94
371.51	229.87
371.89	229.90
372.27	229.88
372.65	229.90
373.03	229.89
373.41	229.76
373.78	229.65
374.16	229.38
374.54	229.17
374.92	229.07
375.30	229.01
375.68	228.91
376.06	228.80
376.44	228.71
376.82	228.62
377.19	228.59
377.57	228.45
377.95	228.26
378.33	228.11
378.71	227.77
379.09	227.85
379.47	227.80
379.84	227.62
380.22	227.48
380.60	227.21
380.98	227.10
381.36	227.06
381.73	226.99
382.11	227.09
382.49	227.04
382.87	226.96
383.25	226.97
383.62	227.50
384.00	227.30
384.38	227.28
384.76	227.37
385.13	227.40
385.51	227.33
385.89	227.22
386.27	227.14
386.64	227.20
387.02	227.15
387.40	227.07
387.78	227.15
388.15	227.15
388.53	227.18
388.91	227.12
389.29	227.06
389.66	227.05
390.04	226.95
390.42	227.04
390.79	227.07
391.17	226.99
391.55	226.44
391.92	226.48
392.30	226.49
392.68	226.41
393.05	226.42
393.43	226.48
393.81	226.60
394.18	226.55
394.56	226.48
394.94	226.54
395.31	226.58
395.69	226.79
396.06	226.90
396.44	226.97
396.82	227.01
397.19	227.43
397.57	227.46
397.95	227.58
398.32	227.50
398.70	227.58
399.07	227.74
399.45	227.76
399.82	227.83
400.20	227.90
400.58	227.98
400.95	227.93
401.33	228.18
401.70	228.62
402.08	228.82
402.45	229.00
402.83	229.21
403.20	229.40
403.58	229.46
403.95	229.60
404.33	229.87
404.71	230.09
405.08	230.41
405.46	230.59
405.83	230.85
406.21	231.07
406.58	231.37
406.96	231.65
407.33	232.03
407.70	232.45
408.08	233.18
408.45	233.62
408.83	234.07
409.20	234.33
409.58	234.45
409.95	234.97
410.33	235.51
410.70	235.92
411.08	236.52
411.45	237.13
411.82	237.75
412.20	238.59
412.57	239.60
412.95	240.00
413.32	240.95
413.69	241.74
414.07	242.68
414.44	243.72
414.82	244.80
415.19	245.99
415.56	247.19
415.94	248.15
416.31	249.60
416.68	251.08
417.06	252.75
417.43	254.44
417.81	256.26
418.18	258.09
418.55	260.02
418.93	262.12
419.30	264.20
419.67	266.46
420.04	268.69
420.42	270.93
420.79	274.04
421.16	276.86
421.54	279.95
421.91	282.98
422.28	286.01
422.66	289.23
423.03	292.64
423.40	295.93
423.77	299.50
424.15	303.17
424.52	306.85
424.89	311.04
425.26	314.89
425.64	318.60
426.01	322.78
426.38	327.21
426.75	331.70
427.13	336.31
427.50	341.09
427.87	345.93
428.24	350.94
428.61	355.41
428.99	360.68
429.36	366.16
429.73	371.67
430.10	377.25
430.47	382.98
430.85	388.63
431.22	394.83
431.59	401.57
431.96	407.85
432.33	414.83
432.70	421.43
433.08	429.41
433.45	436.96
433.82	444.31
434.19	452.49
434.56	460.49
434.93	468.27
435.30	476.07
435.68	484.82
436.05	493.21
436.42	501.53
436.79	509.21
437.16	517.61
437.53	526.50
437.90	535.18
438.27	543.83
438.64	552.83
439.01	561.15
439.38	568.31
439.75	575.27
440.13	583.51
440.50	591.03
440.87	597.22
441.24	603.60
441.61	610.67
441.98	615.76
442.35	621.74
442.72	627.80
443.09	633.67
443.46	637.10
443.83	639.41
444.20	641.52
444.57	644.40
444.94	645.68
445.31	646.71
445.68	648.14
446.05	648.25
446.42	646.93
446.79	645.42
447.16	644.01
447.53	642.90
447.90	639.14
448.27	635.65
448.64	630.72
449.01	626.87
449.37	620.78
449.74	614.85
450.11	607.96
450.48	599.97
450.85	591.95
451.22	585.01
451.59	578.37
451.96	571.92
452.33	563.63
452.70	556.01
453.07	547.37
453.43	538.20
453.80	529.81
454.17	521.78
454.54	514.23
454.91	505.89
455.28	497.77
455.65	490.24
456.02	483.28
456.38	476.88
456.75	469.28
457.12	462.68
457.49	456.33
457.86	449.93
458.23	444.99
458.59	439.21
458.96	433.46
459.33	428.38
459.70	423.34
460.07	419.23
460.43	414.53
460.80	410.21
461.17	406.50
461.54	402.50
461.91	398.70
462.27	394.76
462.64	391.65
463.01	388.13
463.38	384.84
463.74	380.87
464.11	377.81
464.48	375.13
464.85	372.28
465.21	370.06
465.58	367.73
465.95	364.90
466.32	362.72
466.68	360.34
467.05	358.09
467.42	355.90
467.78	353.61
468.15	351.50
468.52	349.85
468.88	347.59
469.25	345.61
469.62	344.15
469.98	342.51
470.35	340.90
470.72	339.41
471.08	337.64
471.45	336.40
471.82	335.17
472.18	333.69
472.55	332.67
472.92	331.44
473.28	330.33
473.65	329.11
474.02	328.04
474.38	327.33
474.75	326.69
475.11	325.67
475.48	324.95
475.85	324.28
476.21	323.63
476.58	323.10
476.94	322.69
477.31	322.17
477.67	321.69
478.04	321.27
478.41	321.21
478.77	321.55
479.14	321.16
479.50	320.90
479.87	321.02
480.23	320.96
480.60	320.80
480.96	320.84
481.33	321.16
481.69	321.24
482.06	321.35
482.42	321.54
482.79	321.93
483.15	322.33
483.52	323.00
483.88	323.45
484.25	323.95
484.61	324.64
484.98	325.32
485.34	326.30
485.71	327.24
486.07	328.01
486.44	328.55
486.80	329.62
487.17	330.74
487.53	331.95
487.90	333.41
488.26	335.06
488.62	336.69
488.99	338.20
489.35	340.01
489.72	341.82
490.08	343.72
490.44	345.78
490.81	348.15
491.17	350.29
491.54	352.86
491.90	355.54
492.26	358.19
492.63	360.97
492.99	363.78
493.36	367.00
493.72	370.40
494.08	373.87
494.45	377.62
494.81	381.67
495.17	385.60
495.54	389.79
495.90	394.10
496.26	398.60
496.63	403.34
496.99	408.18
497.35	413.33
497.72	418.66
498.08	424.21
498.44	429.88
498.80	435.91
499.17	441.95
499.53	448.22
499.89	454.95
500.26	461.77
500.62	468.95
500.98	476.35
501.34	483.85
501.71	491.56
502.07	499.43
502.43	507.48
502.79	515.93
503.16	524.64
503.52	533.65
503.88	542.86
504.24	552.65
504.60	562.77
504.97	572.97
505.33	583.60
505.69	594.63
506.05	605.70
506.41	617.07
506.78	628.74
507.14	640.83
507.50	653.35
507.86	666.04
508.22	679.04
508.59	692.13
508.95	705.78
509.31	719.93
509.67	734.21
510.03	748.62
510.39	763.43
510.75	778.40
511.12	793.56
511.48	809.24
511.84	824.89
512.20	840.75
512.56	857.19
512.92	873.84
513.28	890.62
513.64	907.89
514.00	925.42
514.37	943.35
514.73	961.42
515.09	979.50
515.45	997.80
515.81	1016.25
516.17	1035.03
516.53	1053.90
516.89	1072.60
517.25	1092.06
517.61	1112.16
517.97	1132.39
518.33	1152.46
518.69	1172.88
519.05	1193.52
519.41	1214.35
519.77	1235.52
520.13	1256.35
520.49	1277.07
520.85	1299.53
521.21	1320.53
521.57	1342.02
521.93	1362.74
522.29	1384.27
522.65	1405.12
523.01	1426.23
523.37	1446.93
523.73	1468.07
524.09	1488.66
524.45	1509.53
524.81	1530.79
525.17	1551.55
525.53	1572.19
525.89	1593.18
526.25	1614.18
526.61	1634.88
526.97	1655.99
527.33	1677.51
527.68	1699.61
528.04	1720.95
528.40	1740.33
528.76	1761.75
529.12	1782.06
529.48	1803.09
529.84	1823.19
530.20	1844.64
530.56	1865.53
530.91	1886.83
531.27	1907.60
531.63	1928.02
531.99	1948.85
532.35	1968.69
532.71	1989.11
533.07	2009.71
533.42	2029.88
533.78	2050.17
534.14	2069.84
534.50	2088.99
534.86	2108.13
535.21	2125.70
535.57	2144.37
535.93	2162.56
536.29	2180.56
536.65	2198.91
537.00	2216.52
537.36	2234.48
537.72	2250.72
538.08	2268.11
538.44	2284.50
538.79	2300.95
539.15	2317.85
539.51	2334.00
539.87	2349.41
540.22	2363.90
540.58	2378.52
540.94	2391.75
541.29	2404.05
541.65	2416.84
542.01	2429.60
542.37	2440.56
542.72	2451.63
543.08	2462.82
543.44	2474.34
543.79	2484.42
544.15	2494.35
544.51	2504.52
544.87	2514.21
545.22	2523.56
545.58	2531.48
545.94	2539.22
546.29	2545.89
546.65	2552.42
547.01	2558.10
547.36	2563.95
547.72	2569.33
548.07	2573.13
548.43	2578.69
548.79	2583.56
549.14	2587.79
549.50	2591.65
549.86	2595.63
550.21	2599.59
550.57	2602.48
550.92	2604.05
551.28	2605.68
551.64	2608.10
551.99	2610.59
552.35	2611.91
552.70	2613.39
553.06	2614.92
553.41	2616.25
553.77	2618.02
554.13	2619.69
554.48	2621.27
554.84	2622.60
555.19	2624.23
555.55	2626.59
555.90	2625.76
556.26	2625.07
556.61	2623.66
556.97	2621.54
557.32	2621.00
557.68	2620.08
558.03	2618.83
558.39	2617.93
558.74	2616.81
559.10	2613.74
559.45	2609.93
559.81	2605.61
560.16	2600.97
560.52	2596.30
560.87	2591.64
561.23	2586.13
561.58	2579.96
561.94	2573.06
562.29	2565.64
562.64	2558.37
563.00	2549.84
563.35	2543.66
563.71	2537.23
564.06	2531.10
564.42	2524.64
564.77	2517.50
565.12	2509.62
565.48	2502.07
565.83	2494.25
566.19	2486.35
566.54	2478.65
566.89	2470.31
567.25	2462.72
567.60	2455.30
567.96	2447.85
568.31	2439.83
568.66	2431.27
569.02	2422.35
569.37	2414.31
569.72	2406.90
570.08	2397.41
570.43	2388.03
570.78	2379.02
571.14	2369.38
571.49	2359.17
571.84	2349.79
572.20	2338.95
572.55	2329.20
572.90	2318.10
573.26	2307.42
573.61	2296.18
573.96	2284.72
574.31	2272.92
574.67	2260.77
575.02	2248.30
575.37	2235.30
575.72	2221.92
576.08	2209.77
576.43	2197.30
576.78	2184.01
577.13	2170.08
577.49	2157.54
577.84	2145.43
578.19	2133.11
578.54	2120.69
578.90	2108.61
579.25	2095.89
579.60	2083.39
579.95	2069.95
580.30	2057.10
580.66	2043.84
581.01	2030.21
581.36	2016.30
581.71	2003.60
582.06	1990.99
582.42	1978.23
582.77	1965.57
583.12	1953.55
583.47	1940.91
583.82	1928.89
584.17	1917.03
584.53	1905.02
584.88	1891.95
585.23	1878.83
585.58	1864.35
585.93	1851.07
586.28	1837.60
586.63	1823.60
586.98	1809.23
587.34	1796.24
587.69	1782.85
588.04	1770.16
588.39	1758.10
588.74	1745.81
589.09	1733.50
589.44	1720.62
589.79	1708.44
590.14	1696.34
590.49	1684.40
590.84	1672.38
591.19	1660.07
591.54	1647.47
591.89	1635.33
592.25	1624.95
592.60	1613.57
592.95	1602.41
593.30	1590.16
593.65	1577.96
594.00	1565.92
594.35	1556.08
594.70	1543.99
595.05	1532.59
595.40	1520.63
595.75	1508.71
596.10	1497.56
596.45	1485.94
596.80	1474.88
597.15	1463.29
597.50	1451.37
597.85	1439.88
598.19	1427.98
598.54	1416.57
598.89	1405.32
599.24	1394.92
599.59	1383.08
599.94	1372.03
600.29	1361.09
600.64	1350.75
600.99	1340.17
601.34	1330.60
601.69	1319.42
602.04	1309.66
602.39	1299.77
602.74	1290.22
603.08	1280.69
603.43	1271.26
603.78	1261.79
604.13	1252.05
604.48	1242.43
604.83	1232.86
605.18	1222.99
605.53	1213.40
605.87	1203.92
606.22	1195.36
606.57	1185.84
606.92	1176.50
607.27	1167.50
607.62	1158.78
607.96	1150.08
608.31	1142.20
608.66	1133.70
609.01	1125.05
609.36	1116.31
609.70	1107.50
610.05	1098.85
610.40	1090.17
610.75	1081.50
611.10	1072.76
611.44	1064.29
611.79	1056.00
612.14	1048.00
612.49	1039.87
612.83	1032.55
613.18	1024.64
613.53	1016.79
613.88	1008.56
614.22	1000.83
614.57	992.76
614.92	984.75
615.27	977.10
615.61	969.08
615.96	961.39
616.31	953.59
616.65	946.49
617.00	939.15
617.35	931.66
617.70	924.44
618.04	917.03
618.39	910.15
618.74	903.37
619.08	896.26
619.43	889.21
619.78	882.41
620.12	875.14
620.47	868.29
620.82	861.11
621.16	854.34
621.51	847.93
621.85	841.49
622.20	834.93
622.55	828.25
622.89	821.79
623.24	815.24
623.59	808.90
623.93	802.42
624.28	796.12
624.62	790.41
624.97	784.52
625.32	778.81
625.66	772.68
626.01	766.70
626.35	761.18
626.70	755.64
627.04	750.35
627.39	744.68
627.73	739.32
628.08	733.91
628.43	728.36
628.77	722.78
629.12	717.52
629.46	712.63
629.81	707.99
630.15	703.08
630.50	698.18
630.84	693.31
631.19	688.54
631.53	684.05
631.88	678.61
632.22	673.71
632.57	669.08
632.91	664.49
633.26	660.05
633.60	655.37
633.95	650.62
634.29	645.61
634.64	641.19
634.98	636.41
635.32	632.16
635.67	628.25
636.01	623.92
636.36	619.53
636.70	615.60
637.05	611.20
637.39	606.99
637.73	602.82
638.08	598.83
638.42	594.49
638.77	590.02
639.11	585.80
639.45	581.55
639.80	577.03
640.14	572.87
640.49	568.74
640.83	564.90
641.17	561.19
641.52	557.47
641.86	553.85
642.20	550.67
642.55	546.87
642.89	543.05
643.23	539.61
643.58	536.59
643.92	532.71
644.26	529.34
644.61	526.04
644.95	522.72
645.29	519.31
645.64	516.14
645.98	513.13
646.32	510.27
646.66	506.92
647.01	504.01
647.35	501.27
647.69	498.24
648.04	495.44
648.38	492.57
648.72	489.66
649.06	486.69
649.41	483.46
649.75	480.45
650.09	477.71
650.43	474.92
650.78	471.85
651.12	469.04
651.46	466.08
651.80	463.29
652.14	460.54
652.49	457.94
652.83	455.31
653.17	452.60
653.51	449.92
653.85	447.77
654.20	445.16
654.54	442.53
654.88	440.09
655.22	437.70
655.56	435.20
655.90	432.86
656.25	430.47
656.59	428.29
656.93	426.04
657.27	423.98
657.61	421.37
657.95	419.13
658.29	416.93
658.64	414.95
658.98	412.82
659.32	410.45
659.66	408.16
660.00	406.08
660.34	404.10
660.68	402.00
661.02	399.86
661.36	397.99
661.70	395.85
662.05	393.85
662.39	391.80
662.73	390.09
663.07	388.42
663.41	386.60
663.75	384.72
664.09	382.98
664.43	380.85
664.77	379.28
665.11	377.39
665.45	375.64
665.79	373.95
666.13	372.27
666.47	370.65
666.81	369.00
667.15	367.26
667.49	365.69
667.83	364.34
668.17	362.88
668.51	361.44
668.85	360.23
669.19	359.04
669.53	357.55
669.87	356.03
670.21	354.43
670.55	353.05
670.89	351.82
671.23	350.36
671.57	349.11
671.91	347.75
672.25	346.44
672.58	345.36
672.92	343.92
673.26	342.53
673.60	341.40
673.94	340.30
674.28	339.20
674.62	338.01
674.96	336.73
675.30	335.47
675.64	334.15
675.97	332.86
676.31	331.51
676.65	330.26
676.99	329.22
677.33	328.11
677.67	327.00
678.01	325.64
678.34	324.58
678.68	323.58
679.02	322.48
679.36	321.50
679.70	320.40
680.04	319.51
680.37	318.56
680.71	317.51
681.05	316.53
681.39	315.56
681.73	314.58
682.06	313.64
682.40	312.75
682.74	311.98
683.08	311.24
683.42	310.32
683.75	309.57
684.09	308.62
684.43	307.78
684.77	306.93
685.10	306.15
685.44	305.46
685.78	304.55
686.12	303.73
686.45	303.00
686.79	302.12
687.13	301.37
687.46	300.66
687.80	300.01
688.14	299.27
688.48	298.53
688.81	297.77
689.15	297.15
689.49	296.42
689.82	295.64
690.16	294.78
690.50	294.07
690.83	293.36
691.17	292.59
691.51	291.94
691.84	291.29
692.18	290.61
692.52	289.85
692.85	289.26
693.19	288.85
693.52	288.19
693.86	287.65
694.20	287.05
694.53	286.48
694.87	285.75
695.21	285.05
695.54	284.40
695.88	283.70
696.21	282.89
696.55	282.30
696.88	281.72
697.22	281.09
697.56	280.64
697.89	280.01
698.23	279.52
698.56	279.00
698.90	278.51
699.23	277.95
699.57	277.52
699.90	276.89
700.24	276.23
700.58	275.72
700.91	275.22
701.25	275.12
701.58	274.84
701.92	274.60
702.25	274.24
702.59	273.80
702.92	273.52
703.26	273.19
703.59	272.78
703.93	272.75
704.26	272.36
704.60	271.88
704.93	271.46
705.26	270.88
705.60	270.45
705.93	269.96
706.27	269.74
706.60	269.33
706.94	269.14
707.27	268.71
707.61	268.35
707.94	267.98
708.27	267.20
708.61	266.55
708.94	266.05
709.28	265.61
709.61	265.17
709.94	264.79
710.28	264.41
710.61	264.05
710.95	263.24
711.28	263.17
711.61	262.74
711.95	262.51
712.28	262.20
712.61	261.89
712.95	261.79
713.28	261.65
713.61	261.32
713.95	260.90
714.28	260.61
714.61	260.25
714.95	259.90
715.28	259.55
715.61	259.12
715.95	258.82
716.28	258.50
716.61	258.33
716.95	257.95
717.28	257.66
717.61	257.33
717.94	257.04
718.28	256.46
718.61	256.25
718.94	255.83
719.27	255.55
719.61	255.23
719.94	254.85
720.27	254.37
720.60	253.98
720.94	253.68
721.27	253.43
721.60	253.31
721.93	253.00
722.27	252.85
722.60	252.80
722.93	252.50
723.26	252.30
723.59	251.98
723.93	251.85
724.26	251.60
724.59	251.36
724.92	251.17
725.25	251.06
725.59	250.90
725.92	250.70
726.25	250.59
726.58	250.50
726.91	250.23
727.24	250.01
727.57	249.86
727.91	249.67
728.24	249.56
728.57	249.29
728.90	249.22
729.23	248.89
729.56	248.86
729.89	248.68
730.22	248.47
730.55	248.27
730.89	248.04
731.22	247.86
731.55	247.66
731.88	247.49
732.21	247.25
732.54	246.94
732.87	246.79
733.20	246.66
733.53	246.44
733.86	246.42
734.19	246.15
734.52	246.09
734.85	246.20
735.18	245.90
735.51	245.90
735.84	245.70
736.17	245.68
736.50	245.35
736.83	245.74
737.16	245.62
737.49	245.54
737.82	245.38
738.15	245.34
738.48	245.23
738.81	245.09
739.14	244.94
739.47	244.84
739.80	244.80
740.13	244.69
740.46	244.42
740.79	244.17
741.12	244.10
741.45	243.84
741.78	243.39
742.11	243.36
742.44	243.13
742.77	243.06
743.10	242.87
743.43	242.64
743.75	242.05
744.08	242.53
744.41	242.31
744.74	242.14
745.07	241.93
745.40	241.87
745.73	241.99
746.06	241.87
746.39	241.78
746.71	241.54
747.04	241.30
747.37	241.23
747.70	241.19
748.03	241.07
748.36	241.05
748.68	240.96
749.01	240.73
749.34	240.50
749.67	240.43
750.00	240.38
750.33	240.62
750.65	240.60
750.98	239.88
751.31	239.82
751.64	239.72
751.97	239.79
752.29	239.64
752.62	239.26
752.95	239.02
753.28	238.86
753.60	238.73
753.93	238.74
754.26	238.67
754.59	238.41
754.91	238.20
755.24	238.06
755.57	237.94
755.90	237.86
756.22	237.77
756.55	237.52
756.88	237.35
757.20	236.95
757.53	236.57
757.86	236.48
758.19	236.42
758.51	236.35
758.84	236.07
759.17	235.92
759.49	235.92
759.82	236.17
760.15	236.17
760.47	236.08
760.80	235.89
761.13	235.88
761.45	235.77
761.78	235.75
762.11	235.64
762.43	235.54
762.76	235.55
763.08	235.55
763.41	235.53
763.74	235.38
764.06	235.25
764.39	235.30
764.71	235.18
765.04	235.00
765.37	234.83
765.69	234.73
766.02	234.67
766.34	234.52
766.67	234.23
767.00	234.14
767.32	234.43
767.65	234.62
767.97	234.47
768.30	234.47
768.62	234.35
768.95	234.30
769.27	234.24
769.60	234.20
769.92	234.03
770.25	233.89
770.57	233.85
770.90	233.76
771.22	233.65
771.55	233.60
771.87	233.60
772.20	233.59
772.52	233.97
772.85	234.45
773.17	234.43
773.50	234.35
773.82	234.27
774.15	233.92
774.47	233.56
774.80	233.48
775.12	233.41
775.45	233.40
775.77	233.37
776.09	233.37
776.42	233.20
776.74	233.29
777.07	233.23
777.39	233.08
777.72	233.01
778.04	233.04
778.36	232.95
778.69	232.88
779.01	232.88
779.33	232.37
779.66	231.80
779.98	231.71
780.31	231.68
780.63	231.88
780.95	231.92
781.28	231.87
781.60	231.76
781.92	231.72
782.25	231.66
782.57	231.55
782.89	231.45
783.22	231.44
783.54	231.25
783.86	231.25
784.19	231.25
784.51	231.42
784.83	231.25
785.16	231.20
785.48	231.18
785.80	231.07
786.12	231.07
786.45	231.06
786.77	231.03
787.09	230.93
787.42	230.69
787.74	230.60
788.06	230.60
788.38	230.52
788.71	230.41
789.03	230.40
789.35	230.33
789.67	230.22
789.99	230.26
790.32	230.21
790.64	230.24
790.96	230.58
791.28	230.34
791.61	230.31
791.93	230.32
792.25	230.23
792.57	230.63
792.89	230.57
793.21	230.56
793.54	230.47
793.86	230.40
794.18	230.34
794.50	230.20
794.82	230.10
795.14	230.14
795.47	230.17
795.79	230.16
796.11	230.14
796.43	230.17
796.75	230.03
797.07	230.05
797.39	229.96
797.71	229.61
798.04	229.67
798.36	229.65
798.68	229.63
799.00	229.69
799.32	229.37
799.64	229.40
799.96	229.38
800.28	229.49
800.60	229.44
800.92	229.46
801.24	229.51
801.56	229.60
801.89	229.57
802.21	229.62
802.53	229.56
802.85	229.69
803.17	229.88
803.49	229.86
803.81	229.82
804.13	229.88
804.45	229.76
804.77	229.81
805.09	229.83
805.41	229.70
805.73	229.61
806.05	229.42
806.37	229.39
806.69	229.28
807.01	229.21
807.33	229.30
807.65	229.13
807.97	229.35
808.28	229.26
808.60	229.29
808.92	229.24
809.24	229.50
809.56	229.32
809.88	229.08
810.20	229.02
810.52	229.08
810.84	228.94
811.16	228.97
811.48	228.88
811.80	229.07
812.12	229.15
812.43	229.24
812.75	229.27
813.07	229.21
813.39	229.22
813.71	229.10
814.03	229.08
814.35	229.07
814.67	228.80
814.98	228.74
815.30	228.71
815.62	228.60
815.94	228.27
816.26	228.50
816.58	228.46
816.89	228.55
817.21	228.48
817.53	228.52
817.85	228.55
