SpectraSuite Data File
++++++++++++++++++++++++++++++++++++
Date: Wed Sep 04 17:57:58 EDT 2013
User: lab3
Dark Spectrum Present: Yes
Reference Spectrum Present: No
Number of Sampled Component Spectra: 1
Spectrometers: USB2E7196
Integration Time (usec): 170000 (USB2E7196)
Spectra Averaged: 20 (USB2E7196)
Boxcar Smoothing: 10 (USB2E7196)
Correct for Electrical Dark: No (USB2E7196)
Strobe/Lamp Enabled: No (USB2E7196)
Correct for Detector Non-linearity: No (USB2E7196)
Correct for Stray Light: No (USB2E7196)
Number of Pixels in Processed Spectrum: 2048
>>>>>Begin Processed Spectral Data<<<<<
339.09	0.00
339.48	214.05
339.86	215.00
340.24	215.30
340.63	218.95
341.01	226.40
341.39	219.20
341.78	222.15
342.16	223.10
342.54	223.75
342.93	212.65
343.31	223.34
343.69	223.87
344.07	224.32
344.46	224.88
344.84	225.14
345.22	225.09
345.60	225.42
345.99	225.64
346.37	225.85
346.75	225.97
347.13	226.03
347.52	226.15
347.90	226.37
348.28	226.37
348.66	226.46
349.05	226.37
349.43	226.44
349.81	226.47
350.19	226.50
350.57	226.51
350.96	226.63
351.34	226.79
351.72	226.83
352.10	226.96
352.48	226.96
352.87	227.10
353.25	227.14
353.63	227.21
354.01	227.22
354.39	227.24
354.77	227.30
355.15	227.48
355.54	227.45
355.92	227.32
356.30	227.39
356.68	227.75
357.06	227.78
357.44	227.71
357.82	227.72
358.20	228.15
358.58	228.25
358.97	228.29
359.35	228.40
359.73	228.56
360.11	228.60
360.49	228.69
360.87	228.67
361.25	228.87
361.63	229.05
362.01	229.13
362.39	229.11
362.77	229.19
363.15	229.20
363.53	229.23
363.91	229.33
364.29	229.42
364.67	229.00
365.05	229.10
365.43	229.30
365.81	229.40
366.19	229.31
366.57	229.55
366.95	229.60
367.33	229.48
367.71	229.48
368.09	229.55
368.47	229.56
368.85	229.62
369.23	229.68
369.61	229.45
369.99	229.62
370.37	229.68
370.75	229.88
371.13	229.75
371.51	229.75
371.89	229.75
372.27	229.76
372.65	229.78
373.03	229.73
373.41	229.59
373.78	229.60
374.16	229.27
374.54	229.00
374.92	228.93
375.30	228.92
375.68	228.79
376.06	228.80
376.44	228.74
376.82	228.72
377.19	228.63
377.57	228.62
377.95	228.38
378.33	228.23
378.71	227.86
379.09	227.87
379.47	227.85
379.84	227.65
380.22	227.49
380.60	227.35
380.98	227.28
381.36	227.20
381.73	227.08
382.11	227.10
382.49	227.12
382.87	226.98
383.25	226.91
383.62	227.43
384.00	227.20
384.38	227.05
384.76	227.06
385.13	227.14
385.51	227.09
385.89	226.98
386.27	227.03
386.64	227.12
387.02	227.02
387.40	226.90
387.78	226.89
388.15	226.84
388.53	226.83
388.91	226.73
389.29	226.64
389.66	226.66
390.04	226.59
390.42	226.59
390.79	226.58
391.17	226.53
391.55	225.94
391.92	225.98
392.30	226.03
392.68	225.94
393.05	225.94
393.43	225.95
393.81	226.04
394.18	225.95
394.56	225.91
394.94	226.00
395.31	226.03
395.69	226.28
396.06	226.40
396.44	226.35
396.82	226.38
397.19	226.75
397.57	226.80
397.95	226.91
398.32	226.85
398.70	227.01
399.07	227.20
399.45	227.28
399.82	227.34
400.20	227.43
400.58	227.50
400.95	227.34
401.33	227.55
401.70	227.94
402.08	228.10
402.45	228.25
402.83	228.51
403.20	228.70
403.58	228.72
403.95	228.92
404.33	229.25
404.71	229.46
405.08	229.89
405.46	230.06
405.83	230.37
406.21	230.61
406.58	230.92
406.96	231.20
407.33	231.59
407.70	232.00
408.08	232.72
408.45	233.14
408.83	233.66
409.20	234.03
409.58	234.18
409.95	234.72
410.33	235.24
410.70	235.56
411.08	236.14
411.45	236.82
411.82	237.43
412.20	238.10
412.57	239.15
412.95	239.45
413.32	240.36
413.69	241.14
414.07	242.13
414.44	243.04
414.82	244.07
415.19	245.28
415.56	246.44
415.94	247.53
416.31	249.01
416.68	250.42
417.06	252.01
417.43	253.78
417.81	255.52
418.18	257.36
418.55	259.40
418.93	261.45
419.30	263.61
419.67	265.83
420.04	268.17
420.42	270.40
420.79	273.48
421.16	276.31
421.54	279.41
421.91	282.45
422.28	285.64
422.66	288.95
423.03	292.41
423.40	295.77
423.77	299.26
424.15	302.80
424.52	306.72
424.89	310.99
425.26	314.87
425.64	318.70
426.01	322.91
426.38	327.27
426.75	331.79
427.13	336.35
427.50	341.23
427.87	346.20
428.24	351.26
428.61	355.90
428.99	361.19
429.36	366.64
429.73	372.14
430.10	377.62
430.47	383.20
430.85	388.78
431.22	395.01
431.59	401.87
431.96	408.20
432.33	415.10
432.70	421.79
433.08	429.75
433.45	437.22
433.82	444.59
434.19	452.94
434.56	461.14
434.93	468.82
435.30	476.62
435.68	485.28
436.05	493.65
436.42	501.96
436.79	509.74
437.16	518.15
437.53	526.92
437.90	535.67
438.27	544.35
438.64	553.35
439.01	561.76
439.38	568.93
439.75	576.11
440.13	584.02
440.50	591.64
440.87	597.67
441.24	604.18
441.61	611.23
441.98	616.17
442.35	621.88
442.72	627.81
443.09	633.56
443.46	636.96
443.83	639.29
444.20	641.23
444.57	643.69
444.94	644.75
445.31	645.87
445.68	647.16
446.05	647.25
446.42	645.85
446.79	644.35
447.16	642.67
447.53	641.35
447.90	637.83
448.27	633.96
448.64	629.08
449.01	625.22
449.37	619.05
449.74	612.95
450.11	606.16
450.48	598.35
450.85	590.25
451.22	583.21
451.59	576.54
451.96	570.12
452.33	562.04
452.70	554.70
453.07	546.00
453.43	536.89
453.80	528.53
454.17	520.50
454.54	512.62
454.91	504.53
455.28	496.47
455.65	488.98
456.02	481.99
456.38	475.50
456.75	467.71
457.12	461.10
457.49	454.87
457.86	448.51
458.23	443.44
458.59	437.79
458.96	432.06
459.33	426.95
459.70	421.90
460.07	417.88
460.43	413.15
460.80	408.84
461.17	405.06
461.54	401.08
461.91	397.22
462.27	393.41
462.64	389.99
463.01	386.45
463.38	383.09
463.74	379.19
464.11	376.23
464.48	373.60
464.85	370.73
465.21	368.51
465.58	366.18
465.95	363.37
466.32	361.06
466.68	358.80
467.05	356.52
467.42	354.25
467.78	351.92
468.15	349.76
468.52	348.13
468.88	346.00
469.25	344.05
469.62	342.65
469.98	341.08
470.35	339.61
470.72	338.16
471.08	336.44
471.45	335.23
471.82	333.97
472.18	332.59
472.55	331.56
472.92	330.25
473.28	329.13
473.65	328.10
474.02	327.00
474.38	326.23
474.75	325.52
475.11	324.66
475.48	324.05
475.85	323.34
476.21	322.65
476.58	322.15
476.94	321.74
477.31	321.20
477.67	320.70
478.04	320.44
478.41	320.25
478.77	320.51
479.14	320.24
479.50	320.06
479.87	320.02
480.23	320.09
480.60	320.02
480.96	320.04
481.33	320.35
481.69	320.60
482.06	320.77
482.42	321.10
482.79	321.56
483.15	321.98
483.52	322.59
483.88	323.10
484.25	323.66
484.61	324.33
484.98	325.04
485.34	326.09
485.71	326.97
486.07	327.95
486.44	328.60
486.80	329.67
487.17	330.88
487.53	332.28
487.90	333.65
488.26	335.42
488.62	337.08
488.99	338.57
489.35	340.34
489.72	342.19
490.08	344.12
490.44	346.10
490.81	348.31
491.17	350.53
491.54	353.07
491.90	355.71
492.26	358.37
492.63	361.23
492.99	364.03
493.36	367.13
493.72	370.44
494.08	373.81
494.45	377.47
494.81	381.35
495.17	385.20
495.54	389.47
495.90	393.74
496.26	398.27
496.63	402.91
496.99	407.78
497.35	412.95
497.72	418.23
498.08	423.75
498.44	429.45
498.80	435.55
499.17	441.66
499.53	447.82
499.89	454.55
500.26	461.26
500.62	468.26
500.98	475.64
501.34	483.11
501.71	490.89
502.07	498.92
502.43	507.11
502.79	515.38
503.16	524.04
503.52	532.92
503.88	542.05
504.24	551.76
504.60	561.85
504.97	572.09
505.33	582.59
505.69	593.63
506.05	604.79
506.41	616.07
506.78	627.94
507.14	640.10
507.50	652.34
507.86	665.15
508.22	678.05
508.59	691.21
508.95	704.97
509.31	719.18
509.67	733.49
510.03	747.81
510.39	762.62
510.75	777.64
511.12	793.08
511.48	808.85
511.84	824.66
512.20	840.46
512.56	856.78
512.92	873.51
513.28	890.34
513.64	907.56
514.00	925.28
514.37	942.84
514.73	960.79
515.09	979.24
515.45	997.61
515.81	1016.27
516.17	1035.16
516.53	1053.82
516.89	1072.55
517.25	1091.73
517.61	1111.99
517.97	1132.45
518.33	1152.51
518.69	1172.56
519.05	1193.03
519.41	1213.67
519.77	1234.92
520.13	1255.73
520.49	1276.37
520.85	1298.83
521.21	1319.88
521.57	1341.00
521.93	1361.94
522.29	1383.41
522.65	1404.05
523.01	1425.07
523.37	1445.59
523.73	1466.73
524.09	1487.42
524.45	1508.13
524.81	1529.22
525.17	1549.85
525.53	1570.45
525.89	1591.42
526.25	1612.55
526.61	1633.04
526.97	1654.31
527.33	1675.66
527.68	1697.63
528.04	1719.17
528.40	1738.92
528.76	1760.16
529.12	1780.75
529.48	1801.40
529.84	1821.46
530.20	1842.58
530.56	1863.38
530.91	1884.55
531.27	1905.12
531.63	1925.72
531.99	1946.35
532.35	1966.24
532.71	1986.52
533.07	2007.46
533.42	2027.27
533.78	2047.20
534.14	2067.12
534.50	2086.01
534.86	2105.19
535.21	2122.70
535.57	2141.30
535.93	2159.09
536.29	2176.94
536.65	2195.09
537.00	2212.87
537.36	2230.59
537.72	2247.22
538.08	2264.28
538.44	2281.03
538.79	2297.36
539.15	2313.73
539.51	2329.90
539.87	2345.29
540.22	2359.28
540.58	2373.63
540.94	2387.40
541.29	2400.11
541.65	2412.88
542.01	2425.61
542.37	2436.33
542.72	2447.40
543.08	2457.94
543.44	2469.75
543.79	2479.97
544.15	2489.89
544.51	2500.39
544.87	2510.04
545.22	2518.93
545.58	2526.86
545.94	2534.03
546.29	2540.55
546.65	2546.98
547.01	2552.51
547.36	2558.11
547.72	2564.08
548.07	2567.99
548.43	2573.20
548.79	2577.90
549.14	2581.86
549.50	2585.75
549.86	2589.80
550.21	2593.62
550.57	2597.08
550.92	2598.26
551.28	2599.49
551.64	2601.90
551.99	2603.55
552.35	2605.17
552.70	2607.17
553.06	2608.97
553.41	2610.24
553.77	2611.96
554.13	2613.70
554.48	2615.19
554.84	2616.74
555.19	2617.78
555.55	2619.20
555.90	2618.32
556.26	2617.62
556.61	2616.11
556.97	2614.09
557.32	2613.25
557.68	2611.99
558.03	2610.67
558.39	2609.53
558.74	2608.75
559.10	2605.55
559.45	2601.92
559.81	2597.46
560.16	2592.25
560.52	2587.39
560.87	2583.23
561.23	2577.62
561.58	2571.66
561.94	2565.07
562.29	2557.37
562.64	2550.39
563.00	2542.33
563.35	2535.65
563.71	2528.95
564.06	2522.80
564.42	2516.28
564.77	2509.56
565.12	2502.11
565.48	2494.43
565.83	2486.40
566.19	2478.15
566.54	2470.24
566.89	2462.20
567.25	2454.56
567.60	2447.80
567.96	2440.27
568.31	2432.29
568.66	2424.04
569.02	2415.40
569.37	2407.05
569.72	2399.80
570.08	2390.55
570.43	2381.14
570.78	2372.31
571.14	2362.92
571.49	2352.79
571.84	2343.01
572.20	2332.11
572.55	2322.03
572.90	2311.15
573.26	2301.00
573.61	2290.10
573.96	2278.96
574.31	2267.02
574.67	2255.24
575.02	2242.17
575.37	2229.30
575.72	2215.86
576.08	2203.43
576.43	2190.53
576.78	2177.39
577.13	2163.45
577.49	2150.55
577.84	2138.60
578.19	2126.64
578.54	2113.89
578.90	2101.85
579.25	2089.59
579.60	2077.02
579.95	2064.04
580.30	2050.69
580.66	2037.27
581.01	2023.69
581.36	2009.34
581.71	1996.63
582.06	1983.58
582.42	1971.16
582.77	1958.76
583.12	1947.03
583.47	1934.62
583.82	1922.33
584.17	1910.57
584.53	1899.04
584.88	1886.22
585.23	1872.90
585.58	1858.28
585.93	1845.30
586.28	1832.01
586.63	1818.16
586.98	1803.84
587.34	1790.56
587.69	1777.53
588.04	1764.57
588.39	1752.32
588.74	1740.49
589.09	1728.38
589.44	1715.48
589.79	1703.39
590.14	1691.12
590.49	1678.64
590.84	1666.64
591.19	1654.87
591.54	1642.26
591.89	1629.90
592.25	1619.47
592.60	1607.96
592.95	1596.66
593.30	1584.27
593.65	1572.25
594.00	1559.86
594.35	1549.95
594.70	1538.07
595.05	1526.62
595.40	1514.52
595.75	1502.49
596.10	1491.24
596.45	1479.71
596.80	1468.98
597.15	1457.31
597.50	1445.57
597.85	1434.25
598.19	1422.68
598.54	1411.02
598.89	1399.88
599.24	1389.13
599.59	1377.58
599.94	1366.83
600.29	1356.44
600.64	1346.30
600.99	1335.63
601.34	1326.05
601.69	1314.79
602.04	1305.02
602.39	1295.17
602.74	1286.26
603.08	1277.00
603.43	1267.69
603.78	1257.70
604.13	1247.93
604.48	1238.25
604.83	1228.18
605.18	1218.47
605.53	1208.90
605.87	1199.67
606.22	1191.08
606.57	1181.90
606.92	1172.29
607.27	1163.25
607.62	1154.37
607.96	1145.65
608.31	1137.51
608.66	1129.11
609.01	1120.59
609.36	1111.88
609.70	1103.19
610.05	1094.17
610.40	1085.58
610.75	1076.68
611.10	1068.43
611.44	1059.91
611.79	1051.60
612.14	1043.98
612.49	1035.92
612.83	1028.21
613.18	1020.35
613.53	1012.45
613.88	1004.39
614.22	996.78
614.57	988.71
614.92	980.76
615.27	973.21
615.61	965.59
615.96	957.76
616.31	950.21
616.65	943.19
617.00	935.74
617.35	928.38
617.70	921.33
618.04	914.29
618.39	907.22
618.74	901.00
619.08	894.09
619.43	886.96
619.78	879.90
620.12	872.66
620.47	865.69
620.82	858.48
621.16	851.67
621.51	845.38
621.85	839.20
622.20	832.70
622.55	826.04
622.89	819.47
623.24	813.14
623.59	806.74
623.93	800.32
624.28	794.25
624.62	788.63
624.97	782.58
625.32	776.62
625.66	770.60
626.01	764.11
626.35	758.71
626.70	753.23
627.04	748.01
627.39	742.54
627.73	737.20
628.08	731.93
628.43	726.51
628.77	720.93
629.12	715.57
629.46	710.72
629.81	706.06
630.15	701.06
630.50	696.35
630.84	691.57
631.19	686.72
631.53	682.24
631.88	677.06
632.22	672.19
632.57	667.83
632.91	663.26
633.26	658.94
633.60	654.04
633.95	649.23
634.29	644.50
634.64	640.15
634.98	635.40
635.32	631.04
635.67	626.89
636.01	622.60
636.36	618.28
636.70	614.16
637.05	609.91
637.39	605.83
637.73	601.42
638.08	597.24
638.42	592.93
638.77	588.22
639.11	583.92
639.45	579.57
639.80	575.00
640.14	570.79
640.49	566.60
640.83	562.74
641.17	559.15
641.52	555.31
641.86	551.62
642.20	548.42
642.55	544.80
642.89	541.21
643.23	537.59
643.58	534.44
643.92	530.63
644.26	527.26
644.61	524.05
644.95	520.83
645.29	517.38
645.64	514.28
645.98	511.41
646.32	508.50
646.66	505.48
647.01	502.62
647.35	499.93
647.69	497.07
648.04	494.37
648.38	491.53
648.72	488.61
649.06	485.55
649.41	482.48
649.75	479.35
650.09	476.45
650.43	473.64
650.78	470.55
651.12	467.85
651.46	464.85
651.80	461.98
652.14	459.29
652.49	456.94
652.83	454.30
653.17	451.77
653.51	449.12
653.85	446.74
654.20	444.23
654.54	441.54
654.88	438.95
655.22	436.61
655.56	434.08
655.90	431.71
656.25	429.50
656.59	427.26
656.93	425.20
657.27	423.13
657.61	420.86
657.95	418.63
658.29	416.37
658.64	414.36
658.98	412.17
659.32	409.93
659.66	407.71
660.00	405.63
660.34	403.46
660.68	401.35
661.02	399.29
661.36	397.29
661.70	395.41
662.05	393.51
662.39	391.47
662.73	389.80
663.07	388.22
663.41	386.34
663.75	384.40
664.09	382.55
664.43	380.50
664.77	378.77
665.11	377.08
665.45	375.47
665.79	373.80
666.13	372.02
666.47	370.41
666.81	368.71
667.15	367.03
667.49	365.58
667.83	364.23
668.17	362.67
668.51	361.11
668.85	359.75
669.19	358.58
669.53	357.04
669.87	355.43
670.21	353.83
670.55	352.45
670.89	351.30
671.23	349.93
671.57	348.61
671.91	347.23
672.25	345.94
672.58	344.66
672.92	343.19
673.26	342.04
673.60	340.72
673.94	339.53
674.28	338.44
674.62	337.24
674.96	335.88
675.30	334.74
675.64	333.56
675.97	332.26
676.31	330.85
676.65	329.59
676.99	328.62
677.33	327.44
677.67	326.31
678.01	324.97
678.34	323.82
678.68	322.91
679.02	321.84
679.36	320.87
679.70	319.74
680.04	318.84
680.37	317.84
680.71	316.87
681.05	316.05
681.39	315.08
681.73	314.14
682.06	313.19
682.40	312.29
682.74	311.48
683.08	310.72
683.42	309.80
683.75	309.13
684.09	308.24
684.43	307.45
684.77	306.68
685.10	305.88
685.44	305.19
685.78	304.39
686.12	303.62
686.45	302.67
686.79	301.98
687.13	301.31
687.46	300.50
687.80	299.95
688.14	299.04
688.48	298.22
688.81	297.39
689.15	296.88
689.49	296.10
689.82	295.38
690.16	294.56
690.50	293.87
690.83	293.06
691.17	292.20
691.51	291.55
691.84	290.96
692.18	290.34
692.52	289.67
692.85	288.96
693.19	288.53
693.52	287.97
693.86	287.21
694.20	286.51
694.53	285.92
694.87	285.19
695.21	284.55
695.54	283.97
695.88	283.37
696.21	282.58
696.55	282.03
696.88	281.43
697.22	280.80
697.56	280.34
697.89	279.78
698.23	279.30
698.56	278.78
698.90	278.29
699.23	277.78
699.57	277.26
699.90	276.77
700.24	276.08
700.58	275.58
700.91	275.24
701.25	275.09
701.58	275.01
701.92	274.72
702.25	274.39
702.59	273.96
702.92	273.54
703.26	273.24
703.59	272.82
703.93	272.69
704.26	272.32
704.60	271.92
704.93	271.53
705.26	271.11
705.60	270.76
705.93	270.14
706.27	269.82
706.60	269.50
706.94	269.41
707.27	268.98
707.61	268.71
707.94	268.32
708.27	267.58
708.61	266.80
708.94	266.38
709.28	265.96
709.61	265.60
709.94	265.27
710.28	264.84
710.61	264.45
710.95	263.78
711.28	263.68
711.61	263.24
711.95	263.05
712.28	262.61
712.61	262.19
712.95	262.12
713.28	261.93
713.61	261.55
713.95	260.93
714.28	260.68
714.61	260.22
714.95	259.76
715.28	259.44
715.61	259.12
715.95	258.76
716.28	258.39
716.61	258.12
716.95	257.77
717.28	257.47
717.61	257.22
717.94	256.93
718.28	256.38
718.61	256.14
718.94	255.67
719.27	255.47
719.61	255.24
719.94	254.87
720.27	254.37
720.60	254.12
720.94	253.84
721.27	253.59
721.60	253.42
721.93	253.23
722.27	253.21
722.60	253.01
722.93	252.75
723.26	252.56
723.59	252.31
723.93	252.11
724.26	251.91
724.59	251.67
724.92	251.46
725.25	251.35
725.59	251.08
725.92	250.95
726.25	250.73
726.58	250.55
726.91	250.34
727.24	250.24
727.57	249.94
727.91	249.66
728.24	249.57
728.57	249.32
728.90	249.25
729.23	248.78
729.56	248.86
729.89	248.60
730.22	248.34
730.55	248.09
730.89	247.89
731.22	247.60
731.55	247.40
731.88	247.25
732.21	246.95
732.54	246.83
732.87	246.66
733.20	246.44
733.53	246.25
733.86	246.07
734.19	245.76
734.52	245.71
734.85	245.92
735.18	245.63
735.51	245.61
735.84	245.34
736.17	245.35
736.50	244.91
736.83	245.35
737.16	245.24
737.49	245.11
737.82	244.94
738.15	244.91
738.48	244.72
738.81	244.61
739.14	244.41
739.47	244.18
739.80	244.03
740.13	244.00
740.46	243.80
740.79	243.60
741.12	243.51
741.45	243.26
741.78	242.86
742.11	242.83
742.44	242.51
742.77	242.51
743.10	242.28
743.43	242.14
743.75	241.47
744.08	241.95
744.41	241.80
744.74	241.69
745.07	241.51
745.40	241.48
745.73	241.46
746.06	241.39
746.39	241.35
746.71	241.15
747.04	240.90
747.37	240.77
747.70	240.70
748.03	240.56
748.36	240.47
748.68	240.34
749.01	240.04
749.34	240.05
749.67	239.85
750.00	239.91
750.33	240.19
750.65	240.16
750.98	239.49
751.31	239.38
751.64	239.22
751.97	239.29
752.29	239.18
752.62	238.85
752.95	238.80
753.28	238.65
753.60	238.52
753.93	238.63
754.26	238.58
754.59	238.35
754.91	238.27
755.24	238.20
755.57	238.08
755.90	238.02
756.22	237.80
756.55	237.65
756.88	237.40
757.20	236.95
757.53	236.65
757.86	236.52
758.19	236.51
758.51	236.49
758.84	236.25
759.17	236.01
759.49	235.96
759.82	236.10
760.15	236.09
760.47	236.08
760.80	235.87
761.13	235.85
761.45	235.74
761.78	235.65
762.11	235.54
762.43	235.40
762.76	235.32
763.08	235.38
763.41	235.41
763.74	235.31
764.06	235.22
764.39	235.30
764.71	235.19
765.04	235.01
765.37	234.85
765.69	234.74
766.02	234.78
766.34	234.66
766.67	234.36
767.00	234.28
767.32	234.44
767.65	234.65
767.97	234.50
768.30	234.50
768.62	234.45
768.95	234.35
769.27	234.29
769.60	234.29
769.92	234.09
770.25	233.94
770.57	233.82
770.90	233.76
771.22	233.57
771.55	233.50
771.87	233.47
772.20	233.41
772.52	233.75
772.85	234.27
773.17	234.25
773.50	234.16
773.82	234.12
774.15	233.85
774.47	233.49
774.80	233.34
775.12	233.29
775.45	233.25
775.77	233.27
776.09	233.22
776.42	233.19
776.74	233.35
777.07	233.26
777.39	233.27
777.72	233.22
778.04	233.31
778.36	233.20
778.69	233.23
779.01	233.19
779.33	232.70
779.66	232.12
779.98	232.03
780.31	232.04
780.63	232.15
780.95	232.16
781.28	232.09
781.60	232.03
781.92	232.05
782.25	231.97
782.57	231.94
782.89	231.89
783.22	231.74
783.54	231.49
783.86	231.49
784.19	231.41
784.51	231.48
784.83	231.30
785.16	231.26
785.48	231.15
785.80	231.13
786.12	231.10
786.45	231.01
786.77	231.02
787.09	230.95
787.42	230.79
787.74	230.78
788.06	230.76
788.38	230.73
788.71	230.57
789.03	230.51
789.35	230.48
789.67	230.34
789.99	230.40
790.32	230.36
790.64	230.29
790.96	230.70
791.28	230.51
791.61	230.42
791.93	230.47
792.25	230.41
792.57	230.73
792.89	230.65
793.21	230.69
793.54	230.58
793.86	230.49
794.18	230.42
794.50	230.23
794.82	230.20
795.14	230.27
795.47	230.41
795.79	230.30
796.11	230.18
796.43	230.18
796.75	230.12
797.07	230.14
797.39	230.17
797.71	229.72
798.04	229.72
798.36	229.82
798.68	229.80
799.00	229.81
799.32	229.56
799.64	229.67
799.96	229.55
800.28	229.66
800.60	229.58
800.92	229.63
801.24	229.67
801.56	229.66
801.89	229.62
802.21	229.54
802.53	229.57
802.85	229.66
803.17	229.91
803.49	229.72
803.81	229.60
804.13	229.50
804.45	229.47
804.77	229.47
805.09	229.34
805.41	229.28
805.73	229.14
806.05	228.95
806.37	228.91
806.69	228.95
807.01	228.88
807.33	228.94
807.65	228.73
807.97	228.86
808.28	228.81
808.60	228.85
808.92	228.86
809.24	229.09
809.56	229.00
809.88	228.80
810.20	228.96
810.52	229.08
810.84	228.96
811.16	228.88
811.48	228.88
811.80	229.13
812.12	229.10
812.43	229.22
812.75	229.24
813.07	229.17
813.39	229.07
813.71	228.97
814.03	228.94
814.35	228.96
814.67	228.84
814.98	228.82
815.30	228.68
815.62	228.58
815.94	228.28
816.26	228.53
816.58	228.48
816.89	228.45
817.21	228.40
817.53	228.52
817.85	228.60
