SpectraSuite Data File
++++++++++++++++++++++++++++++++++++
Date: Wed Sep 04 17:52:59 EDT 2013
User: lab3
Dark Spectrum Present: Yes
Reference Spectrum Present: No
Number of Sampled Component Spectra: 1
Spectrometers: USB2E7196
Integration Time (usec): 170000 (USB2E7196)
Spectra Averaged: 20 (USB2E7196)
Boxcar Smoothing: 10 (USB2E7196)
Correct for Electrical Dark: No (USB2E7196)
Strobe/Lamp Enabled: No (USB2E7196)
Correct for Detector Non-linearity: No (USB2E7196)
Correct for Stray Light: No (USB2E7196)
Number of Pixels in Processed Spectrum: 2048
>>>>>Begin Processed Spectral Data<<<<<
339.09	0.00
339.48	214.20
339.86	214.45
340.24	216.55
340.63	217.05
341.01	226.60
341.39	219.10
341.78	221.55
342.16	223.35
342.54	223.05
342.93	212.17
343.31	222.93
343.69	223.48
344.07	223.93
344.46	224.37
344.84	224.82
345.22	224.76
345.60	225.09
345.99	225.31
346.37	225.40
346.75	225.47
347.13	225.55
347.52	225.65
347.90	225.83
348.28	225.85
348.66	225.97
349.05	225.83
349.43	225.95
349.81	226.04
350.19	226.10
350.57	226.18
350.96	226.26
351.34	226.34
351.72	226.39
352.10	226.58
352.48	226.62
352.87	226.59
353.25	226.69
353.63	226.68
354.01	226.67
354.39	226.81
354.77	226.99
355.15	227.21
355.54	227.24
355.92	227.22
356.30	227.30
356.68	227.68
357.06	227.80
357.44	227.77
357.82	227.84
358.20	228.34
358.58	228.30
358.97	228.43
359.35	228.54
359.73	228.61
360.11	228.60
360.49	228.65
360.87	228.77
361.25	228.84
361.63	229.08
362.01	229.22
362.39	229.24
362.77	229.28
363.15	229.23
363.53	229.30
363.91	229.34
364.29	229.35
364.67	228.94
365.05	228.94
365.43	228.99
365.81	229.02
366.19	228.84
366.57	229.08
366.95	229.08
367.33	228.98
367.71	229.08
368.09	229.16
368.47	229.17
368.85	229.15
369.23	229.23
369.61	229.05
369.99	229.20
370.37	229.23
370.75	229.38
371.13	229.35
371.51	229.29
371.89	229.33
372.27	229.34
372.65	229.33
373.03	229.32
373.41	229.31
373.78	229.28
374.16	228.94
374.54	228.73
374.92	228.63
375.30	228.63
375.68	228.49
376.06	228.41
376.44	228.33
376.82	228.22
377.19	228.13
377.57	228.08
377.95	227.83
378.33	227.69
378.71	227.35
379.09	227.33
379.47	227.34
379.84	227.20
380.22	227.10
380.60	226.96
380.98	226.85
381.36	226.73
381.73	226.56
382.11	226.61
382.49	226.64
382.87	226.53
383.25	226.35
383.62	226.78
384.00	226.71
384.38	226.61
384.76	226.68
385.13	226.83
385.51	226.73
385.89	226.55
386.27	226.51
386.64	226.54
387.02	226.43
387.40	226.29
387.78	226.26
388.15	226.20
388.53	226.18
388.91	226.17
389.29	226.20
389.66	226.25
390.04	226.20
390.42	226.20
390.79	226.15
391.17	226.22
391.55	225.67
391.92	225.62
392.30	225.72
392.68	225.68
393.05	225.62
393.43	225.63
393.81	225.70
394.18	225.67
394.56	225.70
394.94	225.83
395.31	225.87
395.69	226.03
396.06	226.16
396.44	226.20
396.82	226.19
397.19	226.49
397.57	226.48
397.95	226.65
398.32	226.59
398.70	226.75
399.07	226.91
399.45	227.01
399.82	227.14
400.20	227.19
400.58	227.23
400.95	227.10
401.33	227.37
401.70	227.92
402.08	228.08
402.45	228.18
402.83	228.42
403.20	228.59
403.58	228.67
403.95	228.93
404.33	229.18
404.71	229.42
405.08	229.90
405.46	230.19
405.83	230.45
406.21	230.75
406.58	231.09
406.96	231.32
407.33	231.64
407.70	232.05
408.08	232.79
408.45	233.21
408.83	233.80
409.20	234.26
409.58	234.36
409.95	234.97
410.33	235.54
410.70	235.90
411.08	236.53
411.45	237.24
411.82	237.75
412.20	238.58
412.57	239.56
412.95	239.87
413.32	240.66
413.69	241.47
414.07	242.31
414.44	243.30
414.82	244.37
415.19	245.61
415.56	246.74
415.94	247.77
416.31	249.27
416.68	250.60
417.06	252.19
417.43	253.86
417.81	255.55
418.18	257.46
418.55	259.41
418.93	261.44
419.30	263.51
419.67	265.70
420.04	267.92
420.42	270.24
420.79	273.27
421.16	276.12
421.54	279.12
421.91	282.13
422.28	285.21
422.66	288.44
423.03	291.84
423.40	295.21
423.77	298.71
424.15	302.34
424.52	306.13
424.89	310.24
425.26	314.20
425.64	317.91
426.01	321.98
426.38	326.41
426.75	331.00
427.13	335.62
427.50	340.38
427.87	345.25
428.24	350.12
428.61	354.70
428.99	360.06
429.36	365.52
429.73	371.01
430.10	376.44
430.47	382.13
430.85	387.77
431.22	393.91
431.59	400.72
431.96	406.90
432.33	413.89
432.70	420.50
433.08	428.42
433.45	436.00
433.82	443.29
434.19	451.46
434.56	459.36
434.93	466.93
435.30	474.74
435.68	483.26
436.05	491.75
436.42	500.06
436.79	507.69
437.16	516.09
437.53	524.87
437.90	533.70
438.27	542.24
438.64	551.22
439.01	559.61
439.38	566.76
439.75	573.94
440.13	581.86
440.50	589.43
440.87	595.34
441.24	601.75
441.61	608.58
441.98	613.57
442.35	619.38
442.72	625.40
443.09	631.21
443.46	634.57
443.83	636.85
444.20	638.65
444.57	641.31
444.94	642.31
445.31	643.39
445.68	644.73
446.05	644.98
446.42	643.57
446.79	642.12
447.16	640.36
447.53	639.07
447.90	635.55
448.27	631.85
448.64	627.05
449.01	623.15
449.37	617.10
449.74	611.15
450.11	604.40
450.48	596.62
450.85	588.55
451.22	581.81
451.59	575.25
451.96	569.12
452.33	561.03
452.70	553.74
453.07	545.05
453.43	535.87
453.80	527.41
454.17	519.39
454.54	511.59
454.91	503.53
455.28	495.44
455.65	487.90
456.02	481.09
456.38	474.74
456.75	467.05
457.12	460.71
457.49	454.40
457.86	448.05
458.23	442.88
458.59	437.24
458.96	431.52
459.33	426.40
459.70	421.22
460.07	417.05
460.43	412.32
460.80	408.15
461.17	404.43
461.54	400.38
461.91	396.54
462.27	392.69
462.64	389.46
463.01	386.00
463.38	382.70
463.74	378.69
464.11	375.70
464.48	373.07
464.85	370.20
465.21	368.14
465.58	365.81
465.95	363.05
466.32	360.82
466.68	358.57
467.05	356.37
467.42	354.17
467.78	351.87
468.15	349.74
468.52	348.14
468.88	345.94
469.25	344.07
469.62	342.65
469.98	341.10
470.35	339.53
470.72	338.05
471.08	336.34
471.45	335.10
471.82	333.77
472.18	332.42
472.55	331.42
472.92	330.02
473.28	328.93
473.65	327.83
474.02	326.74
474.38	325.90
474.75	325.14
475.11	324.27
475.48	323.80
475.85	323.17
476.21	322.55
476.58	322.05
476.94	321.69
477.31	321.25
477.67	320.84
478.04	320.53
478.41	320.39
478.77	320.67
479.14	320.37
479.50	320.42
479.87	320.35
480.23	320.35
480.60	320.32
480.96	320.30
481.33	320.68
481.69	320.93
482.06	321.10
482.42	321.37
482.79	321.75
483.15	322.03
483.52	322.63
483.88	323.06
484.25	323.54
484.61	324.27
484.98	324.93
485.34	325.87
485.71	326.83
486.07	327.73
486.44	328.31
486.80	329.40
487.17	330.42
487.53	331.90
487.90	333.27
488.26	334.91
488.62	336.62
488.99	338.10
489.35	339.82
489.72	341.78
490.08	343.72
490.44	345.67
490.81	347.95
491.17	350.10
491.54	352.70
491.90	355.35
492.26	358.06
492.63	360.79
492.99	363.59
493.36	366.66
493.72	369.96
494.08	373.42
494.45	377.11
494.81	381.02
495.17	384.82
495.54	389.06
495.90	393.24
496.26	397.72
496.63	402.36
496.99	407.24
497.35	412.17
497.72	417.50
498.08	423.02
498.44	428.63
498.80	434.69
499.17	440.58
499.53	446.81
499.89	453.36
500.26	460.25
500.62	467.14
500.98	474.51
501.34	481.83
501.71	489.49
502.07	497.33
502.43	505.37
502.79	513.74
503.16	522.33
503.52	531.36
503.88	540.61
504.24	550.29
504.60	560.27
504.97	570.57
505.33	580.90
505.69	591.98
506.05	603.04
506.41	614.11
506.78	625.83
507.14	637.93
507.50	650.13
507.86	662.63
508.22	675.81
508.59	688.73
508.95	702.38
509.31	716.53
509.67	730.75
510.03	745.13
510.39	759.73
510.75	774.65
511.12	789.85
511.48	805.59
511.84	821.28
512.20	837.04
512.56	853.30
512.92	870.33
513.28	887.00
513.64	904.35
514.00	922.05
514.37	939.60
514.73	957.58
515.09	975.90
515.45	994.19
515.81	1012.51
516.17	1031.38
516.53	1050.04
516.89	1068.55
517.25	1087.83
517.61	1107.91
517.97	1128.14
518.33	1148.31
518.69	1168.35
519.05	1188.69
519.41	1209.38
519.77	1230.42
520.13	1251.00
520.49	1271.37
520.85	1293.55
521.21	1314.38
521.57	1335.53
521.93	1356.28
522.29	1377.37
522.65	1397.72
523.01	1418.79
523.37	1439.21
523.73	1460.25
524.09	1480.92
524.45	1501.56
524.81	1522.36
525.17	1542.86
525.53	1563.28
525.89	1584.14
526.25	1605.11
526.61	1625.04
526.97	1645.98
527.33	1667.16
527.68	1688.99
528.04	1710.06
528.40	1729.68
528.76	1750.78
529.12	1771.26
529.48	1792.12
529.84	1812.02
530.20	1833.21
530.56	1853.79
530.91	1874.69
531.27	1894.58
531.63	1914.84
531.99	1935.20
532.35	1954.80
532.71	1974.87
533.07	1995.54
533.42	2015.39
533.78	2034.97
534.14	2054.94
534.50	2073.70
534.86	2092.63
535.21	2110.11
535.57	2128.72
535.93	2146.43
536.29	2163.71
536.65	2181.57
537.00	2199.11
537.36	2216.73
537.72	2233.04
538.08	2249.98
538.44	2266.61
538.79	2283.44
539.15	2300.02
539.51	2315.95
539.87	2331.40
540.22	2345.10
540.58	2359.18
540.94	2372.44
541.29	2385.20
541.65	2397.80
542.01	2410.26
542.37	2420.69
542.72	2431.42
543.08	2441.83
543.44	2453.37
543.79	2463.19
544.15	2472.99
544.51	2482.54
544.87	2492.20
545.22	2501.02
545.58	2508.87
545.94	2515.84
546.29	2522.05
546.65	2528.27
547.01	2534.03
547.36	2539.45
547.72	2545.35
548.07	2549.30
548.43	2554.27
548.79	2558.95
549.14	2562.85
549.50	2566.83
549.86	2570.80
550.21	2574.55
550.57	2577.85
550.92	2579.06
551.28	2580.58
551.64	2582.87
551.99	2584.95
552.35	2586.43
552.70	2588.51
553.06	2590.23
553.41	2591.67
553.77	2593.33
554.13	2594.50
554.48	2595.79
554.84	2597.14
555.19	2597.99
555.55	2599.56
555.90	2598.78
556.26	2597.74
556.61	2596.22
556.97	2593.88
557.32	2593.26
557.68	2592.40
558.03	2590.90
558.39	2589.63
558.74	2588.77
559.10	2585.27
559.45	2581.55
559.81	2576.78
560.16	2571.61
560.52	2566.53
560.87	2562.17
561.23	2556.62
561.58	2550.92
561.94	2544.03
562.29	2536.47
562.64	2529.62
563.00	2521.33
563.35	2514.78
563.71	2508.12
564.06	2501.61
564.42	2495.04
564.77	2487.83
565.12	2480.06
565.48	2472.05
565.83	2464.14
566.19	2456.25
566.54	2448.66
566.89	2440.84
567.25	2433.22
567.60	2426.02
567.96	2418.30
568.31	2410.28
568.66	2401.58
569.02	2392.77
569.37	2384.75
569.72	2377.51
570.08	2368.34
570.43	2358.90
570.78	2349.99
571.14	2340.71
571.49	2330.77
571.84	2321.33
572.20	2311.00
572.55	2300.72
572.90	2290.08
573.26	2279.77
573.61	2268.67
573.96	2257.33
574.31	2245.12
574.67	2233.25
575.02	2220.33
575.37	2207.59
575.72	2194.17
576.08	2182.30
576.43	2169.83
576.78	2156.73
577.13	2142.92
577.49	2130.08
577.84	2118.48
578.19	2106.19
578.54	2093.48
578.90	2081.40
579.25	2068.94
579.60	2056.10
579.95	2043.23
580.30	2030.41
580.66	2017.09
581.01	2003.76
581.36	1990.10
581.71	1977.80
582.06	1965.11
582.42	1952.67
582.77	1940.09
583.12	1928.27
583.47	1916.19
583.82	1904.17
584.17	1892.22
584.53	1880.45
584.88	1867.73
585.23	1854.38
585.58	1840.42
585.93	1827.06
586.28	1813.93
586.63	1800.28
586.98	1786.08
587.34	1772.92
587.69	1759.50
588.04	1747.05
588.39	1734.89
588.74	1722.86
589.09	1710.80
589.44	1698.05
589.79	1686.10
590.14	1674.17
590.49	1661.90
590.84	1649.53
591.19	1637.54
591.54	1625.25
591.89	1613.15
592.25	1603.13
592.60	1591.81
592.95	1580.41
593.30	1569.00
593.65	1557.13
594.00	1545.08
594.35	1535.47
594.70	1523.83
595.05	1512.65
595.40	1500.58
595.75	1488.52
596.10	1477.17
596.45	1465.55
596.80	1454.93
597.15	1443.82
597.50	1432.29
597.85	1421.28
598.19	1410.00
598.54	1398.27
598.89	1387.12
599.24	1376.58
599.59	1364.95
599.94	1354.11
600.29	1343.62
600.64	1333.41
600.99	1322.73
601.34	1313.09
601.69	1302.02
602.04	1292.22
602.39	1282.47
602.74	1273.29
603.08	1264.06
603.43	1254.91
603.78	1245.32
604.13	1235.81
604.48	1226.07
604.83	1216.44
605.18	1206.65
605.53	1197.12
605.87	1188.02
606.22	1179.63
606.57	1170.40
606.92	1160.96
607.27	1152.34
607.62	1143.79
607.96	1135.04
608.31	1127.23
608.66	1118.84
609.01	1110.36
609.36	1101.92
609.70	1093.50
610.05	1084.91
610.40	1076.51
610.75	1067.80
611.10	1059.62
611.44	1050.76
611.79	1042.61
612.14	1034.71
612.49	1026.81
612.83	1019.34
613.18	1011.66
613.53	1003.88
613.88	995.91
614.22	988.18
614.57	980.18
614.92	972.20
615.27	964.76
615.61	956.93
615.96	949.39
616.31	942.05
616.65	935.02
617.00	927.65
617.35	920.35
617.70	913.29
618.04	906.31
618.39	899.23
618.74	893.10
619.08	886.18
619.43	879.27
619.78	872.37
620.12	865.08
620.47	858.28
620.82	851.19
621.16	844.50
621.51	838.20
621.85	831.91
622.20	825.50
622.55	818.95
622.89	812.77
623.24	806.53
623.59	800.21
623.93	793.88
624.28	787.96
624.62	782.37
624.97	776.64
625.32	770.82
625.66	764.98
626.01	758.78
626.35	753.21
626.70	747.87
627.04	742.56
627.39	737.18
627.73	731.87
628.08	726.67
628.43	721.35
628.77	715.92
629.12	710.60
629.46	705.70
629.81	700.79
630.15	695.98
630.50	691.11
630.84	686.34
631.19	681.55
631.53	676.89
631.88	671.70
632.22	666.83
632.57	662.46
632.91	657.87
633.26	653.59
633.60	648.96
633.95	644.28
634.29	639.55
634.64	635.14
634.98	630.53
635.32	626.29
635.67	622.34
636.01	618.21
636.36	613.91
636.70	610.00
637.05	605.96
637.39	601.83
637.73	597.60
638.08	593.51
638.42	589.46
638.77	584.99
639.11	580.74
639.45	576.31
639.80	571.84
640.14	567.76
640.49	563.75
640.83	560.14
641.17	556.52
641.52	552.97
641.86	549.55
642.20	546.37
642.55	542.73
642.89	539.09
643.23	535.58
643.58	532.57
643.92	528.73
644.26	525.26
644.61	521.98
644.95	518.77
645.29	515.45
645.64	512.24
645.98	509.27
646.32	506.43
646.66	503.54
647.01	500.61
647.35	497.91
647.69	495.00
648.04	492.12
648.38	489.31
648.72	486.42
649.06	483.35
649.41	480.24
649.75	477.21
650.09	474.31
650.43	471.50
650.78	468.39
651.12	465.65
651.46	462.90
651.80	460.18
652.14	457.53
652.49	455.06
652.83	452.58
653.17	449.95
653.51	447.22
653.85	444.91
654.20	442.34
654.54	439.75
654.88	437.26
655.22	435.06
655.56	432.63
655.90	430.22
656.25	428.00
656.59	425.84
656.93	423.77
657.27	421.74
657.61	419.33
657.95	417.29
658.29	415.15
658.64	413.19
658.98	410.95
659.32	408.76
659.66	406.45
660.00	404.21
660.34	402.16
660.68	400.18
661.02	398.25
661.36	396.33
661.70	394.27
662.05	392.25
662.39	390.18
662.73	388.42
663.07	386.87
663.41	385.02
663.75	382.95
664.09	381.01
664.43	378.89
664.77	377.28
665.11	375.44
665.45	373.76
665.79	372.04
666.13	370.37
666.47	368.71
666.81	367.18
667.15	365.55
667.49	364.15
667.83	362.82
668.17	361.15
668.51	359.76
668.85	358.49
669.19	357.28
669.53	355.73
669.87	354.12
670.21	352.55
670.55	351.21
670.89	350.33
671.23	348.99
671.57	347.70
671.91	346.31
672.25	345.05
672.58	343.89
672.92	342.45
673.26	341.28
673.60	340.13
673.94	338.92
674.28	337.88
674.62	336.74
674.96	335.46
675.30	334.40
675.64	333.15
675.97	331.86
676.31	330.50
676.65	329.37
676.99	328.40
677.33	327.21
677.67	326.14
678.01	324.76
678.34	323.73
678.68	322.87
679.02	321.85
679.36	320.82
679.70	319.78
680.04	318.86
680.37	317.87
680.71	316.80
681.05	315.88
681.39	314.87
681.73	313.91
682.06	313.01
682.40	312.07
682.74	311.28
683.08	310.60
683.42	309.78
683.75	309.03
684.09	308.06
684.43	307.31
684.77	306.41
685.10	305.64
685.44	304.78
685.78	303.92
686.12	303.05
686.45	302.27
686.79	301.44
687.13	300.76
687.46	299.92
687.80	299.27
688.14	298.47
688.48	297.73
688.81	296.87
689.15	296.22
689.49	295.46
689.82	294.76
690.16	293.85
690.50	293.16
690.83	292.37
691.17	291.62
691.51	290.96
691.84	290.33
692.18	289.56
692.52	289.01
692.85	288.44
693.19	288.10
693.52	287.44
693.86	286.76
694.20	286.07
694.53	285.50
694.87	284.84
695.21	284.19
695.54	283.61
695.88	283.01
696.21	282.21
696.55	281.60
696.88	280.96
697.22	280.39
697.56	279.94
697.89	279.33
698.23	278.87
698.56	278.24
698.90	277.73
699.23	277.22
699.57	276.66
699.90	276.05
700.24	275.33
700.58	274.82
700.91	274.44
701.25	274.31
701.58	274.12
701.92	273.80
702.25	273.36
702.59	272.85
702.92	272.47
703.26	272.15
703.59	271.73
703.93	271.74
704.26	271.39
704.60	270.85
704.93	270.39
705.26	269.90
705.60	269.60
705.93	269.04
706.27	268.75
706.60	268.40
706.94	268.25
707.27	267.86
707.61	267.56
707.94	267.12
708.27	266.34
708.61	265.70
708.94	265.23
709.28	264.95
709.61	264.55
709.94	264.25
710.28	263.83
710.61	263.49
710.95	262.65
711.28	262.62
711.61	262.31
711.95	262.17
712.28	261.81
712.61	261.46
712.95	261.44
713.28	261.29
713.61	260.94
713.95	260.39
714.28	260.07
714.61	259.71
714.95	259.30
715.28	259.00
715.61	258.69
715.95	258.38
716.28	257.96
716.61	257.69
716.95	257.35
717.28	257.05
717.61	256.70
717.94	256.47
718.28	255.79
718.61	255.46
718.94	255.01
719.27	254.75
719.61	254.56
719.94	254.17
720.27	253.65
720.60	253.40
720.94	253.20
721.27	253.06
721.60	252.92
721.93	252.75
722.27	252.69
722.60	252.50
722.93	252.27
723.26	252.12
723.59	251.90
723.93	251.70
724.26	251.53
724.59	251.33
724.92	251.11
725.25	251.14
725.59	250.96
725.92	250.91
726.25	250.69
726.58	250.52
726.91	250.29
727.24	250.22
727.57	250.08
727.91	249.80
728.24	249.62
728.57	249.30
728.90	249.20
729.23	248.85
729.56	248.99
729.89	248.79
730.22	248.58
730.55	248.41
730.89	248.24
731.22	248.04
731.55	247.86
731.88	247.71
732.21	247.40
732.54	247.17
732.87	246.95
733.20	246.85
733.53	246.61
733.86	246.55
734.19	246.28
734.52	246.16
734.85	246.32
735.18	246.06
735.51	246.14
735.84	245.96
736.17	245.92
736.50	245.42
736.83	245.79
737.16	245.67
737.49	245.54
737.82	245.37
738.15	245.33
738.48	245.25
738.81	245.02
739.14	244.81
739.47	244.69
739.80	244.49
740.13	244.36
740.46	244.15
740.79	243.84
741.12	243.69
741.45	243.45
741.78	243.11
742.11	243.10
742.44	242.84
742.77	242.80
743.10	242.54
743.43	242.39
743.75	241.75
744.08	242.24
744.41	242.08
744.74	241.85
745.07	241.57
745.40	241.56
745.73	241.70
746.06	241.63
746.39	241.58
746.71	241.42
747.04	241.19
747.37	241.08
747.70	241.05
748.03	240.95
748.36	240.86
748.68	240.69
749.01	240.42
749.34	240.31
749.67	240.16
750.00	240.17
750.33	240.42
750.65	240.34
750.98	239.59
751.31	239.45
751.64	239.39
751.97	239.56
752.29	239.29
752.62	238.93
752.95	238.82
753.28	238.60
753.60	238.52
753.93	238.54
754.26	238.44
754.59	238.20
754.91	238.08
755.24	237.96
755.57	237.81
755.90	237.68
756.22	237.49
756.55	237.28
756.88	237.06
757.20	236.65
757.53	236.44
757.86	236.30
758.19	236.28
758.51	236.15
758.84	235.83
759.17	235.71
759.49	235.65
759.82	235.72
760.15	235.68
760.47	235.60
760.80	235.37
761.13	235.34
761.45	235.22
761.78	235.06
762.11	234.90
762.43	234.84
762.76	234.76
763.08	234.83
763.41	234.78
763.74	234.75
764.06	234.67
764.39	234.57
764.71	234.48
765.04	234.37
765.37	234.26
765.69	234.14
766.02	234.04
766.34	233.98
766.67	233.69
767.00	233.71
767.32	233.88
767.65	234.13
767.97	234.00
768.30	234.01
768.62	233.99
768.95	233.92
769.27	233.85
769.60	233.89
769.92	233.65
770.25	233.52
770.57	233.29
770.90	233.16
771.22	233.09
771.55	232.98
771.87	232.85
772.20	232.83
772.52	233.14
772.85	233.72
773.17	233.63
773.50	233.56
773.82	233.37
774.15	233.07
774.47	232.66
774.80	232.61
775.12	232.58
775.45	232.49
775.77	232.50
776.09	232.44
776.42	232.37
776.74	232.47
777.07	232.39
777.39	232.42
777.72	232.43
778.04	232.49
778.36	232.46
778.69	232.54
779.01	232.50
779.33	232.10
779.66	231.45
779.98	231.40
780.31	231.41
780.63	231.63
780.95	231.64
781.28	231.65
781.60	231.56
781.92	231.44
782.25	231.42
782.57	231.29
782.89	231.27
783.22	231.17
783.54	231.03
783.86	231.05
784.19	231.00
784.51	231.07
784.83	230.93
785.16	230.90
785.48	230.79
785.80	230.76
786.12	230.81
786.45	230.85
786.77	230.80
787.09	230.71
787.42	230.41
787.74	230.46
788.06	230.38
788.38	230.27
788.71	230.20
789.03	230.18
789.35	230.25
789.67	230.11
789.99	230.13
790.32	230.07
790.64	230.04
790.96	230.33
791.28	230.11
791.61	230.15
791.93	230.19
792.25	230.18
792.57	230.46
792.89	230.26
793.21	230.20
793.54	230.17
793.86	230.09
794.18	230.15
794.50	229.97
794.82	230.07
795.14	230.15
795.47	230.28
795.79	230.21
796.11	230.04
796.43	230.02
796.75	229.96
797.07	229.96
797.39	229.87
797.71	229.58
798.04	229.61
798.36	229.56
798.68	229.44
799.00	229.42
799.32	229.14
799.64	229.24
799.96	229.22
800.28	229.27
800.60	229.20
800.92	229.18
801.24	229.24
801.56	229.24
801.89	229.14
802.21	229.10
802.53	229.05
802.85	229.15
803.17	229.34
803.49	229.19
803.81	229.13
804.13	229.15
804.45	229.07
804.77	229.10
805.09	229.03
805.41	229.06
805.73	228.94
806.05	228.88
806.37	228.89
806.69	228.84
807.01	228.80
807.33	228.84
807.65	228.69
807.97	228.81
808.28	228.70
808.60	228.71
808.92	228.59
809.24	228.93
809.56	228.84
809.88	228.69
810.20	228.70
810.52	228.80
810.84	228.67
811.16	228.65
811.48	228.54
811.80	228.75
812.12	228.75
812.43	228.83
812.75	228.84
813.07	228.80
813.39	228.78
813.71	228.68
814.03	228.59
814.35	228.58
814.67	228.36
814.98	228.31
815.30	228.35
815.62	228.30
815.94	227.96
816.26	228.11
816.58	228.00
816.89	228.11
817.21	227.96
817.53	227.98
817.85	227.97
