SpectraSuite Data File
++++++++++++++++++++++++++++++++++++
Date: Wed Sep 04 17:46:01 EDT 2013
User: lab3
Dark Spectrum Present: Yes
Reference Spectrum Present: No
Number of Sampled Component Spectra: 1
Spectrometers: USB2E7196
Integration Time (usec): 170000 (USB2E7196)
Spectra Averaged: 20 (USB2E7196)
Boxcar Smoothing: 10 (USB2E7196)
Correct for Electrical Dark: No (USB2E7196)
Strobe/Lamp Enabled: No (USB2E7196)
Correct for Detector Non-linearity: No (USB2E7196)
Correct for Stray Light: No (USB2E7196)
Number of Pixels in Processed Spectrum: 2048
>>>>>Begin Processed Spectral Data<<<<<
339.09	0.00
339.48	212.00
339.86	213.90
340.24	215.45
340.63	216.60
341.01	225.60
341.39	219.80
341.78	221.55
342.16	222.70
342.54	223.25
342.93	211.81
343.31	222.46
343.69	223.05
344.07	223.53
344.46	224.00
344.84	224.47
345.22	224.43
345.60	224.65
345.99	224.88
346.37	225.03
346.75	225.11
347.13	225.15
347.52	225.25
347.90	225.47
348.28	225.52
348.66	225.64
349.05	225.48
349.43	225.65
349.81	225.68
350.19	225.66
350.57	225.66
350.96	225.77
351.34	225.95
351.72	226.06
352.10	226.17
352.48	226.20
352.87	226.20
353.25	226.30
353.63	226.32
354.01	226.29
354.39	226.34
354.77	226.42
355.15	226.64
355.54	226.64
355.92	226.58
356.30	226.63
356.68	226.97
357.06	227.04
357.44	226.93
357.82	227.01
358.20	227.46
358.58	227.52
358.97	227.68
359.35	227.75
359.73	227.88
360.11	227.91
360.49	228.01
360.87	228.03
361.25	228.14
361.63	228.42
362.01	228.56
362.39	228.62
362.77	228.70
363.15	228.74
363.53	228.75
363.91	228.76
364.29	228.74
364.67	228.35
365.05	228.42
365.43	228.55
365.81	228.66
366.19	228.58
366.57	228.86
366.95	228.79
367.33	228.69
367.71	228.66
368.09	228.77
368.47	228.81
368.85	228.88
369.23	229.02
369.61	228.88
369.99	228.98
370.37	229.04
370.75	229.27
371.13	229.12
371.51	229.05
371.89	229.08
372.27	229.17
372.65	229.21
373.03	229.18
373.41	229.15
373.78	229.07
374.16	228.78
374.54	228.53
374.92	228.47
375.30	228.47
375.68	228.33
376.06	228.21
376.44	228.02
376.82	227.97
377.19	227.81
377.57	227.70
377.95	227.50
378.33	227.40
378.71	227.02
379.09	227.06
379.47	227.11
379.84	227.02
380.22	226.94
380.60	226.76
380.98	226.67
381.36	226.53
381.73	226.36
382.11	226.36
382.49	226.26
382.87	226.14
383.25	226.12
383.62	226.63
384.00	226.52
384.38	226.54
384.76	226.51
385.13	226.65
385.51	226.59
385.89	226.44
386.27	226.29
386.64	226.30
387.02	226.17
387.40	226.00
387.78	225.96
388.15	225.90
388.53	225.84
388.91	225.84
389.29	225.81
389.66	225.88
390.04	225.79
390.42	225.84
390.79	225.95
391.17	225.87
391.55	225.29
391.92	225.35
392.30	225.41
392.68	225.33
393.05	225.24
393.43	225.29
393.81	225.34
394.18	225.37
394.56	225.40
394.94	225.56
395.31	225.60
395.69	225.78
396.06	225.86
396.44	226.00
396.82	225.99
397.19	226.29
397.57	226.27
397.95	226.46
398.32	226.37
398.70	226.36
399.07	226.50
399.45	226.59
399.82	226.58
400.20	226.58
400.58	226.70
400.95	226.63
401.33	226.80
401.70	227.28
402.08	227.44
402.45	227.55
402.83	227.80
403.20	228.02
403.58	228.09
403.95	228.30
404.33	228.49
404.71	228.70
405.08	229.07
405.46	229.30
405.83	229.55
406.21	229.89
406.58	230.23
406.96	230.50
407.33	230.85
407.70	231.30
408.08	232.04
408.45	232.45
408.83	232.92
409.20	233.23
409.58	233.43
409.95	233.90
410.33	234.43
410.70	234.84
411.08	235.43
411.45	236.00
411.82	236.57
412.20	237.37
412.57	238.33
412.95	238.73
413.32	239.58
413.69	240.39
414.07	241.29
414.44	242.19
414.82	243.22
415.19	244.40
415.56	245.54
415.94	246.47
416.31	247.88
416.68	249.31
417.06	250.97
417.43	252.51
417.81	254.26
418.18	256.08
418.55	257.89
418.93	259.94
419.30	262.05
419.67	264.24
420.04	266.42
420.42	268.73
420.79	271.70
421.16	274.34
421.54	277.28
421.91	280.21
422.28	283.21
422.66	286.52
423.03	289.90
423.40	293.17
423.77	296.61
424.15	300.04
424.52	303.65
424.89	307.75
425.26	311.63
425.64	315.34
426.01	319.47
426.38	323.83
426.75	328.16
427.13	332.62
427.50	337.23
427.87	341.99
428.24	346.72
428.61	351.19
428.99	356.43
429.36	361.78
429.73	367.19
430.10	372.55
430.47	378.02
430.85	383.52
431.22	389.66
431.59	396.43
431.96	402.57
432.33	409.39
432.70	415.92
433.08	423.60
433.45	430.90
433.82	438.00
434.19	446.04
434.56	453.88
434.93	461.47
435.30	469.07
435.68	477.53
436.05	485.70
436.42	493.80
436.79	501.34
437.16	509.56
437.53	518.04
437.90	526.77
438.27	535.10
438.64	543.86
439.01	551.80
439.38	558.71
439.75	565.74
440.13	573.61
440.50	580.97
440.87	587.00
441.24	593.17
441.61	599.91
441.98	604.81
442.35	610.54
442.72	616.27
443.09	621.94
443.46	625.28
443.83	627.63
444.20	629.66
444.57	632.40
444.94	633.50
445.31	634.77
445.68	636.17
446.05	636.40
446.42	635.05
446.79	633.69
447.16	632.25
447.53	631.12
447.90	627.65
448.27	624.09
448.64	619.29
449.01	615.80
449.37	609.99
449.74	604.10
450.11	597.43
450.48	589.87
450.85	582.14
451.22	575.38
451.59	569.03
451.96	562.87
452.33	554.91
452.70	547.74
453.07	539.23
453.43	530.16
453.80	522.05
454.17	514.29
454.54	506.83
454.91	498.79
455.28	490.81
455.65	483.35
456.02	476.66
456.38	470.49
456.75	462.79
457.12	456.41
457.49	450.30
457.86	444.12
458.23	439.21
458.59	433.63
458.96	428.08
459.33	423.08
459.70	417.97
460.07	413.94
460.43	409.27
460.80	405.10
461.17	401.36
461.54	397.35
461.91	393.55
462.27	389.80
462.64	386.60
463.01	383.24
463.38	380.09
463.74	376.11
464.11	373.00
464.48	370.44
464.85	367.63
465.21	365.43
465.58	363.19
465.95	360.37
466.32	358.22
466.68	356.05
467.05	353.76
467.42	351.68
467.78	349.43
468.15	347.26
468.52	345.72
468.88	343.61
469.25	341.72
469.62	340.39
469.98	338.75
470.35	337.30
470.72	335.81
471.08	334.15
471.45	332.95
471.82	331.91
472.18	330.49
472.55	329.49
472.92	328.23
473.28	327.11
473.65	326.00
474.02	324.85
474.38	323.96
474.75	323.32
475.11	322.44
475.48	321.81
475.85	321.35
476.21	320.57
476.58	320.10
476.94	319.74
477.31	319.20
477.67	318.75
478.04	318.35
478.41	318.12
478.77	318.39
479.14	318.13
479.50	317.96
479.87	318.11
480.23	318.07
480.60	318.01
480.96	318.06
481.33	318.42
481.69	318.67
482.06	318.99
482.42	319.22
482.79	319.58
483.15	320.02
483.52	320.56
483.88	321.15
484.25	321.80
484.61	322.47
484.98	323.15
485.34	324.17
485.71	325.07
486.07	326.09
486.44	326.61
486.80	327.58
487.17	328.66
487.53	329.92
487.90	331.35
488.26	333.04
488.62	334.60
488.99	336.05
489.35	337.77
489.72	339.50
490.08	341.46
490.44	343.45
490.81	345.63
491.17	347.82
491.54	350.25
491.90	352.65
492.26	355.29
492.63	358.07
492.99	360.80
493.36	363.95
493.72	367.22
494.08	370.77
494.45	374.49
494.81	378.40
495.17	382.20
495.54	386.31
495.90	390.54
496.26	395.00
496.63	399.77
496.99	404.66
497.35	409.69
497.72	414.98
498.08	420.51
498.44	426.04
498.80	432.02
499.17	437.96
499.53	444.20
499.89	450.86
500.26	457.57
500.62	464.57
500.98	471.84
501.34	479.14
501.71	486.79
502.07	494.51
502.43	502.56
502.79	510.96
503.16	519.61
503.52	528.43
503.88	537.57
504.24	547.07
504.60	556.96
504.97	567.24
505.33	577.40
505.69	588.26
506.05	599.26
506.41	610.37
506.78	621.93
507.14	633.90
507.50	645.97
507.86	658.46
508.22	671.26
508.59	684.14
508.95	697.59
509.31	711.55
509.67	725.80
510.03	739.85
510.39	754.35
510.75	769.16
511.12	784.22
511.48	799.65
511.84	815.20
512.20	830.67
512.56	846.62
512.92	863.33
513.28	879.98
513.64	896.96
514.00	914.31
514.37	931.79
514.73	949.67
515.09	967.77
515.45	985.84
515.81	1003.98
516.17	1022.58
516.53	1041.11
516.89	1059.35
517.25	1078.49
517.61	1098.64
517.97	1118.42
518.33	1138.00
518.69	1157.83
519.05	1177.92
519.41	1198.28
519.77	1219.27
520.13	1239.72
520.49	1259.80
520.85	1281.64
521.21	1302.35
521.57	1323.16
521.93	1343.38
522.29	1364.27
522.65	1384.23
523.01	1404.71
523.37	1425.08
523.73	1445.58
524.09	1465.73
524.45	1485.97
524.81	1506.40
525.17	1526.32
525.53	1546.43
525.89	1566.97
526.25	1587.18
526.61	1607.17
526.97	1627.60
527.33	1648.19
527.68	1669.37
528.04	1690.49
528.40	1709.70
528.76	1730.19
529.12	1750.06
529.48	1770.76
529.84	1790.26
530.20	1811.05
530.56	1831.32
530.91	1851.40
531.27	1871.35
531.63	1891.40
531.99	1911.66
532.35	1930.99
532.71	1950.70
533.07	1970.99
533.42	1990.26
533.78	2010.01
534.14	2029.25
534.50	2047.94
534.86	2066.31
535.21	2083.24
535.57	2101.14
535.93	2118.32
536.29	2135.54
536.65	2153.11
537.00	2170.28
537.36	2187.17
537.72	2202.92
538.08	2219.62
538.44	2236.20
538.79	2251.98
539.15	2268.03
539.51	2283.50
539.87	2298.23
540.22	2311.94
540.58	2325.69
540.94	2338.51
541.29	2350.54
541.65	2362.74
542.01	2374.52
542.37	2384.46
542.72	2395.07
543.08	2404.88
543.44	2416.03
543.79	2425.59
544.15	2434.91
544.51	2444.44
544.87	2453.51
545.22	2461.95
545.58	2469.15
545.94	2475.35
546.29	2481.11
546.65	2486.75
547.01	2491.70
547.36	2496.64
547.72	2501.57
548.07	2505.11
548.43	2509.85
548.79	2514.11
549.14	2517.48
549.50	2520.97
549.86	2524.69
550.21	2528.24
550.57	2531.53
550.92	2532.51
551.28	2533.50
551.64	2535.22
551.99	2536.41
552.35	2537.69
552.70	2539.40
553.06	2540.67
553.41	2541.80
553.77	2543.21
554.13	2544.36
554.48	2545.58
554.84	2546.64
555.19	2547.35
555.55	2548.37
555.90	2547.64
556.26	2546.34
556.61	2544.73
556.97	2542.37
557.32	2541.68
557.68	2540.03
558.03	2537.95
558.39	2536.13
558.74	2534.87
559.10	2531.60
559.45	2527.56
559.81	2523.04
560.16	2517.43
560.52	2512.54
560.87	2507.95
561.23	2502.44
561.58	2496.55
561.94	2489.44
562.29	2481.98
562.64	2475.02
563.00	2466.86
563.35	2460.05
563.71	2453.38
564.06	2447.12
564.42	2440.16
564.77	2433.00
565.12	2425.38
565.48	2417.63
565.83	2409.79
566.19	2401.95
566.54	2394.26
566.89	2386.44
567.25	2378.68
567.60	2371.95
567.96	2364.06
568.31	2355.99
568.66	2347.69
569.02	2338.49
569.37	2330.26
569.72	2322.58
570.08	2313.16
570.43	2303.78
570.78	2294.89
571.14	2285.57
571.49	2275.07
571.84	2265.92
572.20	2255.27
572.55	2245.40
572.90	2234.62
573.26	2224.47
573.61	2213.15
573.96	2202.16
574.31	2190.42
574.67	2178.64
575.02	2165.69
575.37	2153.26
575.72	2140.50
576.08	2128.47
576.43	2116.32
576.78	2103.62
577.13	2090.32
577.49	2078.08
577.84	2066.45
578.19	2054.35
578.54	2042.08
578.90	2030.81
579.25	2018.66
579.60	2006.21
579.95	1993.47
580.30	1980.72
580.66	1967.65
581.01	1954.69
581.36	1940.88
581.71	1928.61
582.06	1916.01
582.42	1904.07
582.77	1891.95
583.12	1880.40
583.47	1868.37
583.82	1856.95
584.17	1845.18
584.53	1833.86
584.88	1821.24
585.23	1808.60
585.58	1794.97
585.93	1781.85
586.28	1768.61
586.63	1755.09
586.98	1741.64
587.34	1728.65
587.69	1715.73
588.04	1703.61
588.39	1691.89
588.74	1680.37
589.09	1668.55
589.44	1656.23
589.79	1644.50
590.14	1632.78
590.49	1620.86
590.84	1609.30
591.19	1597.48
591.54	1585.78
591.89	1573.78
592.25	1563.66
592.60	1552.20
592.95	1541.09
593.30	1529.86
593.65	1518.45
594.00	1506.64
594.35	1496.99
594.70	1485.55
595.05	1474.84
595.40	1462.82
595.75	1451.44
596.10	1440.52
596.45	1429.33
596.80	1418.97
597.15	1407.74
597.50	1396.35
597.85	1385.18
598.19	1373.60
598.54	1362.20
598.89	1351.34
599.24	1341.08
599.59	1330.07
599.94	1320.20
600.29	1310.18
600.64	1300.00
600.99	1289.75
601.34	1280.74
601.69	1270.16
602.04	1260.99
602.39	1251.62
602.74	1243.03
603.08	1233.79
603.43	1224.85
603.78	1215.30
604.13	1205.85
604.48	1196.41
604.83	1186.93
605.18	1177.56
605.53	1168.51
605.87	1159.88
606.22	1151.57
606.57	1142.61
606.92	1133.40
607.27	1124.56
607.62	1116.00
607.96	1107.87
608.31	1100.20
608.66	1092.14
609.01	1083.68
609.36	1075.20
609.70	1066.89
610.05	1058.48
610.40	1050.30
610.75	1041.78
611.10	1033.89
611.44	1025.71
611.79	1017.88
612.14	1010.60
612.49	1003.00
612.83	996.00
613.18	988.43
613.53	980.89
613.88	973.18
614.22	965.88
614.57	957.97
614.92	950.32
615.27	943.16
615.61	935.72
615.96	928.23
616.31	921.10
616.65	914.39
617.00	907.36
617.35	900.36
617.70	893.45
618.04	886.59
618.39	879.95
618.74	873.68
619.08	867.00
619.43	860.10
619.78	853.45
620.12	846.57
620.47	839.74
620.82	832.68
621.16	826.30
621.51	820.04
621.85	814.02
622.20	807.83
622.55	801.31
622.89	794.93
623.24	788.81
623.59	782.50
623.93	776.49
624.28	770.41
624.62	765.07
624.97	759.54
625.32	753.91
625.66	748.10
626.01	742.24
626.35	737.15
626.70	731.93
627.04	726.82
627.39	721.30
627.73	716.37
628.08	711.60
628.43	706.38
628.77	701.22
629.12	696.34
629.46	691.60
629.81	686.99
630.15	682.61
630.50	677.98
630.84	673.51
631.19	668.86
631.53	664.59
631.88	659.48
632.22	654.71
632.57	650.40
632.91	646.13
633.26	641.89
633.60	637.40
633.95	632.79
634.29	628.23
634.64	624.09
634.98	619.53
635.32	615.45
635.67	611.53
636.01	607.60
636.36	603.32
636.70	599.49
637.05	595.51
637.39	591.47
637.73	587.50
638.08	583.71
638.42	579.57
638.77	575.38
639.11	571.34
639.45	567.25
639.80	563.05
640.14	559.01
640.49	555.16
640.83	551.40
641.17	547.96
641.52	544.30
641.86	540.98
642.20	537.87
642.55	534.15
642.89	530.63
643.23	527.02
643.58	524.02
643.92	520.58
644.26	517.30
644.61	514.06
644.95	510.87
645.29	507.50
645.64	504.56
645.98	501.60
646.32	498.80
646.66	495.85
647.01	493.01
647.35	490.38
647.69	487.54
648.04	484.93
648.38	482.12
648.72	479.47
649.06	476.42
649.41	473.46
649.75	470.68
650.09	468.01
650.43	465.29
650.78	462.45
651.12	459.70
651.46	456.90
651.80	454.18
652.14	451.53
652.49	449.03
652.83	446.46
653.17	443.88
653.51	441.24
653.85	438.98
654.20	436.65
654.54	434.00
654.88	431.57
655.22	429.40
655.56	427.06
655.90	424.89
656.25	422.74
656.59	420.55
656.93	418.37
657.27	416.31
657.61	413.96
657.95	411.67
658.29	409.55
658.64	407.51
658.98	405.45
659.32	403.30
659.66	401.20
660.00	399.01
660.34	396.99
660.68	395.08
661.02	393.09
661.36	391.16
661.70	389.34
662.05	387.44
662.39	385.48
662.73	383.79
663.07	382.03
663.41	380.16
663.75	378.29
664.09	376.53
664.43	374.58
664.77	373.12
665.11	371.53
665.45	369.92
665.79	368.50
666.13	366.84
666.47	365.37
666.81	363.77
667.15	362.26
667.49	360.83
667.83	359.47
668.17	357.94
668.51	356.53
668.85	355.27
669.19	354.14
669.53	352.61
669.87	351.06
670.21	349.52
670.55	348.25
670.89	347.15
671.23	345.85
671.57	344.62
671.91	343.23
672.25	341.86
672.58	340.73
672.92	339.28
673.26	338.07
673.60	336.75
673.94	335.66
674.28	334.63
674.62	333.50
674.96	332.15
675.30	330.97
675.64	329.78
675.97	328.51
676.31	327.21
676.65	326.11
676.99	325.21
677.33	324.15
677.67	323.13
678.01	321.84
678.34	320.91
678.68	319.94
679.02	318.84
679.36	318.00
679.70	316.90
680.04	315.99
680.37	315.05
680.71	314.12
681.05	313.22
681.39	312.30
681.73	311.40
682.06	310.62
682.40	309.78
682.74	308.92
683.08	308.21
683.42	307.26
683.75	306.48
684.09	305.51
684.43	304.71
684.77	303.79
685.10	303.04
685.44	302.27
685.78	301.47
686.12	300.85
686.45	300.04
686.79	299.25
687.13	298.56
687.46	297.84
687.80	297.28
688.14	296.51
688.48	295.77
688.81	295.03
689.15	294.45
689.49	293.79
689.82	293.21
690.16	292.42
690.50	291.79
690.83	291.06
691.17	290.35
691.51	289.73
691.84	289.24
692.18	288.50
692.52	287.82
692.85	287.21
693.19	286.80
693.52	286.18
693.86	285.58
694.20	285.01
694.53	284.45
694.87	283.76
695.21	283.07
695.54	282.48
695.88	281.82
696.21	281.02
696.55	280.41
696.88	279.74
697.22	279.05
697.56	278.62
697.89	278.08
698.23	277.74
698.56	277.15
698.90	276.64
699.23	276.19
699.57	275.73
699.90	275.18
700.24	274.45
700.58	274.01
700.91	273.60
701.25	273.46
701.58	273.37
701.92	273.01
702.25	272.61
702.59	272.14
702.92	271.72
703.26	271.27
703.59	270.93
703.93	270.99
704.26	270.74
704.60	270.26
704.93	269.80
705.26	269.19
705.60	268.85
705.93	268.29
706.27	268.11
706.60	267.78
706.94	267.67
707.27	267.32
707.61	266.92
707.94	266.57
708.27	265.79
708.61	265.01
708.94	264.60
709.28	264.28
709.61	263.85
709.94	263.52
710.28	263.23
710.61	262.82
710.95	261.97
711.28	261.91
711.61	261.52
711.95	261.37
712.28	261.00
712.61	260.65
712.95	260.57
713.28	260.27
713.61	259.78
713.95	259.17
714.28	258.80
714.61	258.34
714.95	257.90
715.28	257.51
715.61	257.15
715.95	256.82
716.28	256.36
716.61	256.15
716.95	255.77
717.28	255.47
717.61	255.15
717.94	254.92
718.28	254.20
718.61	253.94
718.94	253.52
719.27	253.25
719.61	253.02
719.94	252.72
720.27	252.23
720.60	251.97
720.94	251.78
721.27	251.60
721.60	251.51
721.93	251.24
722.27	251.19
722.60	251.03
722.93	250.78
723.26	250.74
723.59	250.47
723.93	250.37
724.26	250.17
724.59	249.98
724.92	249.76
725.25	249.76
725.59	249.51
725.92	249.32
726.25	249.11
726.58	248.98
726.91	248.63
727.24	248.50
727.57	248.28
727.91	248.00
728.24	247.78
728.57	247.53
728.90	247.46
729.23	247.19
729.56	247.22
729.89	247.00
730.22	246.70
730.55	246.50
730.89	246.29
731.22	246.04
731.55	245.79
731.88	245.63
732.21	245.39
732.54	245.25
732.87	245.12
733.20	244.98
733.53	244.75
733.86	244.70
734.19	244.50
734.52	244.44
734.85	244.67
735.18	244.47
735.51	244.46
735.84	244.30
736.17	244.22
736.50	243.81
736.83	244.28
737.16	244.15
737.49	244.13
737.82	243.86
738.15	243.79
738.48	243.70
738.81	243.54
739.14	243.34
739.47	243.15
739.80	243.02
740.13	242.97
740.46	242.76
740.79	242.54
741.12	242.41
741.45	242.28
741.78	241.90
742.11	241.98
742.44	241.80
742.77	241.77
743.10	241.60
743.43	241.47
743.75	240.84
744.08	241.39
744.41	241.15
744.74	241.04
745.07	240.83
745.40	240.72
745.73	240.81
746.06	240.72
746.39	240.68
746.71	240.47
747.04	240.26
747.37	240.18
747.70	240.11
748.03	240.03
748.36	239.95
748.68	239.77
749.01	239.46
749.34	239.31
749.67	239.15
750.00	239.09
750.33	239.32
750.65	239.22
750.98	238.52
751.31	238.41
751.64	238.45
751.97	238.68
752.29	238.54
752.62	238.25
752.95	238.11
753.28	237.95
753.60	237.88
753.93	237.83
754.26	237.77
754.59	237.54
754.91	237.47
755.24	237.31
755.57	237.25
755.90	237.16
756.22	236.98
756.55	236.81
756.88	236.59
757.20	236.13
757.53	235.90
757.86	235.72
758.19	235.76
758.51	235.54
758.84	235.12
759.17	234.95
759.49	234.81
759.82	234.90
760.15	234.86
760.47	234.72
760.80	234.57
761.13	234.51
761.45	234.42
761.78	234.25
762.11	234.18
762.43	233.98
762.76	233.89
763.08	233.85
763.41	233.86
763.74	233.82
764.06	233.80
764.39	233.70
764.71	233.64
765.04	233.40
765.37	233.36
765.69	233.30
766.02	233.25
766.34	233.12
766.67	232.85
767.00	232.83
767.32	232.96
767.65	233.16
767.97	232.98
768.30	232.95
768.62	232.90
768.95	232.79
769.27	232.74
769.60	232.75
769.92	232.62
770.25	232.40
770.57	232.20
770.90	232.06
771.22	231.99
771.55	231.91
771.87	231.93
772.20	231.81
772.52	232.15
772.85	232.73
773.17	232.72
773.50	232.70
773.82	232.49
774.15	232.20
774.47	231.91
774.80	231.85
775.12	231.78
775.45	231.66
775.77	231.64
776.09	231.63
776.42	231.53
776.74	231.65
777.07	231.57
777.39	231.55
777.72	231.51
778.04	231.56
778.36	231.49
778.69	231.42
779.01	231.42
779.33	230.98
779.66	230.34
779.98	230.33
780.31	230.24
780.63	230.40
780.95	230.54
781.28	230.43
781.60	230.41
781.92	230.37
782.25	230.41
782.57	230.34
782.89	230.27
783.22	230.19
783.54	230.03
783.86	230.07
784.19	230.05
784.51	230.16
784.83	230.01
785.16	230.02
785.48	230.06
785.80	230.09
786.12	230.08
786.45	230.05
786.77	229.98
787.09	229.98
787.42	229.84
787.74	229.81
788.06	229.85
788.38	229.73
788.71	229.73
789.03	229.68
789.35	229.70
789.67	229.64
789.99	229.68
790.32	229.64
790.64	229.65
790.96	230.03
791.28	229.86
791.61	229.81
791.93	229.77
792.25	229.67
792.57	229.96
792.89	229.88
793.21	229.91
793.54	229.82
793.86	229.77
794.18	229.79
794.50	229.62
794.82	229.63
795.14	229.74
795.47	229.80
795.79	229.80
796.11	229.69
796.43	229.65
796.75	229.65
797.07	229.64
797.39	229.64
797.71	229.28
798.04	229.31
798.36	229.35
798.68	229.35
799.00	229.38
799.32	229.05
799.64	229.07
799.96	229.02
800.28	229.11
800.60	229.13
800.92	229.10
801.24	229.05
801.56	229.09
801.89	229.02
802.21	228.91
802.53	228.83
802.85	228.89
803.17	229.11
803.49	228.97
803.81	228.99
804.13	228.86
804.45	228.79
804.77	228.82
805.09	228.89
805.41	228.78
805.73	228.66
806.05	228.63
806.37	228.63
806.69	228.59
807.01	228.58
807.33	228.47
807.65	228.29
807.97	228.54
808.28	228.45
808.60	228.42
808.92	228.43
809.24	228.73
809.56	228.63
809.88	228.39
810.20	228.45
810.52	228.49
810.84	228.45
811.16	228.41
811.48	228.31
811.80	228.41
812.12	228.43
812.43	228.56
812.75	228.54
813.07	228.49
813.39	228.48
813.71	228.38
814.03	228.37
814.35	228.44
814.67	228.25
814.98	228.18
815.30	228.17
815.62	228.05
815.94	227.69
816.26	227.93
816.58	227.87
816.89	227.90
817.21	227.72
817.53	227.76
817.85	227.76
