SpectraSuite Data File
++++++++++++++++++++++++++++++++++++
Date: Wed Sep 04 18:01:55 EDT 2013
User: lab3
Dark Spectrum Present: Yes
Reference Spectrum Present: No
Number of Sampled Component Spectra: 1
Spectrometers: USB2E7196
Integration Time (usec): 170000 (USB2E7196)
Spectra Averaged: 20 (USB2E7196)
Boxcar Smoothing: 10 (USB2E7196)
Correct for Electrical Dark: No (USB2E7196)
Strobe/Lamp Enabled: No (USB2E7196)
Correct for Detector Non-linearity: No (USB2E7196)
Correct for Stray Light: No (USB2E7196)
Number of Pixels in Processed Spectrum: 2048
>>>>>Begin Processed Spectral Data<<<<<
339.09	0.00
339.48	212.75
339.86	214.75
340.24	215.45
340.63	218.70
341.01	226.25
341.39	220.70
341.78	222.55
342.16	224.45
342.54	223.20
342.93	212.64
343.31	223.32
343.69	223.90
344.07	224.35
344.46	224.87
344.84	225.21
345.22	225.21
345.60	225.50
345.99	225.73
346.37	225.86
346.75	225.93
347.13	226.03
347.52	226.04
347.90	226.23
348.28	226.20
348.66	226.34
349.05	226.18
349.43	226.30
349.81	226.34
350.19	226.35
350.57	226.50
350.96	226.69
351.34	226.79
351.72	226.86
352.10	226.98
352.48	226.96
352.87	226.99
353.25	227.10
353.63	227.13
354.01	227.13
354.39	227.19
354.77	227.36
355.15	227.50
355.54	227.58
355.92	227.46
356.30	227.60
356.68	227.97
357.06	228.10
357.44	228.06
357.82	228.16
358.20	228.61
358.58	228.54
358.97	228.54
359.35	228.74
359.73	228.94
360.11	229.01
360.49	229.15
360.87	229.23
361.25	229.22
361.63	229.45
362.01	229.49
362.39	229.46
362.77	229.37
363.15	229.39
363.53	229.47
363.91	229.49
364.29	229.56
364.67	229.08
365.05	229.11
365.43	229.21
365.81	229.19
366.19	229.05
366.57	229.40
366.95	229.41
367.33	229.28
367.71	229.25
368.09	229.32
368.47	229.31
368.85	229.31
369.23	229.45
369.61	229.29
369.99	229.50
370.37	229.55
370.75	229.85
371.13	229.81
371.51	229.74
371.89	229.82
372.27	229.83
372.65	229.90
373.03	229.92
373.41	229.86
373.78	229.81
374.16	229.58
374.54	229.28
374.92	229.18
375.30	229.19
375.68	229.12
376.06	229.08
376.44	229.00
376.82	228.97
377.19	228.91
377.57	228.82
377.95	228.55
378.33	228.48
378.71	228.16
379.09	228.12
379.47	228.10
379.84	227.97
380.22	227.81
380.60	227.67
380.98	227.49
381.36	227.35
381.73	227.26
382.11	227.31
382.49	227.31
382.87	227.17
383.25	227.11
383.62	227.53
384.00	227.34
384.38	227.27
384.76	227.34
385.13	227.41
385.51	227.38
385.89	227.30
386.27	227.35
386.64	227.36
387.02	227.28
387.40	227.12
387.78	227.12
388.15	227.11
388.53	227.06
388.91	227.02
389.29	227.02
389.66	227.02
390.04	226.81
390.42	226.84
390.79	226.89
391.17	226.79
391.55	226.25
391.92	226.33
392.30	226.30
392.68	226.19
393.05	226.15
393.43	226.17
393.81	226.19
394.18	226.07
394.56	226.12
394.94	226.25
395.31	226.29
395.69	226.46
396.06	226.56
396.44	226.62
396.82	226.72
397.19	226.98
397.57	227.02
397.95	227.16
398.32	227.10
398.70	227.24
399.07	227.44
399.45	227.48
399.82	227.46
400.20	227.65
400.58	227.70
400.95	227.60
401.33	227.76
401.70	228.25
402.08	228.38
402.45	228.55
402.83	228.73
403.20	228.94
403.58	228.97
403.95	229.23
404.33	229.52
404.71	229.68
405.08	230.25
405.46	230.49
405.83	230.79
406.21	231.12
406.58	231.39
406.96	231.70
407.33	232.09
407.70	232.55
408.08	233.25
408.45	233.72
408.83	234.31
409.20	234.72
409.58	234.84
409.95	235.41
410.33	235.94
410.70	236.32
411.08	236.99
411.45	237.66
411.82	238.16
412.20	238.96
412.57	239.99
412.95	240.32
413.32	241.19
413.69	241.93
414.07	242.87
414.44	243.85
414.82	244.88
415.19	246.13
415.56	247.33
415.94	248.34
416.31	249.69
416.68	251.00
417.06	252.62
417.43	254.23
417.81	255.93
418.18	257.71
418.55	259.68
418.93	261.58
419.30	263.64
419.67	265.95
420.04	268.13
420.42	270.43
420.79	273.48
421.16	276.24
421.54	279.35
421.91	282.34
422.28	285.48
422.66	288.73
423.03	292.19
423.40	295.56
423.77	299.10
424.15	302.76
424.52	306.61
424.89	310.89
425.26	314.86
425.64	318.65
426.01	322.77
426.38	327.21
426.75	331.76
427.13	336.32
427.50	341.07
427.87	345.98
428.24	350.80
428.61	355.25
428.99	360.73
429.36	366.27
429.73	371.83
430.10	377.32
430.47	383.04
430.85	388.69
431.22	394.87
431.59	401.63
431.96	407.93
432.33	414.99
432.70	421.54
433.08	429.51
433.45	437.07
433.82	444.43
434.19	452.60
434.56	460.77
434.93	468.70
435.30	476.43
435.68	485.07
436.05	493.81
436.42	502.22
436.79	509.76
437.16	518.22
437.53	527.05
437.90	535.94
438.27	544.59
438.64	553.64
439.01	562.01
439.38	569.51
439.75	576.71
440.13	584.81
440.50	592.44
440.87	598.58
441.24	604.98
441.61	612.25
441.98	617.41
442.35	623.29
442.72	629.30
443.09	635.35
443.46	638.85
443.83	641.01
444.20	643.04
444.57	645.88
444.94	646.81
445.31	647.96
445.68	649.28
446.05	649.46
446.42	647.98
446.79	646.38
447.16	644.48
447.53	643.19
447.90	639.39
448.27	635.71
448.64	630.73
449.01	627.17
449.37	620.95
449.74	614.87
450.11	608.05
450.48	600.12
450.85	591.92
451.22	585.06
451.59	578.39
451.96	572.04
452.33	563.80
452.70	556.50
453.07	547.83
453.43	538.50
453.80	530.04
454.17	522.02
454.54	514.47
454.91	506.36
455.28	498.30
455.65	490.83
456.02	483.96
456.38	477.57
456.75	469.62
457.12	463.03
457.49	456.74
457.86	450.22
458.23	445.05
458.59	439.35
458.96	433.56
459.33	428.38
459.70	423.16
460.07	419.11
460.43	414.38
460.80	409.97
461.17	406.30
461.54	402.31
461.91	398.45
462.27	394.55
462.64	391.22
463.01	387.70
463.38	384.29
463.74	380.21
464.11	377.19
464.48	374.52
464.85	371.59
465.21	369.40
465.58	367.10
465.95	364.19
466.32	361.91
466.68	359.59
467.05	357.50
467.42	355.37
467.78	353.03
468.15	350.85
468.52	349.16
468.88	346.93
469.25	345.03
469.62	343.53
469.98	341.87
470.35	340.34
470.72	338.86
471.08	337.11
471.45	335.83
471.82	334.66
472.18	333.22
472.55	332.22
472.92	330.85
473.28	329.77
473.65	328.76
474.02	327.75
474.38	326.87
474.75	326.13
475.11	325.23
475.48	324.55
475.85	323.93
476.21	323.40
476.58	322.93
476.94	322.46
477.31	321.98
477.67	321.59
478.04	321.26
478.41	321.02
478.77	321.35
479.14	321.02
479.50	320.87
479.87	320.87
480.23	320.87
480.60	320.91
480.96	320.92
481.33	321.28
481.69	321.46
482.06	321.69
482.42	321.88
482.79	322.19
483.15	322.56
483.52	323.18
483.88	323.60
484.25	324.17
484.61	324.79
484.98	325.46
485.34	326.35
485.71	327.28
486.07	328.20
486.44	328.79
486.80	329.92
487.17	330.99
487.53	332.42
487.90	333.81
488.26	335.49
488.62	337.13
488.99	338.65
489.35	340.32
489.72	342.26
490.08	344.21
490.44	346.27
490.81	348.65
491.17	350.86
491.54	353.39
491.90	355.96
492.26	358.62
492.63	361.45
492.99	364.29
493.36	367.40
493.72	370.77
494.08	374.11
494.45	377.86
494.81	381.82
495.17	385.61
495.54	389.78
495.90	393.96
496.26	398.48
496.63	403.13
496.99	408.01
497.35	413.04
497.72	418.29
498.08	423.80
498.44	429.40
498.80	435.55
499.17	441.56
499.53	447.82
499.89	454.49
500.26	461.25
500.62	468.38
500.98	475.80
501.34	483.23
501.71	491.19
502.07	498.95
502.43	506.96
502.79	515.36
503.16	524.02
503.52	533.11
503.88	542.25
504.24	552.04
504.60	562.07
504.97	572.32
505.33	582.91
505.69	593.98
506.05	605.01
506.41	616.20
506.78	627.83
507.14	639.84
507.50	652.27
507.86	665.16
508.22	678.08
508.59	691.18
508.95	704.91
509.31	719.05
509.67	733.50
510.03	747.87
510.39	762.86
510.75	778.04
511.12	793.37
511.48	809.19
511.84	824.89
512.20	840.91
512.56	857.34
512.92	874.02
513.28	890.72
513.64	908.05
514.00	925.67
514.37	943.61
514.73	961.82
515.09	980.05
515.45	998.25
515.81	1016.94
516.17	1035.66
516.53	1054.55
516.89	1073.29
517.25	1092.72
517.61	1113.15
517.97	1133.41
518.33	1153.36
518.69	1173.72
519.05	1194.26
519.41	1214.91
519.77	1236.00
520.13	1256.99
520.49	1277.87
520.85	1300.32
521.21	1321.71
521.57	1342.96
521.93	1363.66
522.29	1384.86
522.65	1405.74
523.01	1426.86
523.37	1447.65
523.73	1468.64
524.09	1489.21
524.45	1510.03
524.81	1530.88
525.17	1551.40
525.53	1571.90
525.89	1593.16
526.25	1614.04
526.61	1634.73
526.97	1655.88
527.33	1677.24
527.68	1699.08
528.04	1720.15
528.40	1739.87
528.76	1760.85
529.12	1781.27
529.48	1802.32
529.84	1822.50
530.20	1843.75
530.56	1864.71
530.91	1885.59
531.27	1906.33
531.63	1927.15
531.99	1948.10
532.35	1968.52
532.71	1989.01
533.07	2009.94
533.42	2030.03
533.78	2049.98
534.14	2069.87
534.50	2089.15
534.86	2108.41
535.21	2126.14
535.57	2144.94
535.93	2162.96
536.29	2180.89
536.65	2199.30
537.00	2216.92
537.36	2234.82
537.72	2251.25
538.08	2268.55
538.44	2285.16
538.79	2301.93
539.15	2318.43
539.51	2334.22
539.87	2349.29
540.22	2363.60
540.58	2377.91
540.94	2391.02
541.29	2403.80
541.65	2416.47
542.01	2428.91
542.37	2439.45
542.72	2450.47
543.08	2461.39
543.44	2473.28
543.79	2483.58
544.15	2493.38
544.51	2503.80
544.87	2513.52
545.22	2522.62
545.58	2530.06
545.94	2537.61
546.29	2544.02
546.65	2550.51
547.01	2556.34
547.36	2562.10
547.72	2567.88
548.07	2571.92
548.43	2577.34
548.79	2582.14
549.14	2586.50
549.50	2590.55
549.86	2594.95
550.21	2598.89
550.57	2602.27
550.92	2603.39
551.28	2605.06
551.64	2607.62
551.99	2609.59
552.35	2611.18
552.70	2612.99
553.06	2614.70
553.41	2615.85
553.77	2617.67
554.13	2619.35
554.48	2620.98
554.84	2622.71
555.19	2623.60
555.55	2625.38
555.90	2624.82
556.26	2624.26
556.61	2622.68
556.97	2620.41
557.32	2619.86
557.68	2618.47
558.03	2617.04
558.39	2616.07
558.74	2614.91
559.10	2611.62
559.45	2607.80
559.81	2603.73
560.16	2598.69
560.52	2594.15
560.87	2589.95
561.23	2584.72
561.58	2578.43
561.94	2571.60
562.29	2564.23
562.64	2557.29
563.00	2549.04
563.35	2542.42
563.71	2535.56
564.06	2529.30
564.42	2523.13
564.77	2516.12
565.12	2508.77
565.48	2501.11
565.83	2493.26
566.19	2485.02
566.54	2477.35
566.89	2469.52
567.25	2461.64
567.60	2454.46
567.96	2446.88
568.31	2438.61
568.66	2429.71
569.02	2420.83
569.37	2412.45
569.72	2404.58
570.08	2395.27
570.43	2385.84
570.78	2376.77
571.14	2367.26
571.49	2357.05
571.84	2347.50
572.20	2336.32
572.55	2326.00
572.90	2314.77
573.26	2304.51
573.61	2293.53
573.96	2282.20
574.31	2270.10
574.67	2258.25
575.02	2245.72
575.37	2233.00
575.72	2220.06
576.08	2208.06
576.43	2195.85
576.78	2182.76
577.13	2168.71
577.49	2155.81
577.84	2143.83
578.19	2131.75
578.54	2119.37
578.90	2107.42
579.25	2095.15
579.60	2082.98
579.95	2070.39
580.30	2057.44
580.66	2043.57
581.01	2030.04
581.36	2016.31
581.71	2003.94
582.06	1991.21
582.42	1978.52
582.77	1965.87
583.12	1953.64
583.47	1941.22
583.82	1928.90
584.17	1917.02
584.53	1905.43
584.88	1892.74
585.23	1879.51
585.58	1865.13
585.93	1851.69
586.28	1838.07
586.63	1823.42
586.98	1808.93
587.34	1795.40
587.69	1782.14
588.04	1769.56
588.39	1757.45
588.74	1745.33
589.09	1732.69
589.44	1719.48
589.79	1707.22
590.14	1695.34
590.49	1683.20
590.84	1671.08
591.19	1659.10
591.54	1646.61
591.89	1634.25
592.25	1623.96
592.60	1612.56
592.95	1601.12
593.30	1589.01
593.65	1577.14
594.00	1565.52
594.35	1555.85
594.70	1543.96
595.05	1532.61
595.40	1520.44
595.75	1508.17
596.10	1496.69
596.45	1484.95
596.80	1473.94
597.15	1462.35
597.50	1450.34
597.85	1438.74
598.19	1427.21
598.54	1415.26
598.89	1404.07
599.24	1393.43
599.59	1381.63
599.94	1370.48
600.29	1359.91
600.64	1349.62
600.99	1338.63
601.34	1329.14
601.69	1317.80
602.04	1307.78
602.39	1297.92
602.74	1288.76
603.08	1279.42
603.43	1270.04
603.78	1260.70
604.13	1250.96
604.48	1241.32
604.83	1231.55
605.18	1221.95
605.53	1212.14
605.87	1203.11
606.22	1194.51
606.57	1185.07
606.92	1175.54
607.27	1166.69
607.62	1157.90
607.96	1149.25
608.31	1141.28
608.66	1132.65
609.01	1123.83
609.36	1115.19
609.70	1106.72
610.05	1097.90
610.40	1089.28
610.75	1080.40
611.10	1071.70
611.44	1063.25
611.79	1054.96
612.14	1047.05
612.49	1039.08
612.83	1031.54
613.18	1023.61
613.53	1015.72
613.88	1007.73
614.22	999.96
614.57	991.91
614.92	983.90
615.27	976.20
615.61	968.62
615.96	960.73
616.31	953.29
616.65	946.33
617.00	938.73
617.35	931.43
617.70	924.28
618.04	917.21
618.39	910.38
618.74	903.97
619.08	897.07
619.43	889.85
619.78	882.68
620.12	875.38
620.47	868.47
620.82	861.23
621.16	854.43
621.51	847.93
621.85	841.71
622.20	835.22
622.55	828.65
622.89	822.04
623.24	815.80
623.59	809.23
623.93	802.75
624.28	796.56
624.62	790.89
624.97	785.08
625.32	779.25
625.66	773.10
626.01	766.87
626.35	761.28
626.70	755.55
627.04	750.18
627.39	744.50
627.73	739.14
628.08	733.76
628.43	728.36
628.77	722.94
629.12	717.52
629.46	712.65
629.81	707.79
630.15	702.95
630.50	698.02
630.84	693.24
631.19	688.38
631.53	683.85
631.88	678.40
632.22	673.44
632.57	668.71
632.91	664.15
633.26	659.74
633.60	655.13
633.95	650.55
634.29	645.90
634.64	641.66
634.98	636.95
635.32	632.65
635.67	628.52
636.01	624.16
636.36	619.72
636.70	615.64
637.05	611.47
637.39	607.31
637.73	602.94
638.08	598.96
638.42	594.67
638.77	590.18
639.11	585.93
639.45	581.58
639.80	577.25
640.14	573.20
640.49	569.01
640.83	564.98
641.17	561.34
641.52	557.67
641.86	554.00
642.20	550.62
642.55	546.69
642.89	543.05
643.23	539.69
643.58	536.48
643.92	532.57
644.26	529.09
644.61	525.74
644.95	522.57
645.29	519.11
645.64	516.07
645.98	512.99
646.32	510.11
646.66	507.05
647.01	504.02
647.35	501.14
647.69	498.22
648.04	495.50
648.38	492.60
648.72	489.60
649.06	486.50
649.41	483.39
649.75	480.55
650.09	477.63
650.43	474.64
650.78	471.78
651.12	469.10
651.46	466.29
651.80	463.53
652.14	460.77
652.49	458.29
652.83	455.70
653.17	453.07
653.51	450.35
653.85	448.00
654.20	445.44
654.54	442.79
654.88	440.29
655.22	438.04
655.56	435.55
655.90	433.18
656.25	431.03
656.59	428.82
656.93	426.67
657.27	424.60
657.61	422.15
657.95	419.85
658.29	417.75
658.64	415.59
658.98	413.32
659.32	411.03
659.66	408.70
660.00	406.49
660.34	404.48
660.68	402.52
661.02	400.37
661.36	398.54
661.70	396.47
662.05	394.43
662.39	392.37
662.73	390.70
663.07	389.05
663.41	387.09
663.75	385.16
664.09	383.22
664.43	381.29
664.77	379.74
665.11	377.96
665.45	376.17
665.79	374.58
666.13	372.78
666.47	371.09
666.81	369.53
667.15	367.73
667.49	366.17
667.83	364.81
668.17	363.26
668.51	361.73
668.85	360.37
669.19	359.21
669.53	357.59
669.87	356.00
670.21	354.34
670.55	353.03
670.89	351.93
671.23	350.57
671.57	349.20
671.91	347.76
672.25	346.45
672.58	345.23
672.92	343.63
673.26	342.49
673.60	341.32
673.94	340.14
674.28	339.10
674.62	337.91
674.96	336.55
675.30	335.38
675.64	334.13
675.97	332.90
676.31	331.57
676.65	330.35
676.99	329.39
677.33	328.26
677.67	327.11
678.01	325.80
678.34	324.68
678.68	323.72
679.02	322.62
679.36	321.58
679.70	320.49
680.04	319.63
680.37	318.67
680.71	317.63
681.05	316.64
681.39	315.65
681.73	314.65
682.06	313.85
682.40	312.89
682.74	312.19
683.08	311.55
683.42	310.59
683.75	309.94
684.09	309.04
684.43	308.25
684.77	307.34
685.10	306.55
685.44	305.82
685.78	304.91
686.12	304.20
686.45	303.45
686.79	302.63
687.13	302.02
687.46	301.22
687.80	300.68
688.14	299.91
688.48	299.21
688.81	298.54
689.15	297.82
689.49	297.11
689.82	296.30
690.16	295.28
690.50	294.55
690.83	293.75
691.17	292.87
691.51	292.15
691.84	291.59
692.18	290.80
692.52	290.09
692.85	289.50
693.19	289.09
693.52	288.39
693.86	287.74
694.20	287.03
694.53	286.45
694.87	285.70
695.21	285.04
695.54	284.33
695.88	283.60
696.21	282.81
696.55	282.32
696.88	281.67
697.22	281.12
697.56	280.64
697.89	280.03
698.23	279.67
698.56	279.06
698.90	278.56
699.23	278.03
699.57	277.60
699.90	277.02
700.24	276.30
700.58	275.93
700.91	275.52
701.25	275.40
701.58	275.26
701.92	274.87
702.25	274.41
702.59	273.95
702.92	273.56
703.26	273.17
703.59	272.70
703.93	272.73
704.26	272.39
704.60	271.97
704.93	271.54
705.26	270.92
705.60	270.65
705.93	270.09
706.27	269.92
706.60	269.56
706.94	269.43
707.27	269.03
707.61	268.66
707.94	268.21
708.27	267.38
708.61	266.71
708.94	266.30
709.28	265.99
709.61	265.71
709.94	265.39
710.28	264.97
710.61	264.58
710.95	263.77
711.28	263.67
711.61	263.26
711.95	263.02
712.28	262.72
712.61	262.25
712.95	262.12
713.28	261.90
713.61	261.51
713.95	261.00
714.28	260.70
714.61	260.22
714.95	259.84
715.28	259.52
715.61	259.03
715.95	258.70
716.28	258.27
716.61	258.01
716.95	257.65
717.28	257.32
717.61	257.08
717.94	256.81
718.28	256.14
718.61	255.91
718.94	255.52
719.27	255.27
719.61	255.13
719.94	254.79
720.27	254.32
720.60	254.00
720.94	253.70
721.27	253.44
721.60	253.38
721.93	253.19
722.27	253.12
722.60	253.04
722.93	252.75
723.26	252.58
723.59	252.22
723.93	252.09
724.26	251.97
724.59	251.65
724.92	251.44
725.25	251.38
725.59	251.17
725.92	251.07
726.25	250.82
726.58	250.59
726.91	250.33
727.24	250.15
727.57	249.95
727.91	249.70
728.24	249.53
728.57	249.17
728.90	249.07
729.23	248.59
729.56	248.58
729.89	248.40
730.22	248.27
730.55	248.08
730.89	247.85
731.22	247.64
731.55	247.52
731.88	247.32
732.21	247.12
732.54	246.89
732.87	246.71
733.20	246.59
733.53	246.36
733.86	246.23
734.19	245.95
734.52	245.84
734.85	245.95
735.18	245.75
735.51	245.79
735.84	245.58
736.17	245.64
736.50	245.29
736.83	245.67
737.16	245.49
737.49	245.42
737.82	245.28
738.15	245.19
738.48	245.00
738.81	244.85
739.14	244.60
739.47	244.50
739.80	244.30
740.13	244.20
740.46	244.07
740.79	243.87
741.12	243.74
741.45	243.51
741.78	243.12
742.11	243.12
742.44	242.88
742.77	242.80
743.10	242.57
743.43	242.44
743.75	241.85
744.08	242.30
744.41	242.07
744.74	241.89
745.07	241.62
745.40	241.60
745.73	241.63
746.06	241.45
746.39	241.35
746.71	241.22
747.04	241.10
747.37	240.99
747.70	240.99
748.03	240.91
748.36	240.97
748.68	240.91
749.01	240.60
749.34	240.41
749.67	240.38
750.00	240.40
750.33	240.53
750.65	240.46
750.98	239.74
751.31	239.70
751.64	239.65
751.97	239.85
752.29	239.79
752.62	239.53
752.95	239.50
753.28	239.31
753.60	239.18
753.93	239.18
754.26	239.08
754.59	238.85
754.91	238.67
755.24	238.42
755.57	238.32
755.90	238.29
756.22	238.22
756.55	237.97
756.88	237.73
757.20	237.35
757.53	237.07
757.86	237.05
758.19	237.00
758.51	236.85
758.84	236.53
759.17	236.37
759.49	236.30
759.82	236.44
760.15	236.40
760.47	236.34
760.80	236.09
761.13	236.11
761.45	235.99
761.78	235.93
762.11	235.89
762.43	235.78
762.76	235.65
763.08	235.53
763.41	235.51
763.74	235.51
764.06	235.50
764.39	235.44
764.71	235.37
765.04	235.18
765.37	235.06
765.69	234.98
766.02	234.89
766.34	234.74
766.67	234.50
767.00	234.49
767.32	234.69
767.65	234.87
767.97	234.75
768.30	234.77
768.62	234.69
768.95	234.56
769.27	234.48
769.60	234.48
769.92	234.43
770.25	234.23
770.57	234.01
770.90	233.88
771.22	233.79
771.55	233.70
771.87	233.60
772.20	233.52
772.52	233.90
772.85	234.34
773.17	234.34
773.50	234.27
773.82	234.12
774.15	233.83
774.47	233.51
774.80	233.41
775.12	233.26
775.45	233.23
775.77	233.20
776.09	233.19
776.42	233.12
776.74	233.19
777.07	233.24
777.39	233.32
777.72	233.18
778.04	233.19
778.36	233.10
778.69	233.18
779.01	233.22
779.33	232.62
779.66	232.09
779.98	232.01
780.31	232.01
780.63	232.17
780.95	232.16
781.28	232.05
781.60	231.86
781.92	231.88
782.25	231.80
782.57	231.72
782.89	231.59
783.22	231.56
783.54	231.36
783.86	231.28
784.19	231.13
784.51	231.28
784.83	231.20
785.16	231.11
785.48	231.11
785.80	231.01
786.12	231.08
786.45	231.03
786.77	230.96
787.09	230.84
787.42	230.72
787.74	230.75
788.06	230.83
788.38	230.91
788.71	230.87
789.03	230.87
789.35	230.94
789.67	230.95
789.99	230.89
790.32	230.95
790.64	230.99
790.96	231.38
791.28	231.22
791.61	231.18
791.93	231.14
792.25	231.00
792.57	231.31
792.89	231.20
793.21	231.21
793.54	231.16
793.86	231.02
794.18	230.92
794.50	230.71
794.82	230.66
795.14	230.65
795.47	230.69
795.79	230.70
796.11	230.61
796.43	230.48
796.75	230.54
797.07	230.48
797.39	230.46
797.71	230.08
798.04	230.03
798.36	230.03
798.68	230.05
799.00	230.05
799.32	229.77
799.64	229.84
799.96	229.88
800.28	229.95
800.60	229.97
800.92	230.01
801.24	230.05
801.56	230.10
801.89	230.05
802.21	229.98
802.53	229.89
802.85	229.95
803.17	230.22
803.49	230.03
803.81	229.94
804.13	229.91
804.45	229.85
804.77	229.90
805.09	229.87
805.41	229.82
805.73	229.79
806.05	229.63
806.37	229.55
806.69	229.41
807.01	229.40
807.33	229.42
807.65	229.26
807.97	229.46
808.28	229.39
808.60	229.35
808.92	229.31
809.24	229.57
809.56	229.55
809.88	229.36
810.20	229.38
810.52	229.46
810.84	229.30
811.16	229.23
811.48	229.13
811.80	229.30
812.12	229.30
812.43	229.38
812.75	229.44
813.07	229.42
813.39	229.49
813.71	229.41
814.03	229.36
814.35	229.39
814.67	229.20
814.98	229.11
815.30	229.13
815.62	229.07
815.94	228.76
816.26	228.95
816.58	228.85
816.89	228.91
817.21	228.81
817.53	228.92
817.85	228.99
