SpectraSuite Data File
++++++++++++++++++++++++++++++++++++
Date: Wed Sep 04 18:03:50 EDT 2013
User: lab3
Dark Spectrum Present: Yes
Reference Spectrum Present: No
Number of Sampled Component Spectra: 1
Spectrometers: USB2E7196
Integration Time (usec): 170000 (USB2E7196)
Spectra Averaged: 20 (USB2E7196)
Boxcar Smoothing: 10 (USB2E7196)
Correct for Electrical Dark: No (USB2E7196)
Strobe/Lamp Enabled: No (USB2E7196)
Correct for Detector Non-linearity: No (USB2E7196)
Correct for Stray Light: No (USB2E7196)
Number of Pixels in Processed Spectrum: 2048
>>>>>Begin Processed Spectral Data<<<<<
339.09	0.00
339.48	212.70
339.86	214.40
340.24	216.60
340.63	217.05
341.01	225.70
341.39	219.85
341.78	221.65
342.16	225.75
342.54	222.90
342.93	212.62
343.31	223.31
343.69	223.86
344.07	224.36
344.46	224.83
344.84	225.33
345.22	225.36
345.60	225.70
345.99	225.94
346.37	226.00
346.75	226.12
347.13	226.22
347.52	226.32
347.90	226.52
348.28	226.52
348.66	226.67
349.05	226.57
349.43	226.68
349.81	226.73
350.19	226.78
350.57	226.85
350.96	226.87
351.34	226.98
351.72	227.10
352.10	227.17
352.48	227.24
352.87	227.20
353.25	227.24
353.63	227.23
354.01	227.32
354.39	227.36
354.77	227.50
355.15	227.63
355.54	227.61
355.92	227.50
356.30	227.55
356.68	227.89
357.06	227.96
357.44	227.95
357.82	227.93
358.20	228.41
358.58	228.43
358.97	228.55
359.35	228.78
359.73	228.94
360.11	229.02
360.49	229.14
360.87	229.25
361.25	229.38
361.63	229.60
362.01	229.65
362.39	229.68
362.77	229.78
363.15	229.80
363.53	229.89
363.91	229.93
364.29	230.02
364.67	229.59
365.05	229.66
365.43	229.70
365.81	229.86
366.19	229.68
366.57	229.96
366.95	229.95
367.33	229.85
367.71	229.81
368.09	229.94
368.47	229.84
368.85	229.81
369.23	229.88
369.61	229.72
369.99	229.85
370.37	229.89
370.75	229.97
371.13	229.88
371.51	229.81
371.89	229.82
372.27	229.83
372.65	229.79
373.03	229.76
373.41	229.68
373.78	229.61
374.16	229.36
374.54	229.15
374.92	229.04
375.30	228.95
375.68	228.85
376.06	228.80
376.44	228.72
376.82	228.69
377.19	228.54
377.57	228.44
377.95	228.21
378.33	228.15
378.71	227.89
379.09	227.90
379.47	227.91
379.84	227.80
380.22	227.64
380.60	227.51
380.98	227.41
381.36	227.39
381.73	227.21
382.11	227.26
382.49	227.21
382.87	227.11
383.25	227.04
383.62	227.55
384.00	227.37
384.38	227.27
384.76	227.26
385.13	227.44
385.51	227.38
385.89	227.26
386.27	227.20
386.64	227.24
387.02	227.12
387.40	226.97
387.78	226.91
388.15	226.99
388.53	226.96
388.91	226.93
389.29	226.84
389.66	227.00
390.04	226.92
390.42	226.98
390.79	226.99
391.17	226.95
391.55	226.36
391.92	226.40
392.30	226.49
392.68	226.46
393.05	226.45
393.43	226.49
393.81	226.56
394.18	226.51
394.56	226.47
394.94	226.62
395.31	226.63
395.69	226.88
396.06	226.98
396.44	227.03
396.82	227.10
397.19	227.43
397.57	227.36
397.95	227.48
398.32	227.38
398.70	227.43
399.07	227.66
399.45	227.83
399.82	227.84
400.20	227.94
400.58	228.05
400.95	227.90
401.33	228.10
401.70	228.57
402.08	228.76
402.45	228.91
402.83	229.20
403.20	229.36
403.58	229.48
403.95	229.71
404.33	229.99
404.71	230.23
405.08	230.61
405.46	230.81
405.83	231.16
406.21	231.55
406.58	231.97
406.96	232.24
407.33	232.52
407.70	232.92
408.08	233.68
408.45	234.11
408.83	234.68
409.20	235.08
409.58	235.24
409.95	235.77
410.33	236.37
410.70	236.72
411.08	237.41
411.45	238.01
411.82	238.49
412.20	239.29
412.57	240.30
412.95	240.75
413.32	241.72
413.69	242.44
414.07	243.33
414.44	244.19
414.82	245.25
415.19	246.47
415.56	247.68
415.94	248.69
416.31	250.19
416.68	251.60
417.06	253.21
417.43	254.81
417.81	256.48
418.18	258.26
418.55	260.23
418.93	262.21
419.30	264.35
419.67	266.66
420.04	268.88
420.42	271.16
420.79	274.12
421.16	276.90
421.54	279.99
421.91	282.95
422.28	286.15
422.66	289.37
423.03	292.86
423.40	296.27
423.77	299.79
424.15	303.37
424.52	307.14
424.89	311.35
425.26	315.40
425.64	319.30
426.01	323.42
426.38	327.81
426.75	332.39
427.13	336.91
427.50	341.82
427.87	346.78
428.24	351.74
428.61	356.37
428.99	361.70
429.36	367.15
429.73	372.69
430.10	378.27
430.47	384.04
430.85	389.61
431.22	395.88
431.59	402.72
431.96	408.99
432.33	415.90
432.70	422.55
433.08	430.42
433.45	437.87
433.82	445.44
434.19	453.56
434.56	461.67
434.93	469.40
435.30	477.10
435.68	485.83
436.05	494.23
436.42	502.69
436.79	510.34
437.16	518.75
437.53	527.60
437.90	536.21
438.27	544.83
438.64	553.80
439.01	562.05
439.38	569.39
439.75	576.47
440.13	584.70
440.50	592.25
440.87	598.42
441.24	604.77
441.61	611.79
441.98	617.00
442.35	622.81
442.72	628.96
443.09	634.89
443.46	638.24
443.83	640.52
444.20	642.35
444.57	645.07
444.94	646.14
445.31	647.28
445.68	648.67
446.05	648.83
446.42	647.53
446.79	646.07
447.16	644.27
447.53	643.00
447.90	639.12
448.27	635.48
448.64	630.44
449.01	626.71
449.37	620.40
449.74	614.35
450.11	607.47
450.48	599.57
450.85	591.30
451.22	584.44
451.59	577.77
451.96	571.43
452.33	563.32
452.70	555.96
453.07	547.25
453.43	538.18
453.80	529.80
454.17	521.74
454.54	514.03
454.91	505.89
455.28	497.91
455.65	490.49
456.02	483.71
456.38	477.46
456.75	469.79
457.12	463.30
457.49	457.02
457.86	450.63
458.23	445.43
458.59	439.80
458.96	433.99
459.33	428.88
459.70	423.76
460.07	419.65
460.43	414.93
460.80	410.56
461.17	406.77
461.54	402.67
461.91	398.93
462.27	395.05
462.64	391.73
463.01	388.10
463.38	384.88
463.74	380.75
464.11	377.70
464.48	375.02
464.85	372.13
465.21	369.94
465.58	367.62
465.95	364.86
466.32	362.60
466.68	360.28
467.05	358.07
467.42	355.82
467.78	353.46
468.15	351.30
468.52	349.72
468.88	347.38
469.25	345.39
469.62	343.90
469.98	342.21
470.35	340.57
470.72	339.13
471.08	337.33
471.45	336.06
471.82	334.78
472.18	333.30
472.55	332.37
472.92	331.01
473.28	329.85
473.65	328.72
474.02	327.62
474.38	326.82
474.75	326.17
475.11	325.35
475.48	324.70
475.85	324.01
476.21	323.35
476.58	323.00
476.94	322.64
477.31	322.10
477.67	321.67
478.04	321.50
478.41	321.28
478.77	321.49
479.14	321.10
479.50	320.89
479.87	320.85
480.23	320.74
480.60	320.66
480.96	320.73
481.33	321.05
481.69	321.26
482.06	321.38
482.42	321.50
482.79	321.86
483.15	322.27
483.52	322.87
483.88	323.39
484.25	323.95
484.61	324.53
484.98	325.09
485.34	326.07
485.71	326.88
486.07	327.84
486.44	328.46
486.80	329.66
487.17	330.77
487.53	332.22
487.90	333.63
488.26	335.35
488.62	337.00
488.99	338.51
489.35	340.25
489.72	342.22
490.08	344.32
490.44	346.20
490.81	348.45
491.17	350.66
491.54	353.12
491.90	355.62
492.26	358.29
492.63	361.06
492.99	363.80
493.36	366.97
493.72	370.28
494.08	373.78
494.45	377.52
494.81	381.54
495.17	385.52
495.54	389.80
495.90	394.06
496.26	398.60
496.63	403.37
496.99	408.15
497.35	413.16
497.72	418.40
498.08	424.01
498.44	429.65
498.80	435.78
499.17	441.85
499.53	448.15
499.89	454.96
500.26	461.86
500.62	469.00
500.98	476.25
501.34	483.81
501.71	491.49
502.07	499.07
502.43	507.12
502.79	515.35
503.16	523.88
503.52	532.84
503.88	542.00
504.24	551.65
504.60	561.78
504.97	572.30
505.33	582.71
505.69	593.77
506.05	604.91
506.41	616.14
506.78	627.87
507.14	640.07
507.50	652.44
507.86	665.18
508.22	678.11
508.59	691.32
508.95	705.04
509.31	719.38
509.67	733.71
510.03	748.22
510.39	763.18
510.75	778.41
511.12	793.62
511.48	809.54
511.84	825.14
512.20	841.06
512.56	857.24
512.92	874.10
513.28	890.90
513.64	908.17
514.00	925.89
514.37	943.66
514.73	961.89
515.09	980.05
515.45	998.60
515.81	1017.17
516.17	1036.07
516.53	1054.68
516.89	1073.25
517.25	1092.78
517.61	1112.95
517.97	1133.15
518.33	1153.26
518.69	1173.64
519.05	1194.00
519.41	1214.95
519.77	1236.20
520.13	1256.75
520.49	1277.46
520.85	1300.01
521.21	1321.19
521.57	1342.57
521.93	1363.45
522.29	1384.52
522.65	1405.09
523.01	1426.20
523.37	1446.83
523.73	1467.83
524.09	1488.54
524.45	1509.40
524.81	1530.40
525.17	1551.11
525.53	1571.85
525.89	1592.63
526.25	1613.45
526.61	1633.84
526.97	1654.55
527.33	1675.77
527.68	1698.07
528.04	1719.48
528.40	1738.97
528.76	1759.95
529.12	1780.43
529.48	1801.46
529.84	1821.70
530.20	1843.29
530.56	1864.15
530.91	1885.51
531.27	1906.60
531.63	1927.54
531.99	1948.76
532.35	1969.36
532.71	1989.72
533.07	2010.57
533.42	2030.84
533.78	2050.90
534.14	2071.00
534.50	2090.40
534.86	2109.64
535.21	2127.33
535.57	2146.19
535.93	2164.28
536.29	2182.40
536.65	2200.47
537.00	2217.89
537.36	2235.76
537.72	2252.34
538.08	2269.54
538.44	2286.19
538.79	2302.54
539.15	2319.06
539.51	2334.58
539.87	2349.55
540.22	2363.65
540.58	2377.81
540.94	2391.25
541.29	2404.13
541.65	2416.95
542.01	2429.80
542.37	2440.68
542.72	2451.77
543.08	2462.57
543.44	2474.34
543.79	2484.55
544.15	2494.69
544.51	2505.15
544.87	2514.96
545.22	2523.87
545.58	2531.65
545.94	2539.11
546.29	2545.56
546.65	2552.17
547.01	2557.87
547.36	2563.71
547.72	2569.70
548.07	2574.05
548.43	2579.19
548.79	2584.10
549.14	2588.33
549.50	2591.96
549.86	2595.99
550.21	2599.80
550.57	2602.93
550.92	2604.60
551.28	2606.15
551.64	2608.59
551.99	2610.51
552.35	2612.04
552.70	2614.01
553.06	2615.52
553.41	2616.85
553.77	2618.88
554.13	2620.39
554.48	2622.43
554.84	2623.80
555.19	2624.77
555.55	2626.28
555.90	2625.32
556.26	2624.81
556.61	2623.38
556.97	2621.83
557.32	2621.37
557.68	2620.43
558.03	2619.16
558.39	2617.92
558.74	2617.19
559.10	2613.79
559.45	2610.65
559.81	2606.37
560.16	2601.71
560.52	2597.26
560.87	2593.29
561.23	2587.79
561.58	2581.90
561.94	2575.00
562.29	2567.71
562.64	2560.66
563.00	2552.36
563.35	2546.44
563.71	2539.57
564.06	2533.51
564.42	2527.00
564.77	2520.29
565.12	2512.56
565.48	2504.89
565.83	2496.83
566.19	2488.78
566.54	2481.10
566.89	2472.79
567.25	2465.07
567.60	2457.51
567.96	2449.77
568.31	2441.15
568.66	2432.57
569.02	2423.37
569.37	2415.28
569.72	2407.62
570.08	2398.44
570.43	2389.31
570.78	2380.08
571.14	2370.59
571.49	2360.22
571.84	2350.53
572.20	2339.25
572.55	2329.41
572.90	2318.28
573.26	2308.09
573.61	2296.74
573.96	2285.84
574.31	2273.88
574.67	2262.00
575.02	2249.27
575.37	2236.72
575.72	2223.44
576.08	2211.15
576.43	2198.68
576.78	2184.93
577.13	2171.20
577.49	2158.45
577.84	2146.46
578.19	2133.87
578.54	2121.55
578.90	2109.39
579.25	2097.06
579.60	2084.51
579.95	2071.28
580.30	2058.35
580.66	2044.90
581.01	2031.20
581.36	2016.87
581.71	2004.13
582.06	1991.05
582.42	1978.45
582.77	1965.43
583.12	1953.43
583.47	1940.99
583.82	1929.04
584.17	1917.34
584.53	1905.43
584.88	1892.30
585.23	1878.96
585.58	1864.83
585.93	1851.20
586.28	1837.79
586.63	1823.40
586.98	1809.24
587.34	1795.93
587.69	1782.50
588.04	1769.71
588.39	1757.63
588.74	1745.34
589.09	1733.06
589.44	1720.17
589.79	1708.36
590.14	1696.62
590.49	1684.65
590.84	1672.53
591.19	1660.39
591.54	1647.98
591.89	1635.56
592.25	1625.42
592.60	1614.07
592.95	1603.14
593.30	1591.12
593.65	1579.16
594.00	1567.43
594.35	1557.54
594.70	1545.72
595.05	1534.47
595.40	1522.31
595.75	1510.33
596.10	1499.18
596.45	1487.46
596.80	1476.91
597.15	1465.00
597.50	1453.09
597.85	1441.38
598.19	1429.65
598.54	1417.87
598.89	1406.60
599.24	1395.99
599.59	1384.07
599.94	1373.11
600.29	1362.26
600.64	1351.65
600.99	1340.54
601.34	1331.08
601.69	1319.67
602.04	1309.59
602.39	1299.65
602.74	1290.39
603.08	1280.98
603.43	1271.72
603.78	1262.05
604.13	1252.08
604.48	1242.33
604.83	1232.50
605.18	1222.85
605.53	1213.21
605.87	1203.85
606.22	1195.26
606.57	1185.88
606.92	1176.52
607.27	1167.35
607.62	1158.43
607.96	1150.05
608.31	1142.31
608.66	1133.56
609.01	1125.14
609.36	1116.45
609.70	1107.74
610.05	1098.71
610.40	1090.06
610.75	1081.28
611.10	1072.97
611.44	1064.27
611.79	1056.10
612.14	1048.38
612.49	1040.35
612.83	1032.76
613.18	1025.09
613.53	1017.05
613.88	1009.16
614.22	1001.45
614.57	993.58
614.92	985.68
615.27	978.14
615.61	970.20
615.96	962.27
616.31	954.60
616.65	947.64
617.00	940.26
617.35	932.97
617.70	925.64
618.04	918.24
618.39	911.24
618.74	904.92
619.08	897.99
619.43	890.75
619.78	883.66
620.12	876.44
620.47	869.35
620.82	862.19
621.16	855.33
621.51	848.79
621.85	842.13
622.20	835.59
622.55	828.77
622.89	822.37
623.24	815.90
623.59	809.45
623.93	802.94
624.28	796.77
624.62	790.92
624.97	785.28
625.32	779.48
625.66	773.31
626.01	766.91
626.35	761.23
626.70	755.50
627.04	750.11
627.39	744.46
627.73	739.05
628.08	733.85
628.43	728.30
628.77	722.80
629.12	717.57
629.46	712.59
629.81	707.65
630.15	702.66
630.50	697.82
630.84	692.92
631.19	688.09
631.53	683.44
631.88	678.45
632.22	673.35
632.57	668.77
632.91	664.09
633.26	659.55
633.60	654.83
633.95	650.20
634.29	645.35
634.64	640.90
634.98	636.13
635.32	631.56
635.67	627.46
636.01	623.25
636.36	618.96
636.70	614.83
637.05	610.63
637.39	606.62
637.73	602.52
638.08	598.69
638.42	594.43
638.77	590.05
639.11	585.67
639.45	581.36
639.80	576.98
640.14	572.87
640.49	568.85
640.83	565.08
641.17	561.40
641.52	557.72
641.86	554.17
642.20	551.02
642.55	547.34
642.89	543.69
643.23	540.10
643.58	536.81
643.92	533.20
644.26	529.92
644.61	526.65
644.95	523.22
645.29	519.63
645.64	516.45
645.98	513.29
646.32	510.48
646.66	507.44
647.01	504.40
647.35	501.63
647.69	498.73
648.04	495.85
648.38	492.95
648.72	490.03
649.06	487.05
649.41	484.03
649.75	481.25
650.09	478.41
650.43	475.62
650.78	472.71
651.12	469.91
651.46	467.05
651.80	464.15
652.14	461.52
652.49	458.96
652.83	456.42
653.17	453.76
653.51	450.90
653.85	448.41
654.20	445.99
654.54	443.25
654.88	440.67
655.22	438.32
655.56	435.81
655.90	433.41
656.25	431.05
656.59	428.66
656.93	426.38
657.27	424.30
657.61	421.85
657.95	419.64
658.29	417.50
658.64	415.33
658.98	413.14
659.32	410.79
659.66	408.54
660.00	406.40
660.34	404.40
660.68	402.42
661.02	400.53
661.36	398.45
661.70	396.37
662.05	394.45
662.39	392.42
662.73	390.70
663.07	389.05
663.41	387.14
663.75	385.18
664.09	383.21
664.43	381.23
664.77	379.55
665.11	377.69
665.45	375.85
665.79	374.16
666.13	372.45
666.47	370.79
666.81	369.04
667.15	367.34
667.49	365.80
667.83	364.43
668.17	362.80
668.51	361.28
668.85	359.96
669.19	358.82
669.53	357.25
669.87	355.67
670.21	354.05
670.55	352.68
670.89	351.58
671.23	350.28
671.57	348.84
671.91	347.42
672.25	346.10
672.58	344.98
672.92	343.50
673.26	342.20
673.60	341.03
673.94	339.90
674.28	338.64
674.62	337.49
674.96	336.07
675.30	334.92
675.64	333.78
675.97	332.55
676.31	331.17
676.65	330.03
676.99	329.00
677.33	327.84
677.67	326.75
678.01	325.40
678.34	324.36
678.68	323.35
679.02	322.26
679.36	321.29
679.70	320.20
680.04	319.29
680.37	318.25
680.71	317.24
681.05	316.34
681.39	315.44
681.73	314.55
682.06	313.68
682.40	312.79
682.74	311.95
683.08	311.17
683.42	310.19
683.75	309.34
684.09	308.44
684.43	307.67
684.77	306.80
685.10	306.04
685.44	305.28
685.78	304.46
686.12	303.80
686.45	303.05
686.79	302.16
687.13	301.59
687.46	300.87
687.80	300.31
688.14	299.53
688.48	298.76
688.81	297.83
689.15	297.24
689.49	296.41
689.82	295.67
690.16	294.86
690.50	294.29
690.83	293.57
691.17	292.80
691.51	292.16
691.84	291.61
692.18	290.87
692.52	290.13
692.85	289.55
693.19	289.07
693.52	288.41
693.86	287.89
694.20	287.22
694.53	286.68
694.87	286.01
695.21	285.35
695.54	284.84
695.88	284.30
696.21	283.56
696.55	283.01
696.88	282.42
697.22	281.81
697.56	281.22
697.89	280.71
698.23	280.26
698.56	279.68
698.90	279.20
699.23	278.76
699.57	278.26
699.90	277.67
700.24	277.02
700.58	276.53
700.91	276.06
701.25	275.95
701.58	275.84
701.92	275.37
702.25	274.94
702.59	274.39
702.92	274.00
703.26	273.56
703.59	273.14
703.93	273.09
704.26	272.75
704.60	272.39
704.93	271.92
705.26	271.38
705.60	271.00
705.93	270.58
706.27	270.30
706.60	270.02
706.94	269.80
707.27	269.37
707.61	269.00
707.94	268.59
708.27	267.68
708.61	266.89
708.94	266.48
709.28	266.14
709.61	265.75
709.94	265.38
710.28	264.99
710.61	264.61
710.95	263.81
711.28	263.63
711.61	263.14
711.95	262.89
712.28	262.54
712.61	262.22
712.95	262.00
713.28	261.72
713.61	261.24
713.95	260.74
714.28	260.39
714.61	259.98
714.95	259.60
715.28	259.24
715.61	258.81
715.95	258.48
716.28	258.05
716.61	257.83
716.95	257.49
717.28	257.23
717.61	256.90
717.94	256.53
718.28	255.99
718.61	255.70
718.94	255.30
719.27	255.06
719.61	254.82
719.94	254.37
720.27	253.92
720.60	253.60
720.94	253.37
721.27	253.22
721.60	253.10
721.93	252.85
722.27	252.91
722.60	252.85
722.93	252.62
723.26	252.49
723.59	252.15
723.93	251.96
724.26	251.73
724.59	251.54
724.92	251.42
725.25	251.38
725.59	251.15
725.92	250.99
726.25	250.73
726.58	250.50
726.91	250.28
727.24	250.05
727.57	249.89
727.91	249.62
728.24	249.44
728.57	249.13
728.90	249.04
729.23	248.60
729.56	248.55
729.89	248.32
730.22	248.05
730.55	247.88
730.89	247.68
731.22	247.40
731.55	247.21
731.88	247.11
732.21	246.75
732.54	246.58
732.87	246.42
733.20	246.33
733.53	246.24
733.86	246.13
734.19	245.95
734.52	245.85
734.85	246.07
735.18	245.83
735.51	245.86
735.84	245.71
736.17	245.67
736.50	245.30
736.83	245.73
737.16	245.68
737.49	245.59
737.82	245.46
738.15	245.53
738.48	245.31
738.81	245.13
739.14	244.98
739.47	244.86
739.80	244.70
740.13	244.61
740.46	244.33
740.79	244.12
741.12	244.03
741.45	243.88
741.78	243.50
742.11	243.53
742.44	243.26
742.77	243.20
743.10	243.06
743.43	242.91
743.75	242.29
744.08	242.77
744.41	242.61
744.74	242.40
745.07	242.15
745.40	242.16
745.73	242.29
746.06	242.20
746.39	242.17
746.71	242.03
747.04	241.87
747.37	241.73
747.70	241.73
748.03	241.59
748.36	241.57
748.68	241.40
749.01	241.09
749.34	240.96
749.67	240.84
750.00	240.76
750.33	241.09
750.65	241.05
750.98	240.28
751.31	240.15
751.64	240.12
751.97	240.23
752.29	240.03
752.62	239.67
752.95	239.56
753.28	239.39
753.60	239.23
753.93	239.16
754.26	239.16
754.59	238.89
754.91	238.74
755.24	238.51
755.57	238.50
755.90	238.40
756.22	238.24
756.55	237.97
756.88	237.71
757.20	237.21
757.53	236.89
757.86	236.76
758.19	236.68
758.51	236.56
758.84	236.21
759.17	236.05
759.49	235.94
759.82	236.07
760.15	235.98
760.47	235.92
760.80	235.67
761.13	235.59
761.45	235.40
761.78	235.32
762.11	235.25
762.43	235.03
762.76	234.91
763.08	234.85
763.41	234.83
763.74	234.83
764.06	234.70
764.39	234.67
764.71	234.59
765.04	234.45
765.37	234.33
765.69	234.24
766.02	234.18
766.34	234.03
766.67	233.66
767.00	233.61
767.32	233.80
767.65	234.02
767.97	233.86
768.30	233.92
768.62	233.76
768.95	233.63
769.27	233.58
769.60	233.60
769.92	233.48
770.25	233.30
770.57	233.10
770.90	233.02
771.22	232.87
771.55	232.83
771.87	232.78
772.20	232.73
772.52	233.10
772.85	233.59
773.17	233.50
773.50	233.48
773.82	233.37
774.15	233.05
774.47	232.70
774.80	232.63
775.12	232.59
775.45	232.63
775.77	232.59
776.09	232.58
776.42	232.54
776.74	232.69
777.07	232.67
777.39	232.64
777.72	232.63
778.04	232.70
778.36	232.60
778.69	232.58
779.01	232.62
779.33	232.17
779.66	231.71
779.98	231.74
780.31	231.74
780.63	231.93
780.95	232.00
781.28	231.98
781.60	231.94
781.92	231.88
782.25	231.77
782.57	231.80
782.89	231.69
783.22	231.59
783.54	231.43
783.86	231.49
784.19	231.45
784.51	231.50
784.83	231.40
785.16	231.47
785.48	231.45
785.80	231.34
786.12	231.36
786.45	231.25
786.77	231.21
787.09	231.19
787.42	230.96
787.74	230.94
788.06	230.93
788.38	230.87
788.71	230.84
789.03	230.89
789.35	230.88
789.67	230.82
789.99	230.84
790.32	230.84
790.64	230.84
790.96	231.27
791.28	231.12
791.61	231.12
791.93	231.13
792.25	231.15
792.57	231.52
792.89	231.37
793.21	231.41
793.54	231.40
793.86	231.34
794.18	231.39
794.50	231.36
794.82	231.39
795.14	231.50
795.47	231.58
795.79	231.58
796.11	231.46
796.43	231.46
796.75	231.47
797.07	231.46
797.39	231.40
797.71	231.04
798.04	231.11
798.36	231.08
798.68	231.04
799.00	231.01
799.32	230.66
799.64	230.75
799.96	230.76
800.28	230.82
800.60	230.74
800.92	230.72
801.24	230.62
801.56	230.62
801.89	230.42
802.21	230.32
802.53	230.10
802.85	230.12
803.17	230.30
803.49	230.12
803.81	230.04
804.13	229.95
804.45	229.82
804.77	229.84
805.09	229.84
805.41	229.82
805.73	229.70
806.05	229.58
806.37	229.48
806.69	229.32
807.01	229.30
807.33	229.37
807.65	229.13
807.97	229.29
808.28	229.17
808.60	229.18
808.92	229.12
809.24	229.49
809.56	229.43
809.88	229.28
810.20	229.34
810.52	229.37
810.84	229.37
811.16	229.30
811.48	229.24
811.80	229.36
812.12	229.22
812.43	229.30
812.75	229.34
813.07	229.29
813.39	229.35
813.71	229.18
814.03	229.09
814.35	229.14
814.67	228.96
814.98	228.91
815.30	228.96
815.62	228.83
815.94	228.45
816.26	228.67
816.58	228.50
816.89	228.55
817.21	228.41
817.53	228.40
817.85	228.43
