SpectraSuite Data File
++++++++++++++++++++++++++++++++++++
Date: Wed Sep 04 17:46:15 EDT 2013
User: lab3
Dark Spectrum Present: Yes
Reference Spectrum Present: No
Number of Sampled Component Spectra: 1
Spectrometers: USB2E7196
Integration Time (usec): 170000 (USB2E7196)
Spectra Averaged: 20 (USB2E7196)
Boxcar Smoothing: 10 (USB2E7196)
Correct for Electrical Dark: No (USB2E7196)
Strobe/Lamp Enabled: No (USB2E7196)
Correct for Detector Non-linearity: No (USB2E7196)
Correct for Stray Light: No (USB2E7196)
Number of Pixels in Processed Spectrum: 2048
>>>>>Begin Processed Spectral Data<<<<<
339.09	0.00
339.48	211.95
339.86	214.50
340.24	216.10
340.63	217.30
341.01	226.55
341.39	219.70
341.78	222.55
342.16	223.55
342.54	222.75
342.93	212.44
343.31	223.12
343.69	223.74
344.07	224.22
344.46	224.69
344.84	225.09
345.22	225.02
345.60	225.35
345.99	225.47
346.37	225.64
346.75	225.77
347.13	225.80
347.52	225.81
347.90	226.03
348.28	226.02
348.66	226.19
349.05	226.06
349.43	226.12
349.81	226.15
350.19	226.16
350.57	226.23
350.96	226.17
351.34	226.30
351.72	226.37
352.10	226.47
352.48	226.43
352.87	226.47
353.25	226.55
353.63	226.56
354.01	226.66
354.39	226.68
354.77	226.67
355.15	226.92
355.54	226.96
355.92	226.87
356.30	226.92
356.68	227.24
357.06	227.32
357.44	227.25
357.82	227.26
358.20	227.68
358.58	227.81
358.97	227.91
359.35	228.01
359.73	228.15
360.11	228.23
360.49	228.40
360.87	228.43
361.25	228.49
361.63	228.68
362.01	228.77
362.39	228.83
362.77	228.96
363.15	228.96
363.53	229.01
363.91	229.09
364.29	229.15
364.67	228.81
365.05	228.88
365.43	228.97
365.81	229.13
366.19	228.98
366.57	229.12
366.95	229.17
367.33	229.12
367.71	229.13
368.09	229.15
368.47	229.18
368.85	229.15
369.23	229.26
369.61	229.07
369.99	229.17
370.37	229.14
370.75	229.35
371.13	229.21
371.51	229.12
371.89	229.16
372.27	229.19
372.65	229.12
373.03	229.09
373.41	229.09
373.78	228.99
374.16	228.74
374.54	228.55
374.92	228.45
375.30	228.37
375.68	228.17
376.06	228.21
376.44	228.07
376.82	228.06
377.19	228.02
377.57	227.94
377.95	227.73
378.33	227.66
378.71	227.35
379.09	227.27
379.47	227.25
379.84	227.15
380.22	227.01
380.60	226.89
380.98	226.74
381.36	226.66
381.73	226.51
382.11	226.53
382.49	226.47
382.87	226.38
383.25	226.36
383.62	226.91
384.00	226.74
384.38	226.67
384.76	226.78
385.13	226.83
385.51	226.75
385.89	226.59
386.27	226.56
386.64	226.55
387.02	226.54
387.40	226.48
387.78	226.45
388.15	226.40
388.53	226.31
388.91	226.30
389.29	226.21
389.66	226.19
390.04	226.10
390.42	226.13
390.79	226.12
391.17	226.06
391.55	225.49
391.92	225.48
392.30	225.59
392.68	225.50
393.05	225.46
393.43	225.60
393.81	225.67
394.18	225.57
394.56	225.60
394.94	225.67
395.31	225.59
395.69	225.70
396.06	225.78
396.44	225.85
396.82	225.94
397.19	226.22
397.57	226.25
397.95	226.39
398.32	226.29
398.70	226.36
399.07	226.50
399.45	226.55
399.82	226.52
400.20	226.50
400.58	226.52
400.95	226.42
401.33	226.57
401.70	227.03
402.08	227.17
402.45	227.18
402.83	227.44
403.20	227.62
403.58	227.74
403.95	227.97
404.33	228.20
404.71	228.37
405.08	228.82
405.46	229.05
405.83	229.26
406.21	229.52
406.58	229.78
406.96	230.00
407.33	230.30
407.70	230.70
408.08	231.41
408.45	231.91
408.83	232.39
409.20	232.75
409.58	232.81
409.95	233.43
410.33	234.01
410.70	234.42
411.08	235.08
411.45	235.63
411.82	236.22
412.20	237.01
412.57	238.03
412.95	238.35
413.32	239.23
413.69	240.02
414.07	241.00
414.44	242.00
414.82	243.02
415.19	244.25
415.56	245.47
415.94	246.51
416.31	247.84
416.68	249.20
417.06	250.83
417.43	252.49
417.81	254.20
418.18	256.07
418.55	257.89
418.93	259.91
419.30	262.01
419.67	264.29
420.04	266.53
420.42	268.70
420.79	271.67
421.16	274.42
421.54	277.40
421.91	280.45
422.28	283.50
422.66	286.78
423.03	290.10
423.40	293.43
423.77	296.90
424.15	300.44
424.52	304.26
424.89	308.38
425.26	312.32
425.64	315.98
426.01	320.04
426.38	324.34
426.75	328.66
427.13	333.11
427.50	337.70
427.87	342.45
428.24	347.38
428.61	351.84
428.99	357.05
429.36	362.48
429.73	367.73
430.10	373.10
430.47	378.68
430.85	384.24
431.22	390.20
431.59	396.84
431.96	403.02
432.33	409.73
432.70	416.15
433.08	423.75
433.45	431.03
433.82	438.22
434.19	446.16
434.56	454.16
434.93	461.81
435.30	469.41
435.68	477.91
436.05	486.08
436.42	494.16
436.79	501.66
437.16	509.91
437.53	518.49
437.90	527.13
438.27	535.45
438.64	544.21
439.01	552.44
439.38	559.58
439.75	566.57
440.13	574.67
440.50	582.08
440.87	588.20
441.24	594.52
441.61	601.40
441.98	606.55
442.35	612.16
442.72	618.05
443.09	623.75
443.46	627.01
443.83	629.19
444.20	631.12
444.57	633.71
444.94	634.79
445.31	635.90
445.68	637.23
446.05	637.41
446.42	636.11
446.79	634.70
447.16	633.03
447.53	631.85
447.90	628.03
448.27	624.39
448.64	619.51
449.01	615.94
449.37	609.80
449.74	603.85
450.11	597.24
450.48	589.63
450.85	581.85
451.22	575.16
451.59	568.83
451.96	562.80
452.33	554.89
452.70	547.60
453.07	539.16
453.43	530.24
453.80	522.22
454.17	514.36
454.54	506.73
454.91	498.65
455.28	490.72
455.65	483.36
456.02	476.74
456.38	470.55
456.75	462.86
457.12	456.55
457.49	450.31
457.86	444.06
458.23	438.94
458.59	433.32
458.96	427.71
459.33	422.65
459.70	417.47
460.07	413.45
460.43	408.90
460.80	404.68
461.17	400.95
461.54	396.86
461.91	393.06
462.27	389.33
462.64	386.17
463.01	382.72
463.38	379.59
463.74	375.64
464.11	372.64
464.48	370.05
464.85	367.27
465.21	365.22
465.58	362.90
465.95	360.11
466.32	357.93
466.68	355.66
467.05	353.54
467.42	351.50
467.78	349.25
468.15	347.15
468.52	345.62
468.88	343.42
469.25	341.54
469.62	340.23
469.98	338.75
470.35	337.22
470.72	335.78
471.08	334.12
471.45	332.93
471.82	331.71
472.18	330.27
472.55	329.35
472.92	328.09
473.28	327.00
473.65	325.96
474.02	324.87
474.38	324.03
474.75	323.32
475.11	322.45
475.48	321.80
475.85	321.15
476.21	320.47
476.58	320.09
476.94	319.72
477.31	319.27
477.67	318.74
478.04	318.48
478.41	318.27
478.77	318.51
479.14	318.26
479.50	318.20
479.87	318.29
480.23	318.25
480.60	318.15
480.96	318.23
481.33	318.58
481.69	318.75
482.06	319.03
482.42	319.27
482.79	319.65
483.15	320.12
483.52	320.78
483.88	321.32
484.25	321.82
484.61	322.47
484.98	323.04
485.34	324.05
485.71	324.98
486.07	325.97
486.44	326.63
486.80	327.71
487.17	328.69
487.53	330.06
487.90	331.45
488.26	333.19
488.62	334.89
488.99	336.44
489.35	338.27
489.72	340.09
490.08	342.14
490.44	344.20
490.81	346.43
491.17	348.63
491.54	351.04
491.90	353.66
492.26	356.39
492.63	359.34
492.99	362.07
493.36	365.17
493.72	368.53
494.08	371.84
494.45	375.43
494.81	379.41
495.17	383.27
495.54	387.47
495.90	391.57
496.26	395.90
496.63	400.65
496.99	405.41
497.35	410.51
497.72	415.72
498.08	421.19
498.44	426.82
498.80	432.73
499.17	438.79
499.53	445.03
499.89	451.67
500.26	458.35
500.62	465.27
500.98	472.53
501.34	479.86
501.71	487.46
502.07	495.22
502.43	503.14
502.79	511.48
503.16	520.03
503.52	528.89
503.88	537.96
504.24	547.41
504.60	557.31
504.97	567.37
505.33	577.56
505.69	588.38
506.05	599.34
506.41	610.41
506.78	621.80
507.14	633.61
507.50	645.74
507.86	658.11
508.22	670.94
508.59	683.81
508.95	697.27
509.31	711.38
509.67	725.57
510.03	739.73
510.39	754.35
510.75	769.16
511.12	784.39
511.48	799.91
511.84	815.38
512.20	831.02
512.56	847.16
512.92	863.95
513.28	880.44
513.64	897.40
514.00	914.68
514.37	932.37
514.73	950.39
515.09	968.40
515.45	986.52
515.81	1004.82
516.17	1023.40
516.53	1041.88
516.89	1060.24
517.25	1079.20
517.61	1099.44
517.97	1119.22
518.33	1139.24
518.69	1159.25
519.05	1179.49
519.41	1199.95
519.77	1220.77
520.13	1241.11
520.49	1261.27
520.85	1283.17
521.21	1303.99
521.57	1324.74
521.93	1345.09
522.29	1365.77
522.65	1386.15
523.01	1406.80
523.37	1427.07
523.73	1447.48
524.09	1467.27
524.45	1487.48
524.81	1508.01
525.17	1527.85
525.53	1548.09
525.89	1568.24
526.25	1588.54
526.61	1608.62
526.97	1629.01
527.33	1649.73
527.68	1671.10
528.04	1691.86
528.40	1711.09
528.76	1731.45
529.12	1751.25
529.48	1771.62
529.84	1791.11
530.20	1811.51
530.56	1831.93
530.91	1852.36
531.27	1872.34
531.63	1892.70
531.99	1912.88
532.35	1932.45
532.71	1952.37
533.07	1972.32
533.42	1991.51
533.78	2010.85
534.14	2030.05
534.50	2048.78
534.86	2067.20
535.21	2083.97
535.57	2102.03
535.93	2119.15
536.29	2136.50
536.65	2154.59
537.00	2171.64
537.36	2188.58
537.72	2204.46
538.08	2220.83
538.44	2236.81
538.79	2252.92
539.15	2268.84
539.51	2284.05
539.87	2298.53
540.22	2312.09
540.58	2325.89
540.94	2338.85
541.29	2350.90
541.65	2363.05
542.01	2375.02
542.37	2385.15
542.72	2395.87
543.08	2406.03
543.44	2417.36
543.79	2426.95
544.15	2436.12
544.51	2445.43
544.87	2454.81
545.22	2463.04
545.58	2470.10
545.94	2477.03
546.29	2482.75
546.65	2488.46
547.01	2493.59
547.36	2498.77
547.72	2503.76
548.07	2507.73
548.43	2512.55
548.79	2516.50
549.14	2519.78
549.50	2523.14
549.86	2527.00
550.21	2530.75
550.57	2533.46
550.92	2534.31
551.28	2535.30
551.64	2537.20
551.99	2538.92
552.35	2540.25
552.70	2541.82
553.06	2543.23
553.41	2543.84
553.77	2545.60
554.13	2546.99
554.48	2548.25
554.84	2549.41
555.19	2550.11
555.55	2550.85
555.90	2549.79
556.26	2549.15
556.61	2547.67
556.97	2545.14
557.32	2544.14
557.68	2542.24
558.03	2540.35
558.39	2539.10
558.74	2538.03
559.10	2534.72
559.45	2530.99
559.81	2526.24
560.16	2521.04
560.52	2516.10
560.87	2511.85
561.23	2505.88
561.58	2499.66
561.94	2492.71
562.29	2485.06
562.64	2477.77
563.00	2469.60
563.35	2462.90
563.71	2456.03
564.06	2449.78
564.42	2443.21
564.77	2436.01
565.12	2428.59
565.48	2421.12
565.83	2413.31
566.19	2405.42
566.54	2397.40
566.89	2389.18
567.25	2381.35
567.60	2374.42
567.96	2366.84
568.31	2358.51
568.66	2350.11
569.02	2341.23
569.37	2333.01
569.72	2325.55
570.08	2316.43
570.43	2306.80
570.78	2297.72
571.14	2288.53
571.49	2278.24
571.84	2268.79
572.20	2258.08
572.55	2247.97
572.90	2237.27
573.26	2226.66
573.61	2215.26
573.96	2204.28
574.31	2192.67
574.67	2181.05
575.02	2168.33
575.37	2155.79
575.72	2142.92
576.08	2130.99
576.43	2118.68
576.78	2105.97
577.13	2092.58
577.49	2080.40
577.84	2068.84
578.19	2057.01
578.54	2044.62
578.90	2033.05
579.25	2021.00
579.60	2008.99
579.95	1996.26
580.30	1983.28
580.66	1970.14
581.01	1956.85
581.36	1943.17
581.71	1930.69
582.06	1918.20
582.42	1906.12
582.77	1893.65
583.12	1881.89
583.47	1869.73
583.82	1858.31
584.17	1846.59
584.53	1835.15
584.88	1822.68
585.23	1809.98
585.58	1796.31
585.93	1783.18
586.28	1769.81
586.63	1756.28
586.98	1742.47
587.34	1729.91
587.69	1717.19
588.04	1705.27
588.39	1693.82
588.74	1682.28
589.09	1670.43
589.44	1658.01
589.79	1646.35
590.14	1635.18
590.49	1623.56
590.84	1611.94
591.19	1599.85
591.54	1588.04
591.89	1576.13
592.25	1565.92
592.60	1555.02
592.95	1543.96
593.30	1532.51
593.65	1521.19
594.00	1509.50
594.35	1500.14
594.70	1488.71
595.05	1477.74
595.40	1465.65
595.75	1453.75
596.10	1442.69
596.45	1431.61
596.80	1421.10
597.15	1410.03
597.50	1398.37
597.85	1387.38
598.19	1376.18
598.54	1365.23
598.89	1354.29
599.24	1344.00
599.59	1332.58
599.94	1322.00
600.29	1311.75
600.64	1301.82
600.99	1291.69
601.34	1282.50
601.69	1271.49
602.04	1261.96
602.39	1252.45
602.74	1243.78
603.08	1235.03
603.43	1226.23
603.78	1216.77
604.13	1207.42
604.48	1198.10
604.83	1188.91
605.18	1179.51
605.53	1170.20
605.87	1161.21
606.22	1153.22
606.57	1144.25
606.92	1135.32
607.27	1126.67
607.62	1118.33
607.96	1110.08
608.31	1102.28
608.66	1094.18
609.01	1085.74
609.36	1077.43
609.70	1069.26
610.05	1060.82
610.40	1052.57
610.75	1044.04
611.10	1036.11
611.44	1027.82
611.79	1019.76
612.14	1012.14
612.49	1004.42
612.83	997.47
613.18	990.09
613.53	982.52
613.88	974.82
614.22	967.51
614.57	959.94
614.92	952.38
615.27	945.19
615.61	937.83
615.96	930.39
616.31	923.19
616.65	916.12
617.00	909.02
617.35	902.20
617.70	895.43
618.04	888.64
618.39	881.84
618.74	875.63
619.08	869.00
619.43	862.13
619.78	855.46
620.12	848.44
620.47	841.79
620.82	834.60
621.16	828.12
621.51	821.94
621.85	815.78
622.20	809.49
622.55	802.95
622.89	796.64
623.24	790.46
623.59	784.40
623.93	778.40
624.28	772.49
624.62	766.89
624.97	761.17
625.32	755.39
625.66	749.69
626.01	743.74
626.35	738.33
626.70	733.04
627.04	727.83
627.39	722.35
627.73	717.13
628.08	712.27
628.43	707.07
628.77	701.80
629.12	696.78
629.46	692.08
629.81	687.62
630.15	683.01
630.50	678.25
630.84	673.66
631.19	669.00
631.53	664.70
631.88	659.65
632.22	655.02
632.57	650.81
632.91	646.38
633.26	642.38
633.60	637.96
633.95	633.45
634.29	628.91
634.64	624.81
634.98	620.34
635.32	616.14
635.67	612.29
636.01	608.26
636.36	604.01
636.70	600.12
637.05	596.04
637.39	592.04
637.73	588.18
638.08	584.36
638.42	580.37
638.77	576.15
639.11	571.95
639.45	567.75
639.80	563.45
640.14	559.66
640.49	555.64
640.83	552.00
641.17	548.52
641.52	545.03
641.86	541.68
642.20	538.58
642.55	535.07
642.89	531.65
643.23	528.23
643.58	525.16
643.92	521.59
644.26	518.30
644.61	515.07
644.95	511.76
645.29	508.30
645.64	505.21
645.98	502.14
646.32	499.51
646.66	496.50
647.01	493.68
647.35	490.99
647.69	488.11
648.04	485.31
648.38	482.47
648.72	479.59
649.06	476.44
649.41	473.27
649.75	470.40
650.09	467.51
650.43	464.73
650.78	461.88
651.12	459.17
651.46	456.43
651.80	453.78
652.14	451.27
652.49	448.96
652.83	446.51
653.17	443.99
653.51	441.32
653.85	439.12
654.20	436.71
654.54	434.06
654.88	431.55
655.22	429.42
655.56	427.19
655.90	425.03
656.25	423.01
656.59	420.93
656.93	418.73
657.27	416.80
657.61	414.40
657.95	412.32
658.29	410.18
658.64	408.11
658.98	406.02
659.32	403.86
659.66	401.71
660.00	399.60
660.34	397.61
660.68	395.67
661.02	393.54
661.36	391.62
661.70	389.69
662.05	387.91
662.39	385.93
662.73	384.06
663.07	382.45
663.41	380.58
663.75	378.72
664.09	376.97
664.43	375.00
664.77	373.49
665.11	371.79
665.45	370.24
665.79	368.65
666.13	366.99
666.47	365.30
666.81	363.73
667.15	362.10
667.49	360.81
667.83	359.47
668.17	358.21
668.51	356.84
668.85	355.68
669.19	354.59
669.53	353.09
669.87	351.66
670.21	350.15
670.55	348.80
670.89	347.86
671.23	346.60
671.57	345.22
671.91	343.81
672.25	342.57
672.58	341.37
672.92	340.06
673.26	338.79
673.60	337.66
673.94	336.56
674.28	335.48
674.62	334.26
674.96	332.97
675.30	331.64
675.64	330.43
675.97	329.12
676.31	327.74
676.65	326.57
676.99	325.60
677.33	324.45
677.67	323.40
678.01	322.04
678.34	320.92
678.68	320.00
679.02	319.03
679.36	317.97
679.70	317.00
680.04	316.12
680.37	315.20
680.71	314.29
681.05	313.31
681.39	312.45
681.73	311.43
682.06	310.61
682.40	309.92
682.74	309.17
683.08	308.32
683.42	307.43
683.75	306.72
684.09	305.79
684.43	305.00
684.77	304.18
685.10	303.41
685.44	302.70
685.78	301.94
686.12	301.22
686.45	300.50
686.79	299.62
687.13	298.97
687.46	298.32
687.80	297.70
688.14	296.92
688.48	296.12
688.81	295.39
689.15	294.77
689.49	294.03
689.82	293.32
690.16	292.58
690.50	291.97
690.83	291.29
691.17	290.58
691.51	289.94
691.84	289.34
692.18	288.70
692.52	287.99
692.85	287.40
693.19	286.99
693.52	286.33
693.86	285.75
694.20	285.02
694.53	284.42
694.87	283.75
695.21	283.16
695.54	282.68
695.88	282.05
696.21	281.33
696.55	280.68
696.88	280.10
697.22	279.53
697.56	278.97
697.89	278.38
698.23	277.88
698.56	277.30
698.90	276.79
699.23	276.25
699.57	275.83
699.90	275.25
700.24	274.52
700.58	274.07
700.91	273.67
701.25	273.60
701.58	273.39
701.92	273.05
702.25	272.64
702.59	272.12
702.92	271.76
703.26	271.41
703.59	271.00
703.93	271.06
704.26	270.76
704.60	270.39
704.93	269.97
705.26	269.48
705.60	269.15
705.93	268.64
706.27	268.35
706.60	268.07
706.94	267.87
707.27	267.59
707.61	267.20
707.94	266.80
708.27	266.06
708.61	265.35
708.94	264.85
709.28	264.47
709.61	264.04
709.94	263.69
710.28	263.26
710.61	262.91
710.95	261.95
711.28	261.88
711.61	261.45
711.95	261.13
712.28	260.76
712.61	260.40
712.95	260.33
713.28	260.21
713.61	259.72
713.95	259.22
714.28	258.85
714.61	258.52
714.95	258.09
715.28	257.69
715.61	257.33
715.95	257.06
716.28	256.62
716.61	256.44
716.95	256.10
717.28	255.76
717.61	255.40
717.94	255.14
718.28	254.44
718.61	254.13
718.94	253.78
719.27	253.54
719.61	253.33
719.94	252.95
720.27	252.43
720.60	252.15
720.94	252.01
721.27	251.74
721.60	251.59
721.93	251.37
722.27	251.25
722.60	251.10
722.93	250.85
723.26	250.75
723.59	250.41
723.93	250.26
724.26	250.09
724.59	249.97
724.92	249.78
725.25	249.74
725.59	249.46
725.92	249.34
726.25	249.17
726.58	248.94
726.91	248.69
727.24	248.58
727.57	248.38
727.91	248.03
728.24	247.92
728.57	247.66
728.90	247.52
729.23	247.23
729.56	247.31
729.89	247.06
730.22	246.84
730.55	246.70
730.89	246.46
731.22	246.26
731.55	246.00
731.88	245.96
732.21	245.66
732.54	245.59
732.87	245.43
733.20	245.28
733.53	245.18
733.86	245.06
734.19	244.80
734.52	244.71
734.85	244.88
735.18	244.64
735.51	244.60
735.84	244.51
736.17	244.47
736.50	244.14
736.83	244.73
737.16	244.59
737.49	244.48
737.82	244.36
738.15	244.31
738.48	244.22
738.81	244.07
739.14	243.95
739.47	243.68
739.80	243.48
740.13	243.36
740.46	243.10
740.79	242.93
741.12	242.79
741.45	242.67
741.78	242.31
742.11	242.27
742.44	242.04
742.77	241.96
743.10	241.73
743.43	241.54
743.75	240.81
744.08	241.32
744.41	241.18
744.74	241.01
745.07	240.76
745.40	240.72
745.73	240.77
746.06	240.62
746.39	240.63
746.71	240.53
747.04	240.44
747.37	240.33
747.70	240.29
748.03	240.18
748.36	240.08
748.68	239.99
749.01	239.81
749.34	239.76
749.67	239.68
750.00	239.67
750.33	239.91
750.65	239.81
750.98	239.06
751.31	238.97
751.64	238.91
751.97	239.07
752.29	238.88
752.62	238.50
752.95	238.45
753.28	238.27
753.60	238.17
753.93	238.14
754.26	238.07
754.59	237.81
754.91	237.70
755.24	237.55
755.57	237.46
755.90	237.31
756.22	237.12
756.55	236.87
756.88	236.63
757.20	236.19
757.53	235.93
757.86	235.84
758.19	235.71
758.51	235.60
758.84	235.27
759.17	235.09
759.49	235.05
759.82	235.13
760.15	235.05
760.47	234.93
760.80	234.73
761.13	234.70
761.45	234.60
761.78	234.46
762.11	234.41
762.43	234.27
762.76	234.17
763.08	234.15
763.41	234.17
763.74	234.18
764.06	234.01
764.39	233.92
764.71	233.83
765.04	233.65
765.37	233.48
765.69	233.42
766.02	233.37
766.34	233.16
766.67	232.92
767.00	232.89
767.32	233.08
767.65	233.19
767.97	233.02
768.30	232.97
768.62	232.92
768.95	232.73
769.27	232.61
769.60	232.72
769.92	232.50
770.25	232.31
770.57	232.10
770.90	232.09
771.22	232.04
771.55	231.95
771.87	231.98
772.20	231.90
772.52	232.20
772.85	232.77
773.17	232.76
773.50	232.63
773.82	232.63
774.15	232.40
774.47	232.14
774.80	232.10
775.12	232.00
775.45	231.96
775.77	231.95
776.09	231.98
776.42	231.83
776.74	231.94
777.07	231.85
777.39	231.86
777.72	231.79
778.04	231.80
778.36	231.73
778.69	231.67
779.01	231.76
779.33	231.36
779.66	230.80
779.98	230.75
780.31	230.83
780.63	230.98
780.95	230.95
781.28	230.98
781.60	230.89
781.92	230.91
782.25	230.84
782.57	230.80
782.89	230.74
783.22	230.71
783.54	230.63
783.86	230.69
784.19	230.63
784.51	230.72
784.83	230.65
785.16	230.70
785.48	230.70
785.80	230.67
786.12	230.74
786.45	230.65
786.77	230.67
787.09	230.56
787.42	230.36
787.74	230.37
788.06	230.31
788.38	230.30
788.71	230.32
789.03	230.39
789.35	230.46
789.67	230.34
789.99	230.32
790.32	230.20
790.64	230.25
790.96	230.67
791.28	230.48
791.61	230.43
791.93	230.37
792.25	230.32
792.57	230.58
792.89	230.45
793.21	230.46
793.54	230.40
793.86	230.31
794.18	230.30
794.50	230.14
794.82	230.08
795.14	230.17
795.47	230.20
795.79	230.18
796.11	230.03
796.43	230.00
796.75	230.00
797.07	230.09
797.39	229.94
797.71	229.59
798.04	229.61
798.36	229.63
798.68	229.70
799.00	229.67
799.32	229.37
799.64	229.43
799.96	229.40
800.28	229.49
800.60	229.52
800.92	229.53
801.24	229.53
801.56	229.54
801.89	229.50
802.21	229.46
802.53	229.30
802.85	229.42
803.17	229.57
803.49	229.44
803.81	229.30
804.13	229.30
804.45	229.17
804.77	229.17
805.09	229.08
805.41	228.95
805.73	228.87
806.05	228.74
806.37	228.59
806.69	228.49
807.01	228.44
807.33	228.42
807.65	228.21
807.97	228.42
808.28	228.38
808.60	228.35
808.92	228.21
809.24	228.50
809.56	228.40
809.88	228.34
810.20	228.28
810.52	228.35
810.84	228.32
811.16	228.27
811.48	228.15
811.80	228.31
812.12	228.23
812.43	228.26
812.75	228.29
813.07	228.24
813.39	228.31
813.71	228.20
814.03	228.11
814.35	228.18
814.67	227.95
814.98	227.90
815.30	227.87
815.62	227.80
815.94	227.51
816.26	227.73
816.58	227.52
816.89	227.61
817.21	227.48
817.53	227.51
817.85	227.55
