SpectraSuite Data File
++++++++++++++++++++++++++++++++++++
Date: Wed Sep 04 17:59:01 EDT 2013
User: lab3
Dark Spectrum Present: Yes
Reference Spectrum Present: No
Number of Sampled Component Spectra: 1
Spectrometers: USB2E7196
Integration Time (usec): 170000 (USB2E7196)
Spectra Averaged: 20 (USB2E7196)
Boxcar Smoothing: 10 (USB2E7196)
Correct for Electrical Dark: No (USB2E7196)
Strobe/Lamp Enabled: No (USB2E7196)
Correct for Detector Non-linearity: No (USB2E7196)
Correct for Stray Light: No (USB2E7196)
Number of Pixels in Processed Spectrum: 2048
>>>>>Begin Processed Spectral Data<<<<<
339.09	0.00
339.48	213.55
339.86	213.95
340.24	216.30
340.63	218.15
341.01	225.85
341.39	221.40
341.78	223.05
342.16	224.10
342.54	223.25
342.93	212.81
343.31	223.55
343.69	224.09
344.07	224.60
344.46	225.11
344.84	225.50
345.22	225.52
345.60	225.74
345.99	225.89
346.37	226.00
346.75	226.15
347.13	226.18
347.52	226.23
347.90	226.49
348.28	226.46
348.66	226.57
349.05	226.41
349.43	226.51
349.81	226.56
350.19	226.58
350.57	226.61
350.96	226.70
351.34	226.76
351.72	226.87
352.10	226.95
352.48	226.94
352.87	226.93
353.25	226.99
353.63	227.06
354.01	227.11
354.39	227.16
354.77	227.20
355.15	227.41
355.54	227.45
355.92	227.27
356.30	227.32
356.68	227.75
357.06	227.80
357.44	227.74
357.82	227.82
358.20	228.37
358.58	228.46
358.97	228.51
359.35	228.68
359.73	228.87
360.11	228.92
360.49	229.02
360.87	229.07
361.25	229.19
361.63	229.40
362.01	229.45
362.39	229.48
362.77	229.54
363.15	229.57
363.53	229.67
363.91	229.80
364.29	229.83
364.67	229.40
365.05	229.44
365.43	229.62
365.81	229.70
366.19	229.52
366.57	229.70
366.95	229.73
367.33	229.62
367.71	229.57
368.09	229.68
368.47	229.67
368.85	229.74
369.23	229.80
369.61	229.62
369.99	229.75
370.37	229.84
370.75	230.13
371.13	229.99
371.51	229.90
371.89	229.89
372.27	229.94
372.65	229.89
373.03	229.91
373.41	229.79
373.78	229.68
374.16	229.43
374.54	229.24
374.92	229.09
375.30	229.07
375.68	228.91
376.06	228.85
376.44	228.76
376.82	228.73
377.19	228.60
377.57	228.55
377.95	228.33
378.33	228.27
378.71	227.86
379.09	227.85
379.47	227.83
379.84	227.69
380.22	227.57
380.60	227.49
380.98	227.35
381.36	227.23
381.73	227.12
382.11	227.11
382.49	227.03
382.87	226.91
383.25	226.84
383.62	227.38
384.00	227.27
384.38	227.24
384.76	227.27
385.13	227.39
385.51	227.27
385.89	227.25
386.27	227.16
386.64	227.23
387.02	227.18
387.40	227.06
387.78	227.17
388.15	227.13
388.53	227.02
388.91	227.01
389.29	227.00
389.66	227.02
390.04	226.95
390.42	227.02
390.79	227.05
391.17	227.04
391.55	226.50
391.92	226.48
392.30	226.53
392.68	226.46
393.05	226.39
393.43	226.40
393.81	226.41
394.18	226.30
394.56	226.29
394.94	226.40
395.31	226.40
395.69	226.45
396.06	226.59
396.44	226.69
396.82	226.66
397.19	226.96
397.57	226.93
397.95	227.07
398.32	227.03
398.70	227.14
399.07	227.28
399.45	227.35
399.82	227.42
400.20	227.37
400.58	227.42
400.95	227.33
401.33	227.58
401.70	228.05
402.08	228.24
402.45	228.39
402.83	228.58
403.20	228.77
403.58	228.96
403.95	229.14
404.33	229.36
404.71	229.62
405.08	229.99
405.46	230.24
405.83	230.39
406.21	230.66
406.58	230.94
406.96	231.15
407.33	231.49
407.70	231.91
408.08	232.78
408.45	233.26
408.83	233.84
409.20	234.19
409.58	234.33
409.95	234.89
410.33	235.38
410.70	235.75
411.08	236.37
411.45	236.84
411.82	237.42
412.20	238.15
412.57	239.19
412.95	239.54
413.32	240.52
413.69	241.45
414.07	242.41
414.44	243.47
414.82	244.59
415.19	245.78
415.56	246.88
415.94	247.83
416.31	249.17
416.68	250.49
417.06	252.12
417.43	253.72
417.81	255.44
418.18	257.30
418.55	259.27
418.93	261.40
419.30	263.52
419.67	265.78
420.04	268.20
420.42	270.48
420.79	273.55
421.16	276.29
421.54	279.27
421.91	282.35
422.28	285.41
422.66	288.70
423.03	292.16
423.40	295.59
423.77	299.14
424.15	302.83
424.52	306.73
424.89	310.95
425.26	314.92
425.64	318.78
426.01	322.89
426.38	327.33
426.75	331.78
427.13	336.38
427.50	341.18
427.87	345.95
428.24	350.86
428.61	355.36
428.99	360.73
429.36	366.23
429.73	371.77
430.10	377.41
430.47	383.14
430.85	388.71
431.22	394.94
431.59	401.91
431.96	408.21
432.33	415.15
432.70	421.90
433.08	429.82
433.45	437.38
433.82	444.85
434.19	453.13
434.56	461.38
434.93	469.21
435.30	477.02
435.68	485.92
436.05	494.43
436.42	502.92
436.79	510.75
437.16	519.23
437.53	528.06
437.90	536.65
438.27	545.20
438.64	554.28
439.01	562.63
439.38	569.85
439.75	577.05
440.13	585.12
440.50	592.80
440.87	598.97
441.24	605.45
441.61	612.70
441.98	617.86
442.35	623.59
442.72	629.61
443.09	635.45
443.46	638.71
443.83	640.93
444.20	642.86
444.57	645.40
444.94	646.55
445.31	647.68
445.68	649.05
446.05	649.29
446.42	647.97
446.79	646.56
447.16	644.88
447.53	643.62
447.90	639.92
448.27	635.96
448.64	631.00
449.01	627.08
449.37	620.58
449.74	614.36
450.11	607.49
450.48	599.65
450.85	591.61
451.22	584.76
451.59	578.18
451.96	571.77
452.33	563.60
452.70	556.05
453.07	547.25
453.43	537.98
453.80	529.50
454.17	521.35
454.54	513.61
454.91	505.21
455.28	497.12
455.65	489.58
456.02	482.73
456.38	476.36
456.75	468.56
457.12	462.15
457.49	455.78
457.86	449.46
458.23	444.26
458.59	438.45
458.96	432.62
459.33	427.55
459.70	422.48
460.07	418.41
460.43	413.76
460.80	409.42
461.17	405.87
461.54	401.85
461.91	398.07
462.27	394.19
462.64	390.98
463.01	387.29
463.38	384.07
463.74	380.07
464.11	377.05
464.48	374.44
464.85	371.54
465.21	369.41
465.58	366.98
465.95	364.05
466.32	361.91
466.68	359.64
467.05	357.30
467.42	355.13
467.78	352.72
468.15	350.56
468.52	349.05
468.88	346.69
469.25	344.78
469.62	343.32
469.98	341.68
470.35	340.18
470.72	338.80
471.08	337.07
471.45	335.77
471.82	334.45
472.18	332.95
472.55	331.90
472.92	330.56
473.28	329.45
473.65	328.46
474.02	327.30
474.38	326.40
474.75	325.68
475.11	324.75
475.48	324.26
475.85	323.62
476.21	322.90
476.58	322.46
476.94	322.16
477.31	321.60
477.67	321.15
478.04	320.82
478.41	320.65
478.77	320.95
479.14	320.75
479.50	320.67
479.87	320.75
480.23	320.77
480.60	320.79
480.96	320.79
481.33	321.06
481.69	321.33
482.06	321.54
482.42	321.81
482.79	322.25
483.15	322.64
483.52	323.24
483.88	323.73
484.25	324.29
484.61	324.78
484.98	325.43
485.34	326.39
485.71	327.28
486.07	328.17
486.44	328.73
486.80	329.80
487.17	330.90
487.53	332.28
487.90	333.69
488.26	335.39
488.62	337.05
488.99	338.63
489.35	340.35
489.72	342.33
490.08	344.27
490.44	346.16
490.81	348.37
491.17	350.65
491.54	353.04
491.90	355.64
492.26	358.48
492.63	361.34
492.99	364.07
493.36	367.20
493.72	370.57
494.08	373.98
494.45	377.72
494.81	381.70
495.17	385.41
495.54	389.68
495.90	393.85
496.26	398.33
496.63	403.00
496.99	407.90
497.35	412.83
497.72	418.26
498.08	423.89
498.44	429.53
498.80	435.46
499.17	441.61
499.53	447.89
499.89	454.51
500.26	461.40
500.62	468.46
500.98	475.89
501.34	483.39
501.71	491.11
502.07	498.93
502.43	507.10
502.79	515.54
503.16	524.23
503.52	533.30
503.88	542.61
504.24	552.39
504.60	562.18
504.97	572.57
505.33	582.91
505.69	594.09
506.05	605.21
506.41	616.58
506.78	628.18
507.14	640.26
507.50	652.59
507.86	665.08
508.22	678.01
508.59	691.21
508.95	704.80
509.31	718.94
509.67	733.29
510.03	747.60
510.39	762.59
510.75	777.61
511.12	792.76
511.48	808.44
511.84	824.15
512.20	840.29
512.56	856.65
512.92	873.50
513.28	890.15
513.64	907.51
514.00	925.05
514.37	942.95
514.73	961.22
515.09	979.44
515.45	998.09
515.81	1016.89
516.17	1035.46
516.53	1054.29
516.89	1073.01
517.25	1092.36
517.61	1112.47
517.97	1132.75
518.33	1152.67
518.69	1173.32
519.05	1194.00
519.41	1214.61
519.77	1235.74
520.13	1256.57
520.49	1277.39
520.85	1300.04
521.21	1320.93
521.57	1342.22
521.93	1362.83
522.29	1384.02
522.65	1404.80
523.01	1425.72
523.37	1446.04
523.73	1467.42
524.09	1487.99
524.45	1509.05
524.81	1530.00
525.17	1550.77
525.53	1571.19
525.89	1592.43
526.25	1613.10
526.61	1633.28
526.97	1654.78
527.33	1676.03
527.68	1697.91
528.04	1719.21
528.40	1738.51
528.76	1759.92
529.12	1780.46
529.48	1801.57
529.84	1821.47
530.20	1842.75
530.56	1863.75
530.91	1885.19
531.27	1905.51
531.63	1926.30
531.99	1946.88
532.35	1966.99
532.71	1987.39
533.07	2008.31
533.42	2028.27
533.78	2048.35
534.14	2068.47
534.50	2087.45
534.86	2106.97
535.21	2124.80
535.57	2143.48
535.93	2161.29
536.29	2179.15
536.65	2197.34
537.00	2215.12
537.36	2233.05
537.72	2249.77
538.08	2266.78
538.44	2283.38
538.79	2300.08
539.15	2317.00
539.51	2333.02
539.87	2348.13
540.22	2362.10
540.58	2376.30
540.94	2389.54
541.29	2402.28
541.65	2415.07
542.01	2427.56
542.37	2438.18
542.72	2449.35
543.08	2460.09
543.44	2471.89
543.79	2482.14
544.15	2492.31
544.51	2502.75
544.87	2512.25
545.22	2520.90
545.58	2528.97
545.94	2536.23
546.29	2542.98
546.65	2549.17
547.01	2554.75
547.36	2560.75
547.72	2566.56
548.07	2570.94
548.43	2576.44
548.79	2581.08
549.14	2585.22
549.50	2589.31
549.86	2593.22
550.21	2596.65
550.57	2600.02
550.92	2601.45
551.28	2602.65
551.64	2605.10
551.99	2606.76
552.35	2608.46
552.70	2610.55
553.06	2612.05
553.41	2613.57
553.77	2615.30
554.13	2617.04
554.48	2618.49
554.84	2619.92
555.19	2621.11
555.55	2622.63
555.90	2621.62
556.26	2620.95
556.61	2619.44
556.97	2617.16
557.32	2616.57
557.68	2615.65
558.03	2613.91
558.39	2612.92
558.74	2612.02
559.10	2608.56
559.45	2604.91
559.81	2600.49
560.16	2595.28
560.52	2590.59
560.87	2586.14
561.23	2580.53
561.58	2574.31
561.94	2567.75
562.29	2560.06
562.64	2553.14
563.00	2544.72
563.35	2538.50
563.71	2532.00
564.06	2525.98
564.42	2519.35
564.77	2512.36
565.12	2504.80
565.48	2497.15
565.83	2489.25
566.19	2481.48
566.54	2473.84
566.89	2465.81
567.25	2458.26
567.60	2451.39
567.96	2443.33
568.31	2435.33
568.66	2426.58
569.02	2417.41
569.37	2409.40
569.72	2402.20
570.08	2392.58
570.43	2383.18
570.78	2373.96
571.14	2364.29
571.49	2353.73
571.84	2344.26
572.20	2333.11
572.55	2323.12
572.90	2312.44
573.26	2301.86
573.61	2290.51
573.96	2279.18
574.31	2267.40
574.67	2255.71
575.02	2242.67
575.37	2230.10
575.72	2217.07
576.08	2205.11
576.43	2192.79
576.78	2179.48
577.13	2165.61
577.49	2153.08
577.84	2141.59
578.19	2129.28
578.54	2116.71
578.90	2104.89
579.25	2092.31
579.60	2080.09
579.95	2066.99
580.30	2053.69
580.66	2040.36
581.01	2026.84
581.36	2012.73
581.71	1999.89
582.06	1986.72
582.42	1974.24
582.77	1961.74
583.12	1949.54
583.47	1937.02
583.82	1924.97
584.17	1912.69
584.53	1900.59
584.88	1887.71
585.23	1874.18
585.58	1860.13
585.93	1846.96
586.28	1833.55
586.63	1819.61
586.98	1805.32
587.34	1791.92
587.69	1778.74
588.04	1766.17
588.39	1753.85
588.74	1741.63
589.09	1729.25
589.44	1716.47
589.79	1704.33
590.14	1692.42
590.49	1680.11
590.84	1667.98
591.19	1655.95
591.54	1643.82
591.89	1631.67
592.25	1621.63
592.60	1610.03
592.95	1598.49
593.30	1586.44
593.65	1574.37
594.00	1562.37
594.35	1552.48
594.70	1540.57
595.05	1529.16
595.40	1517.02
595.75	1505.14
596.10	1494.11
596.45	1482.69
596.80	1471.68
597.15	1460.23
597.50	1448.12
597.85	1436.76
598.19	1424.92
598.54	1412.92
598.89	1401.63
599.24	1391.08
599.59	1378.88
599.94	1368.08
600.29	1357.82
600.64	1347.56
600.99	1336.76
601.34	1327.17
601.69	1315.87
602.04	1306.02
602.39	1296.31
602.74	1287.08
603.08	1277.74
603.43	1268.27
603.78	1258.42
604.13	1248.81
604.48	1239.07
604.83	1229.67
605.18	1219.51
605.53	1210.13
605.87	1201.15
606.22	1192.45
606.57	1183.11
606.92	1173.82
607.27	1164.85
607.62	1156.06
607.96	1147.38
608.31	1139.29
608.66	1130.95
609.01	1122.53
609.36	1113.81
609.70	1105.14
610.05	1096.33
610.40	1087.60
610.75	1078.77
611.10	1070.42
611.44	1061.84
611.79	1053.45
612.14	1045.24
612.49	1037.55
612.83	1029.97
613.18	1022.09
613.53	1014.27
613.88	1006.18
614.22	998.34
614.57	990.19
614.92	982.02
615.27	974.57
615.61	966.72
615.96	958.88
616.31	951.19
616.65	944.19
617.00	936.72
617.35	929.28
617.70	922.31
618.04	915.20
618.39	908.22
618.74	901.63
619.08	894.89
619.43	887.93
619.78	880.81
620.12	873.60
620.47	866.75
620.82	859.43
621.16	852.55
621.51	846.37
621.85	840.15
622.20	833.49
622.55	826.51
622.89	820.16
623.24	813.77
623.59	807.41
623.93	800.92
624.28	794.79
624.62	789.21
624.97	783.26
625.32	777.48
625.66	771.43
626.01	765.40
626.35	759.63
626.70	754.04
627.04	748.91
627.39	743.37
627.73	737.91
628.08	732.82
628.43	727.35
628.77	721.56
629.12	716.10
629.46	711.35
629.81	706.69
630.15	701.81
630.50	696.90
630.84	692.22
631.19	687.47
631.53	682.93
631.88	677.59
632.22	672.57
632.57	667.99
632.91	663.46
633.26	658.99
633.60	654.32
633.95	649.60
634.29	644.57
634.64	640.01
634.98	635.44
635.32	631.00
635.67	627.09
636.01	622.95
636.36	618.80
636.70	614.69
637.05	610.37
637.39	606.18
637.73	602.13
638.08	597.89
638.42	593.57
638.77	589.08
639.11	584.78
639.45	580.51
639.80	576.15
640.14	572.06
640.49	567.92
640.83	564.13
641.17	560.60
641.52	556.94
641.86	553.48
642.20	550.07
642.55	546.39
642.89	542.70
643.23	539.19
643.58	535.94
643.92	532.26
644.26	528.84
644.61	525.71
644.95	522.16
645.29	518.73
645.64	515.65
645.98	512.60
646.32	509.74
646.66	506.68
647.01	503.60
647.35	500.77
647.69	497.92
648.04	494.96
648.38	492.06
648.72	489.16
649.06	485.96
649.41	482.85
649.75	479.84
650.09	476.98
650.43	474.13
650.78	471.22
651.12	468.30
651.46	465.53
651.80	462.62
652.14	459.99
652.49	457.47
652.83	454.90
653.17	452.14
653.51	449.30
653.85	446.89
654.20	444.34
654.54	441.64
654.88	439.10
655.22	436.93
655.56	434.42
655.90	432.07
656.25	429.85
656.59	427.58
656.93	425.40
657.27	423.33
657.61	420.93
657.95	418.57
658.29	416.48
658.64	414.40
658.98	412.19
659.32	409.95
659.66	407.72
660.00	405.50
660.34	403.62
660.68	401.74
661.02	399.72
661.36	397.81
661.70	395.76
662.05	393.76
662.39	391.73
662.73	389.97
663.07	388.37
663.41	386.50
663.75	384.56
664.09	382.71
664.43	380.65
664.77	378.95
665.11	377.20
665.45	375.48
665.79	373.75
666.13	372.00
666.47	370.32
666.81	368.63
667.15	366.95
667.49	365.39
667.83	364.01
668.17	362.53
668.51	361.03
668.85	359.79
669.19	358.68
669.53	357.17
669.87	355.54
670.21	353.91
670.55	352.68
670.89	351.48
671.23	350.13
671.57	348.85
671.91	347.50
672.25	346.27
672.58	345.14
672.92	343.75
673.26	342.47
673.60	341.34
673.94	340.24
674.28	339.12
674.62	338.00
674.96	336.66
675.30	335.43
675.64	334.24
675.97	333.00
676.31	331.64
676.65	330.42
676.99	329.52
677.33	328.35
677.67	327.18
678.01	325.99
678.34	324.96
678.68	323.90
679.02	322.91
679.36	321.84
679.70	320.75
680.04	319.77
680.37	318.96
680.71	317.94
681.05	317.06
681.39	316.21
681.73	315.15
682.06	314.22
682.40	313.35
682.74	312.52
683.08	311.83
683.42	310.85
683.75	310.05
684.09	308.99
684.43	308.17
684.77	307.29
685.10	306.54
685.44	305.68
685.78	304.85
686.12	303.98
686.45	303.16
686.79	302.27
687.13	301.53
687.46	300.72
687.80	300.04
688.14	299.20
688.48	298.45
688.81	297.75
689.15	297.14
689.49	296.35
689.82	295.63
690.16	294.66
690.50	294.01
690.83	293.29
691.17	292.66
691.51	292.05
691.84	291.43
692.18	290.61
692.52	289.95
692.85	289.42
693.19	288.97
693.52	288.31
693.86	287.73
694.20	287.07
694.53	286.46
694.87	285.85
695.21	285.22
695.54	284.52
695.88	283.84
696.21	283.09
696.55	282.51
696.88	281.87
697.22	281.35
697.56	280.81
697.89	280.21
698.23	279.67
698.56	279.05
698.90	278.58
699.23	278.08
699.57	277.59
699.90	276.97
700.24	276.36
700.58	275.92
700.91	275.53
701.25	275.44
701.58	275.32
701.92	274.87
702.25	274.37
702.59	273.93
702.92	273.54
703.26	273.22
703.59	272.85
703.93	272.77
704.26	272.34
704.60	271.99
704.93	271.53
705.26	271.02
705.60	270.74
705.93	270.20
706.27	269.99
706.60	269.70
706.94	269.53
707.27	269.09
707.61	268.73
707.94	268.29
708.27	267.50
708.61	266.71
708.94	266.35
709.28	266.10
709.61	265.73
709.94	265.33
710.28	264.91
710.61	264.50
710.95	263.75
711.28	263.69
711.61	263.27
711.95	263.03
712.28	262.68
712.61	262.36
712.95	262.24
713.28	262.01
713.61	261.57
713.95	261.13
714.28	260.81
714.61	260.37
714.95	259.98
715.28	259.64
715.61	259.33
715.95	258.98
716.28	258.53
716.61	258.26
716.95	257.98
717.28	257.62
717.61	257.34
717.94	257.11
718.28	256.41
718.61	256.07
718.94	255.77
719.27	255.47
719.61	255.19
719.94	254.85
720.27	254.36
720.60	254.12
720.94	253.85
721.27	253.70
721.60	253.58
721.93	253.31
722.27	253.23
722.60	253.04
722.93	252.74
723.26	252.61
723.59	252.26
723.93	252.12
724.26	251.97
724.59	251.76
724.92	251.54
725.25	251.54
725.59	251.38
725.92	251.20
726.25	251.01
726.58	250.75
726.91	250.59
727.24	250.45
727.57	250.24
727.91	249.94
728.24	249.75
728.57	249.53
728.90	249.43
729.23	249.08
729.56	249.12
729.89	248.98
730.22	248.73
730.55	248.54
730.89	248.34
731.22	248.10
731.55	247.86
731.88	247.63
732.21	247.40
732.54	247.16
732.87	246.98
733.20	246.85
733.53	246.72
733.86	246.49
734.19	246.31
734.52	246.25
734.85	246.36
735.18	246.08
735.51	246.03
735.84	245.89
736.17	245.87
736.50	245.42
736.83	245.85
737.16	245.71
737.49	245.65
737.82	245.44
738.15	245.32
738.48	245.21
738.81	245.07
739.14	244.86
739.47	244.70
739.80	244.50
740.13	244.42
740.46	244.19
740.79	243.98
741.12	243.79
741.45	243.57
741.78	243.23
742.11	243.22
742.44	243.00
742.77	242.88
743.10	242.67
743.43	242.55
743.75	241.82
744.08	242.36
744.41	242.20
744.74	242.04
745.07	241.79
745.40	241.65
745.73	241.70
746.06	241.59
746.39	241.53
746.71	241.38
747.04	241.12
747.37	240.97
747.70	240.90
748.03	240.78
748.36	240.77
748.68	240.62
749.01	240.40
749.34	240.25
749.67	240.15
750.00	240.03
750.33	240.28
750.65	240.24
750.98	239.55
751.31	239.42
751.64	239.33
751.97	239.58
752.29	239.50
752.62	239.21
752.95	239.11
753.28	238.89
753.60	238.77
753.93	238.80
754.26	238.78
754.59	238.50
754.91	238.41
755.24	238.12
755.57	238.06
755.90	237.89
756.22	237.73
756.55	237.47
756.88	237.46
757.20	237.01
757.53	236.75
757.86	236.57
758.19	236.46
758.51	236.32
758.84	235.95
759.17	235.80
759.49	235.68
759.82	235.74
760.15	235.65
760.47	235.51
760.80	235.31
761.13	235.29
761.45	235.30
761.78	235.13
762.11	235.13
762.43	234.97
762.76	234.99
763.08	234.99
763.41	234.98
763.74	234.79
764.06	234.71
764.39	234.69
764.71	234.58
765.04	234.45
765.37	234.40
765.69	234.36
766.02	234.25
766.34	234.23
766.67	233.97
767.00	234.00
767.32	234.24
767.65	234.45
767.97	234.30
768.30	234.14
768.62	234.10
768.95	233.95
769.27	233.93
769.60	233.88
769.92	233.75
770.25	233.68
770.57	233.57
770.90	233.50
771.22	233.42
771.55	233.39
771.87	233.41
772.20	233.29
772.52	233.54
772.85	234.09
773.17	234.04
773.50	234.04
773.82	233.90
774.15	233.62
774.47	233.24
774.80	233.15
775.12	233.13
775.45	233.09
775.77	233.08
776.09	233.02
776.42	232.92
776.74	233.00
777.07	232.87
777.39	232.82
777.72	232.74
778.04	232.75
778.36	232.67
778.69	232.60
779.01	232.61
779.33	232.24
779.66	231.59
779.98	231.51
780.31	231.45
780.63	231.63
780.95	231.67
781.28	231.71
781.60	231.64
781.92	231.61
782.25	231.50
782.57	231.49
782.89	231.36
783.22	231.37
783.54	231.24
783.86	231.29
784.19	231.24
784.51	231.38
784.83	231.23
785.16	231.17
785.48	231.15
785.80	231.10
786.12	231.03
786.45	231.06
786.77	231.00
787.09	230.96
787.42	230.73
787.74	230.72
788.06	230.67
788.38	230.63
788.71	230.59
789.03	230.64
789.35	230.63
789.67	230.55
789.99	230.48
790.32	230.37
790.64	230.32
790.96	230.72
791.28	230.53
791.61	230.46
791.93	230.50
792.25	230.44
792.57	230.71
792.89	230.61
793.21	230.53
793.54	230.45
793.86	230.32
794.18	230.31
794.50	230.23
794.82	230.23
795.14	230.25
795.47	230.39
795.79	230.33
796.11	230.12
796.43	230.17
796.75	230.13
797.07	230.17
797.39	230.19
797.71	229.81
798.04	229.81
798.36	229.87
798.68	229.85
799.00	229.96
799.32	229.71
799.64	229.84
799.96	229.88
800.28	229.98
800.60	229.98
800.92	230.10
801.24	230.02
801.56	230.00
801.89	229.96
802.21	229.94
802.53	229.87
802.85	230.06
803.17	230.30
803.49	230.18
803.81	230.11
804.13	230.09
804.45	229.98
804.77	230.01
805.09	229.98
805.41	229.92
805.73	229.79
806.05	229.73
806.37	229.67
806.69	229.59
807.01	229.56
807.33	229.67
807.65	229.46
807.97	229.64
808.28	229.52
808.60	229.48
808.92	229.39
809.24	229.72
809.56	229.65
809.88	229.49
810.20	229.57
810.52	229.67
810.84	229.49
811.16	229.49
811.48	229.35
811.80	229.54
812.12	229.49
812.43	229.53
812.75	229.60
813.07	229.52
813.39	229.58
813.71	229.51
814.03	229.38
814.35	229.36
814.67	229.17
814.98	229.12
815.30	229.15
815.62	229.06
815.94	228.65
816.26	228.83
816.58	228.66
816.89	228.67
817.21	228.47
817.53	228.55
817.85	228.48
