SpectraSuite Data File
++++++++++++++++++++++++++++++++++++
Date: Wed Sep 04 17:42:36 EDT 2013
User: lab3
Dark Spectrum Present: Yes
Reference Spectrum Present: No
Number of Sampled Component Spectra: 1
Spectrometers: USB2E7196
Integration Time (usec): 170000 (USB2E7196)
Spectra Averaged: 20 (USB2E7196)
Boxcar Smoothing: 10 (USB2E7196)
Correct for Electrical Dark: No (USB2E7196)
Strobe/Lamp Enabled: No (USB2E7196)
Correct for Detector Non-linearity: No (USB2E7196)
Correct for Stray Light: No (USB2E7196)
Number of Pixels in Processed Spectrum: 2048
>>>>>Begin Processed Spectral Data<<<<<
339.09	0.00
339.48	213.85
339.86	214.00
340.24	216.40
340.63	216.55
341.01	225.90
341.39	220.10
341.78	222.25
342.16	223.60
342.54	223.80
342.93	212.28
343.31	223.00
343.69	223.57
344.07	224.03
344.46	224.55
344.84	224.98
345.22	224.93
345.60	225.25
345.99	225.39
346.37	225.46
346.75	225.47
347.13	225.56
347.52	225.70
347.90	225.87
348.28	225.85
348.66	225.88
349.05	225.70
349.43	225.75
349.81	225.79
350.19	225.80
350.57	225.80
350.96	225.90
351.34	225.96
351.72	225.96
352.10	226.06
352.48	226.00
352.87	226.04
353.25	226.13
353.63	226.08
354.01	226.15
354.39	226.24
354.77	226.34
355.15	226.53
355.54	226.46
355.92	226.34
356.30	226.43
356.68	226.81
357.06	226.92
357.44	226.89
357.82	226.97
358.20	227.42
358.58	227.42
358.97	227.48
359.35	227.61
359.73	227.81
360.11	227.88
360.49	227.92
360.87	228.02
361.25	228.12
361.63	228.41
362.01	228.49
362.39	228.51
362.77	228.64
363.15	228.59
363.53	228.72
363.91	228.83
364.29	228.89
364.67	228.48
365.05	228.52
365.43	228.63
365.81	228.66
366.19	228.53
366.57	228.84
366.95	228.88
367.33	228.79
367.71	228.72
368.09	228.87
368.47	228.91
368.85	228.87
369.23	229.00
369.61	228.75
369.99	228.89
370.37	228.97
370.75	229.15
371.13	229.14
371.51	229.04
371.89	229.04
372.27	229.01
372.65	228.99
373.03	228.99
373.41	228.90
373.78	228.82
374.16	228.54
374.54	228.30
374.92	228.19
375.30	228.18
375.68	228.06
376.06	227.96
376.44	227.84
376.82	227.74
377.19	227.59
377.57	227.51
377.95	227.24
378.33	227.04
378.71	226.68
379.09	226.68
379.47	226.64
379.84	226.47
380.22	226.26
380.60	226.16
380.98	226.10
381.36	226.10
381.73	225.95
382.11	225.98
382.49	225.89
382.87	225.72
383.25	225.63
383.62	226.09
384.00	225.91
384.38	225.87
384.76	225.95
385.13	226.04
385.51	226.01
385.89	225.94
386.27	225.98
386.64	226.01
387.02	225.84
387.40	225.77
387.78	225.81
388.15	225.88
388.53	225.77
388.91	225.61
389.29	225.49
389.66	225.59
390.04	225.54
390.42	225.59
390.79	225.64
391.17	225.54
391.55	224.96
391.92	224.98
392.30	225.10
392.68	224.98
393.05	224.98
393.43	224.98
393.81	225.05
394.18	225.02
394.56	224.99
394.94	225.20
395.31	225.12
395.69	225.22
396.06	225.34
396.44	225.46
396.82	225.60
397.19	225.91
397.57	225.86
397.95	225.97
398.32	225.93
398.70	226.05
399.07	226.25
399.45	226.29
399.82	226.35
400.20	226.28
400.58	226.37
400.95	226.21
401.33	226.41
401.70	226.85
402.08	226.96
402.45	227.14
402.83	227.31
403.20	227.51
403.58	227.59
403.95	227.84
404.33	227.99
404.71	228.12
405.08	228.44
405.46	228.72
405.83	228.90
406.21	229.11
406.58	229.36
406.96	229.57
407.33	229.90
407.70	230.26
408.08	231.06
408.45	231.42
408.83	231.92
409.20	232.20
409.58	232.31
409.95	232.80
410.33	233.25
410.70	233.61
411.08	234.25
411.45	234.80
411.82	235.20
412.20	235.95
412.57	236.82
412.95	237.07
413.32	237.80
413.69	238.51
414.07	239.32
414.44	240.16
414.82	241.12
415.19	242.20
415.56	243.15
415.94	243.85
416.31	245.16
416.68	246.29
417.06	247.61
417.43	248.98
417.81	250.39
418.18	251.87
418.55	253.43
418.93	255.06
419.30	256.80
419.67	258.67
420.04	260.51
420.42	262.46
420.79	265.21
421.16	267.50
421.54	270.00
421.91	272.57
422.28	275.10
422.66	277.66
423.03	280.57
423.40	283.33
423.77	286.31
424.15	289.16
424.52	292.24
424.89	295.84
425.26	299.07
425.64	302.25
426.01	305.70
426.38	309.25
426.75	313.02
427.13	316.88
427.50	320.89
427.87	324.95
428.24	328.96
428.61	332.47
428.99	336.90
429.36	341.44
429.73	345.81
430.10	350.38
430.47	355.28
430.85	359.92
431.22	365.14
431.59	370.86
431.96	376.03
432.33	381.86
432.70	387.36
433.08	393.83
433.45	400.03
433.82	406.09
434.19	413.01
434.56	419.80
434.93	426.14
435.30	432.41
435.68	439.75
436.05	446.66
436.42	453.56
436.79	459.88
437.16	466.95
437.53	474.30
437.90	481.57
438.27	488.61
438.64	495.94
439.01	502.74
439.38	508.53
439.75	514.62
440.13	521.22
440.50	527.50
440.87	532.70
441.24	537.94
441.61	543.85
441.98	548.14
442.35	552.89
442.72	557.94
443.09	562.91
443.46	565.54
443.83	567.64
444.20	569.47
444.57	571.97
444.94	572.73
445.31	573.67
445.68	574.90
446.05	575.06
446.42	574.08
446.79	573.00
447.16	571.84
447.53	570.85
447.90	567.98
448.27	564.98
448.64	561.01
449.01	558.04
449.37	553.08
449.74	548.07
450.11	542.70
450.48	536.26
450.85	529.68
451.22	524.12
451.59	518.73
451.96	513.55
452.33	506.70
452.70	500.66
453.07	493.57
453.43	485.99
453.80	479.06
454.17	472.39
454.54	466.07
454.91	459.27
455.28	452.61
455.65	446.39
456.02	440.82
456.38	435.52
456.75	429.16
457.12	423.70
457.49	418.42
457.86	412.94
458.23	408.78
458.59	404.13
458.96	399.34
459.33	395.08
459.70	390.85
460.07	387.51
460.43	383.68
460.80	380.23
461.17	377.24
461.54	373.97
461.91	370.90
462.27	367.57
462.64	364.94
463.01	362.06
463.38	359.48
463.74	356.05
464.11	353.57
464.48	351.39
464.85	349.02
465.21	347.33
465.58	345.50
465.95	343.11
466.32	341.33
466.68	339.52
467.05	337.72
467.42	335.88
467.78	333.86
468.15	332.15
468.52	330.80
468.88	328.97
469.25	327.42
469.62	326.23
469.98	325.00
470.35	323.75
470.72	322.48
471.08	320.99
471.45	320.05
471.82	319.03
472.18	317.82
472.55	317.08
472.92	315.95
473.28	315.03
473.65	314.16
474.02	313.15
474.38	312.42
474.75	311.84
475.11	311.21
475.48	310.82
475.85	310.31
476.21	309.77
476.58	309.36
476.94	309.19
477.31	308.80
477.67	308.52
478.04	308.28
478.41	308.12
478.77	308.36
479.14	308.08
479.50	308.07
479.87	308.16
480.23	308.11
480.60	308.24
480.96	308.34
481.33	308.70
481.69	309.06
482.06	309.34
482.42	309.55
482.79	309.79
483.15	310.21
483.52	310.84
483.88	311.28
484.25	311.84
484.61	312.35
484.98	312.95
485.34	313.89
485.71	314.75
486.07	315.72
486.44	316.32
486.80	317.43
487.17	318.45
487.53	319.65
487.90	320.97
488.26	322.48
488.62	324.05
488.99	325.42
489.35	327.07
489.72	328.77
490.08	330.55
490.44	332.44
490.81	334.47
491.17	336.45
491.54	338.80
491.90	341.02
492.26	343.43
492.63	345.94
492.99	348.52
493.36	351.42
493.72	354.46
494.08	357.68
494.45	360.99
494.81	364.55
495.17	368.08
495.54	371.86
495.90	375.60
496.26	379.55
496.63	383.86
496.99	388.11
497.35	392.78
497.72	397.63
498.08	402.60
498.44	407.67
498.80	413.11
499.17	418.51
499.53	424.26
499.89	430.21
500.26	436.42
500.62	442.61
500.98	449.16
501.34	455.79
501.71	462.63
502.07	469.41
502.43	476.55
502.79	484.08
503.16	491.85
503.52	499.81
503.88	507.97
504.24	516.39
504.60	525.14
504.97	534.07
505.33	543.03
505.69	552.73
506.05	562.39
506.41	572.12
506.78	582.32
507.14	592.73
507.50	603.34
507.86	614.20
508.22	625.51
508.59	636.70
508.95	648.44
509.31	660.68
509.67	673.05
510.03	685.20
510.39	697.59
510.75	710.10
511.12	722.89
511.48	736.06
511.84	749.35
512.20	762.82
512.56	776.40
512.92	790.47
513.28	804.34
513.64	818.78
514.00	833.29
514.37	847.84
514.73	862.77
515.09	877.79
515.45	892.99
515.81	908.08
516.17	923.33
516.53	938.39
516.89	953.19
517.25	968.88
517.61	985.39
517.97	1001.95
518.33	1018.33
518.69	1034.95
519.05	1051.40
519.41	1068.12
519.77	1085.04
520.13	1101.53
520.49	1118.06
520.85	1136.12
521.21	1152.69
521.57	1169.38
521.93	1185.76
522.29	1202.69
522.65	1218.80
523.01	1235.11
523.37	1251.14
523.73	1267.51
524.09	1283.32
524.45	1299.33
524.81	1315.32
525.17	1330.81
525.53	1346.35
525.89	1362.05
526.25	1377.69
526.61	1392.93
526.97	1408.42
527.33	1423.94
527.68	1440.46
528.04	1456.17
528.40	1470.49
528.76	1486.03
529.12	1501.29
529.48	1516.58
529.84	1530.83
530.20	1546.46
530.56	1561.52
530.91	1576.60
531.27	1591.05
531.63	1605.79
531.99	1620.60
532.35	1634.71
532.71	1649.06
533.07	1663.66
533.42	1677.89
533.78	1692.04
534.14	1705.79
534.50	1718.85
534.86	1732.26
535.21	1743.90
535.57	1756.30
535.93	1768.19
536.29	1779.94
536.65	1791.97
537.00	1803.71
537.36	1815.39
537.72	1825.92
538.08	1837.07
538.44	1847.67
538.79	1858.40
539.15	1869.22
539.51	1879.41
539.87	1888.86
540.22	1897.65
540.58	1906.38
540.94	1914.14
541.29	1921.33
541.65	1929.00
542.01	1936.55
542.37	1942.14
542.72	1948.12
543.08	1953.97
543.44	1960.21
543.79	1965.70
544.15	1970.74
544.51	1975.84
544.87	1980.64
545.22	1984.76
545.58	1988.10
545.94	1991.17
546.29	1993.49
546.65	1995.60
547.01	1997.23
547.36	1999.14
547.72	2000.59
548.07	2000.97
548.43	2002.27
548.79	2003.06
549.14	2003.41
549.50	2003.47
549.86	2003.98
550.21	2004.33
550.57	2004.18
550.92	2003.05
551.28	2001.40
551.64	2000.76
551.99	1999.71
552.35	1998.27
552.70	1997.58
553.06	1996.48
553.41	1995.15
553.77	1994.33
554.13	1993.36
554.48	1992.32
554.84	1991.03
555.19	1989.62
555.55	1988.56
555.90	1986.00
556.26	1983.17
556.61	1979.64
556.97	1975.85
557.32	1973.18
557.68	1970.36
558.03	1967.50
558.39	1964.45
558.74	1961.81
559.10	1957.36
559.45	1952.61
559.81	1947.53
560.16	1941.87
560.52	1936.47
560.87	1931.24
561.23	1925.12
561.58	1919.10
561.94	1912.25
562.29	1905.15
562.64	1898.37
563.00	1890.95
563.35	1884.40
563.71	1878.01
564.06	1872.18
564.42	1866.23
564.77	1859.53
565.12	1852.57
565.48	1845.58
565.83	1838.21
566.19	1831.09
566.54	1824.44
566.89	1817.53
567.25	1811.07
567.60	1804.50
567.96	1797.59
568.31	1790.70
568.66	1783.71
569.02	1775.66
569.37	1768.75
569.72	1762.08
570.08	1754.48
570.43	1746.42
570.78	1739.08
571.14	1731.37
571.49	1722.93
571.84	1714.92
572.20	1706.38
572.55	1698.32
572.90	1689.24
573.26	1681.13
573.61	1672.19
573.96	1662.87
574.31	1653.53
574.67	1643.78
575.02	1633.75
575.37	1623.89
575.72	1613.88
576.08	1604.37
576.43	1594.97
576.78	1584.88
577.13	1574.70
577.49	1564.97
577.84	1555.84
578.19	1546.68
578.54	1537.30
578.90	1528.43
579.25	1519.06
579.60	1509.92
579.95	1500.14
580.30	1490.68
580.66	1480.63
581.01	1470.80
581.36	1460.51
581.71	1451.21
582.06	1441.85
582.42	1432.80
582.77	1423.88
583.12	1415.06
583.47	1406.14
583.82	1397.41
584.17	1388.54
584.53	1379.96
584.88	1370.65
585.23	1361.30
585.58	1350.85
585.93	1341.00
586.28	1331.44
586.63	1321.50
586.98	1311.48
587.34	1302.03
587.69	1292.53
588.04	1283.65
588.39	1274.99
588.74	1266.26
589.09	1257.62
589.44	1248.65
589.79	1240.08
590.14	1231.22
590.49	1222.60
590.84	1213.93
591.19	1205.52
591.54	1196.99
591.89	1188.23
592.25	1181.06
592.60	1172.89
592.95	1165.15
593.30	1156.86
593.65	1148.54
594.00	1140.15
594.35	1133.38
594.70	1125.20
595.05	1117.31
595.40	1108.87
595.75	1100.64
596.10	1093.18
596.45	1085.03
596.80	1077.50
597.15	1069.67
597.50	1061.60
597.85	1053.88
598.19	1046.04
598.54	1037.79
598.89	1030.15
599.24	1022.94
599.59	1014.95
599.94	1007.74
600.29	1000.57
600.64	993.63
600.99	986.36
601.34	979.80
601.69	971.85
602.04	965.19
602.39	958.63
602.74	952.43
603.08	945.82
603.43	939.39
603.78	932.95
604.13	926.52
604.48	919.88
604.83	913.41
605.18	906.66
605.53	900.23
605.87	894.17
606.22	888.30
606.57	881.93
606.92	875.55
607.27	869.41
607.62	863.46
607.96	857.81
608.31	852.53
608.66	846.95
609.01	841.25
609.36	835.45
609.70	829.67
610.05	823.86
610.40	818.38
610.75	812.57
611.10	806.96
611.44	801.21
611.79	795.59
612.14	790.38
612.49	785.22
612.83	780.11
613.18	774.97
613.53	769.76
613.88	764.50
614.22	759.19
614.57	753.74
614.92	748.38
615.27	743.31
615.61	737.81
615.96	732.60
616.31	727.47
616.65	722.66
617.00	717.78
617.35	712.72
617.70	707.77
618.04	702.94
618.39	698.16
618.74	693.83
619.08	689.31
619.43	684.51
619.78	679.45
620.12	674.55
620.47	669.79
620.82	664.97
621.16	660.31
621.51	656.26
621.85	652.14
622.20	647.63
622.55	643.10
622.89	638.83
623.24	634.59
623.59	630.20
623.93	626.01
624.28	621.89
624.62	618.27
624.97	614.41
625.32	610.41
625.66	606.30
626.01	602.09
626.35	598.33
626.70	594.55
627.04	591.12
627.39	587.32
627.73	583.64
628.08	580.07
628.43	576.33
628.77	572.50
629.12	568.81
629.46	565.51
629.81	562.35
630.15	559.03
630.50	555.60
630.84	552.34
631.19	549.02
631.53	545.82
631.88	542.06
632.22	538.80
632.57	535.88
632.91	532.86
633.26	529.80
633.60	526.64
633.95	523.54
634.29	520.39
634.64	517.49
634.98	514.36
635.32	511.26
635.67	508.77
636.01	505.90
636.36	503.02
636.70	500.35
637.05	497.31
637.39	494.54
637.73	491.87
638.08	489.28
638.42	486.38
638.77	483.45
639.11	480.52
639.45	477.46
639.80	474.36
640.14	471.49
640.49	468.69
640.83	466.18
641.17	463.68
641.52	461.02
641.86	458.45
642.20	456.31
642.55	453.92
642.89	451.26
643.23	448.86
643.58	446.76
643.92	444.13
644.26	441.78
644.61	439.69
644.95	437.40
645.29	434.97
645.64	432.92
645.98	430.78
646.32	428.85
646.66	426.75
647.01	424.66
647.35	422.79
647.69	420.92
648.04	418.97
648.38	416.95
648.72	415.08
649.06	413.04
649.41	410.88
649.75	408.80
650.09	406.92
650.43	404.94
650.78	402.78
651.12	400.89
651.46	398.99
651.80	397.03
652.14	395.12
652.49	393.43
652.83	391.60
653.17	389.84
653.51	387.94
653.85	386.37
654.20	384.74
654.54	382.92
654.88	381.07
655.22	379.42
655.56	377.77
655.90	376.18
656.25	374.70
656.59	373.17
656.93	371.70
657.27	370.30
657.61	368.69
657.95	367.16
658.29	365.66
658.64	364.31
658.98	362.74
659.32	361.17
659.66	359.67
660.00	358.18
660.34	356.66
660.68	355.38
661.02	353.98
661.36	352.56
661.70	351.18
662.05	349.87
662.39	348.57
662.73	347.40
663.07	346.33
663.41	344.95
663.75	343.55
664.09	342.31
664.43	340.86
664.77	339.64
665.11	338.44
665.45	337.29
665.79	336.08
666.13	334.90
666.47	333.78
666.81	332.60
667.15	331.37
667.49	330.40
667.83	329.40
668.17	328.28
668.51	327.26
668.85	326.36
669.19	325.56
669.53	324.44
669.87	323.19
670.21	321.97
670.55	321.06
670.89	320.33
671.23	319.34
671.57	318.36
671.91	317.49
672.25	316.57
672.58	315.72
672.92	314.71
673.26	313.84
673.60	313.05
673.94	312.20
674.28	311.44
674.62	310.67
674.96	309.69
675.30	308.87
675.64	308.08
675.97	307.27
676.31	306.35
676.65	305.41
676.99	304.85
677.33	304.00
677.67	303.28
678.01	302.28
678.34	301.59
678.68	300.94
679.02	300.12
679.36	299.37
679.70	298.60
680.04	297.99
680.37	297.30
680.71	296.62
681.05	296.04
681.39	295.33
681.73	294.59
682.06	294.01
682.40	293.37
682.74	292.78
683.08	292.27
683.42	291.57
683.75	291.09
684.09	290.29
684.43	289.76
684.77	289.02
685.10	288.45
685.44	287.88
685.78	287.24
686.12	286.65
686.45	286.16
686.79	285.51
687.13	284.98
687.46	284.38
687.80	283.91
688.14	283.28
688.48	282.77
688.81	282.17
689.15	281.69
689.49	281.14
689.82	280.67
690.16	279.97
690.50	279.46
690.83	278.96
691.17	278.42
691.51	277.91
691.84	277.55
692.18	277.17
692.52	276.62
692.85	276.30
693.19	276.12
693.52	275.69
693.86	275.26
694.20	274.74
694.53	274.30
694.87	273.80
695.21	273.38
695.54	272.97
695.88	272.49
696.21	271.93
696.55	271.56
696.88	271.04
697.22	270.59
697.56	270.20
697.89	269.72
698.23	269.45
698.56	269.04
698.90	268.63
699.23	268.10
699.57	267.72
699.90	267.19
700.24	266.60
700.58	266.12
700.91	265.86
701.25	265.88
701.58	265.85
701.92	265.63
702.25	265.21
702.59	264.83
702.92	264.52
703.26	264.27
703.59	263.92
703.93	263.98
704.26	263.75
704.60	263.48
704.93	263.09
705.26	262.67
705.60	262.29
705.93	261.84
706.27	261.74
706.60	261.57
706.94	261.49
707.27	261.17
707.61	260.96
707.94	260.60
708.27	259.91
708.61	259.26
708.94	258.92
709.28	258.67
709.61	258.30
709.94	258.03
710.28	257.65
710.61	257.35
710.95	256.65
711.28	256.68
711.61	256.33
711.95	256.23
712.28	255.95
712.61	255.75
712.95	255.83
713.28	255.69
713.61	255.27
713.95	254.85
714.28	254.64
714.61	254.31
714.95	254.00
715.28	253.68
715.61	253.38
715.95	253.10
716.28	252.75
716.61	252.61
716.95	252.28
717.28	252.01
717.61	251.80
717.94	251.58
718.28	250.85
718.61	250.63
718.94	250.28
719.27	250.03
719.61	249.84
719.94	249.41
720.27	248.94
720.60	248.74
720.94	248.56
721.27	248.30
721.60	248.15
721.93	247.97
722.27	247.97
722.60	247.84
722.93	247.59
723.26	247.49
723.59	247.25
723.93	247.15
724.26	247.08
724.59	246.82
724.92	246.70
725.25	246.65
725.59	246.51
725.92	246.45
726.25	246.26
726.58	246.10
726.91	245.92
727.24	245.81
727.57	245.59
727.91	245.26
728.24	245.15
728.57	244.94
728.90	244.85
729.23	244.49
729.56	244.52
729.89	244.45
730.22	244.25
730.55	244.08
730.89	243.86
731.22	243.66
731.55	243.46
731.88	243.30
732.21	243.14
732.54	242.95
732.87	242.73
733.20	242.65
733.53	242.54
733.86	242.46
734.19	242.32
734.52	242.30
734.85	242.54
735.18	242.36
735.51	242.41
735.84	242.25
736.17	242.35
736.50	241.96
736.83	242.32
737.16	242.25
737.49	242.10
737.82	242.07
738.15	242.01
738.48	241.99
738.81	241.87
739.14	241.72
739.47	241.58
739.80	241.47
740.13	241.40
740.46	241.13
740.79	240.96
741.12	240.80
741.45	240.54
741.78	240.20
742.11	240.17
742.44	239.93
742.77	239.85
743.10	239.69
743.43	239.65
743.75	239.11
744.08	239.61
744.41	239.48
744.74	239.30
745.07	239.05
745.40	238.95
745.73	239.00
746.06	238.97
746.39	238.85
746.71	238.67
747.04	238.47
747.37	238.43
747.70	238.42
748.03	238.29
748.36	238.40
748.68	238.24
749.01	238.03
749.34	237.94
749.67	237.87
750.00	237.82
750.33	238.06
750.65	237.90
750.98	237.16
751.31	237.12
751.64	237.05
751.97	237.23
752.29	237.13
752.62	236.78
752.95	236.57
753.28	236.53
753.60	236.45
753.93	236.54
754.26	236.43
754.59	236.12
754.91	236.08
755.24	235.88
755.57	235.80
755.90	235.72
756.22	235.60
756.55	235.44
756.88	235.25
757.20	234.84
757.53	234.70
757.86	234.63
758.19	234.60
758.51	234.52
758.84	234.26
759.17	234.12
759.49	234.05
759.82	234.24
760.15	234.17
760.47	234.13
760.80	233.92
761.13	233.94
761.45	233.89
761.78	233.83
762.11	233.71
762.43	233.61
762.76	233.48
763.08	233.42
763.41	233.41
763.74	233.33
764.06	233.25
764.39	233.19
764.71	233.15
765.04	233.01
765.37	232.95
765.69	232.85
766.02	232.75
766.34	232.67
766.67	232.37
767.00	232.36
767.32	232.46
767.65	232.69
767.97	232.55
768.30	232.51
768.62	232.39
768.95	232.31
769.27	232.22
769.60	232.25
769.92	232.16
770.25	232.05
770.57	231.93
770.90	231.89
771.22	231.74
771.55	231.63
771.87	231.58
772.20	231.49
772.52	231.91
772.85	232.48
773.17	232.48
773.50	232.41
773.82	232.29
774.15	232.06
774.47	231.64
774.80	231.60
775.12	231.51
775.45	231.44
775.77	231.40
776.09	231.41
776.42	231.35
776.74	231.47
777.07	231.42
777.39	231.32
777.72	231.23
778.04	231.28
778.36	231.21
778.69	231.16
779.01	231.14
779.33	230.64
779.66	230.07
779.98	230.01
780.31	229.99
780.63	230.22
780.95	230.25
781.28	230.25
781.60	230.18
781.92	230.23
782.25	230.23
782.57	230.23
782.89	230.19
783.22	230.11
783.54	229.93
783.86	229.88
784.19	229.90
784.51	230.00
784.83	229.86
785.16	229.83
785.48	229.78
785.80	229.77
786.12	229.79
786.45	229.79
786.77	229.85
787.09	229.81
787.42	229.53
787.74	229.55
788.06	229.52
788.38	229.49
788.71	229.44
789.03	229.40
789.35	229.41
789.67	229.30
789.99	229.32
790.32	229.25
790.64	229.29
790.96	229.66
791.28	229.40
791.61	229.40
791.93	229.34
792.25	229.32
792.57	229.66
792.89	229.47
793.21	229.45
793.54	229.40
793.86	229.32
794.18	229.29
794.50	229.18
794.82	229.16
795.14	229.21
795.47	229.20
795.79	229.23
796.11	229.10
796.43	229.10
796.75	229.09
797.07	229.08
797.39	229.01
797.71	228.66
798.04	228.68
798.36	228.72
798.68	228.70
799.00	228.70
799.32	228.38
799.64	228.51
799.96	228.53
800.28	228.51
800.60	228.48
800.92	228.50
801.24	228.44
801.56	228.46
801.89	228.33
802.21	228.37
802.53	228.23
802.85	228.30
803.17	228.48
803.49	228.36
803.81	228.34
804.13	228.36
804.45	228.30
804.77	228.40
805.09	228.41
805.41	228.36
805.73	228.26
806.05	228.17
806.37	228.09
806.69	227.96
807.01	227.91
807.33	227.94
807.65	227.85
807.97	228.14
808.28	228.14
808.60	228.23
808.92	228.17
809.24	228.54
809.56	228.48
809.88	228.28
810.20	228.32
810.52	228.45
810.84	228.31
811.16	228.23
811.48	228.16
811.80	228.32
812.12	228.37
812.43	228.46
812.75	228.47
813.07	228.42
813.39	228.42
813.71	228.41
814.03	228.35
814.35	228.29
814.67	228.07
814.98	227.99
815.30	227.88
815.62	227.76
815.94	227.39
816.26	227.59
816.58	227.52
816.89	227.49
817.21	227.19
817.53	227.23
817.85	227.21
818.17	227.13
818.48	226.93
818.80	226.93
