SpectraSuite Data File
++++++++++++++++++++++++++++++++++++
Date: Wed Sep 04 17:48:41 EDT 2013
User: lab3
Dark Spectrum Present: Yes
Reference Spectrum Present: No
Number of Sampled Component Spectra: 1
Spectrometers: USB2E7196
Integration Time (usec): 170000 (USB2E7196)
Spectra Averaged: 20 (USB2E7196)
Boxcar Smoothing: 10 (USB2E7196)
Correct for Electrical Dark: No (USB2E7196)
Strobe/Lamp Enabled: No (USB2E7196)
Correct for Detector Non-linearity: No (USB2E7196)
Correct for Stray Light: No (USB2E7196)
Number of Pixels in Processed Spectrum: 2048
>>>>>Begin Processed Spectral Data<<<<<
339.09	0.00
339.48	212.95
339.86	213.90
340.24	214.85
340.63	217.45
341.01	225.25
341.39	219.70
341.78	222.25
342.16	223.80
342.54	223.90
342.93	212.10
343.31	222.82
343.69	223.37
344.07	223.90
344.46	224.39
344.84	224.82
345.22	224.78
345.60	225.05
345.99	225.20
346.37	225.31
346.75	225.40
347.13	225.43
347.52	225.47
347.90	225.67
348.28	225.77
348.66	225.92
349.05	225.74
349.43	225.84
349.81	225.98
350.19	225.95
350.57	226.06
350.96	226.18
351.34	226.22
351.72	226.29
352.10	226.34
352.48	226.42
352.87	226.39
353.25	226.46
353.63	226.49
354.01	226.53
354.39	226.64
354.77	226.70
355.15	226.95
355.54	226.95
355.92	226.90
356.30	226.97
356.68	227.33
357.06	227.42
357.44	227.30
357.82	227.25
358.20	227.77
358.58	227.87
358.97	227.86
359.35	228.07
359.73	228.28
360.11	228.29
360.49	228.30
360.87	228.37
361.25	228.50
361.63	228.73
362.01	228.85
362.39	228.83
362.77	228.94
363.15	228.86
363.53	228.92
363.91	228.99
364.29	228.97
364.67	228.55
365.05	228.61
365.43	228.74
365.81	228.85
366.19	228.72
366.57	228.85
366.95	228.94
367.33	228.85
367.71	228.80
368.09	229.02
368.47	229.06
368.85	229.07
369.23	229.16
369.61	228.98
369.99	229.08
370.37	229.12
370.75	229.31
371.13	229.23
371.51	229.22
371.89	229.20
372.27	229.21
372.65	229.21
373.03	229.17
373.41	229.10
373.78	229.07
374.16	228.73
374.54	228.48
374.92	228.39
375.30	228.24
375.68	228.08
376.06	227.98
376.44	227.90
376.82	227.90
377.19	227.82
377.57	227.72
377.95	227.46
378.33	227.35
378.71	227.00
379.09	227.03
379.47	227.05
379.84	226.90
380.22	226.70
380.60	226.61
380.98	226.57
381.36	226.49
381.73	226.33
382.11	226.44
382.49	226.47
382.87	226.29
383.25	226.28
383.62	226.79
384.00	226.65
384.38	226.63
384.76	226.57
385.13	226.73
385.51	226.73
385.89	226.71
386.27	226.66
386.64	226.74
387.02	226.62
387.40	226.48
387.78	226.47
388.15	226.55
388.53	226.54
388.91	226.48
389.29	226.51
389.66	226.60
390.04	226.48
390.42	226.51
390.79	226.57
391.17	226.55
391.55	226.06
391.92	226.09
392.30	226.17
392.68	226.14
393.05	226.03
393.43	226.15
393.81	226.18
394.18	226.12
394.56	226.12
394.94	226.25
395.31	226.26
395.69	226.42
396.06	226.48
396.44	226.49
396.82	226.52
397.19	226.79
397.57	226.75
397.95	226.86
398.32	226.81
398.70	226.97
399.07	227.25
399.45	227.31
399.82	227.37
400.20	227.40
400.58	227.47
400.95	227.38
401.33	227.50
401.70	227.94
402.08	228.15
402.45	228.25
402.83	228.49
403.20	228.71
403.58	228.81
403.95	229.07
404.33	229.39
404.71	229.63
405.08	230.00
405.46	230.27
405.83	230.60
406.21	230.85
406.58	231.10
406.96	231.30
407.33	231.60
407.70	231.97
408.08	232.63
408.45	233.15
408.83	233.64
409.20	233.96
409.58	234.08
409.95	234.57
410.33	235.08
410.70	235.44
411.08	236.09
411.45	236.74
411.82	237.24
412.20	237.93
412.57	238.91
412.95	239.27
413.32	240.07
413.69	240.78
414.07	241.72
414.44	242.56
414.82	243.55
415.19	244.65
415.56	245.80
415.94	246.84
416.31	248.18
416.68	249.55
417.06	251.15
417.43	252.80
417.81	254.58
418.18	256.36
418.55	258.24
418.93	260.15
419.30	262.12
419.67	264.36
420.04	266.54
420.42	268.79
420.79	271.78
421.16	274.56
421.54	277.55
421.91	280.49
422.28	283.61
422.66	286.86
423.03	290.40
423.40	293.69
423.77	297.18
424.15	300.78
424.52	304.52
424.89	308.75
425.26	312.55
425.64	316.20
426.01	320.38
426.38	324.82
426.75	329.32
427.13	333.90
427.50	338.65
427.87	343.51
428.24	348.31
428.61	352.80
428.99	358.02
429.36	363.48
429.73	368.86
430.10	374.42
430.47	380.03
430.85	385.54
431.22	391.66
431.59	398.35
431.96	404.46
432.33	411.32
432.70	417.93
433.08	425.88
433.45	433.27
433.82	440.66
434.19	448.66
434.56	456.63
434.93	464.20
435.30	471.78
435.68	480.31
436.05	488.68
436.42	496.95
436.79	504.59
437.16	512.84
437.53	521.55
437.90	530.10
438.27	538.59
438.64	547.47
439.01	555.58
439.38	562.67
439.75	569.62
440.13	577.70
440.50	585.10
440.87	591.14
441.24	597.51
441.61	604.34
441.98	609.51
442.35	615.35
442.72	621.24
443.09	627.14
443.46	630.47
443.83	632.70
444.20	634.67
444.57	637.36
444.94	638.36
445.31	639.66
445.68	641.09
446.05	641.46
446.42	640.12
446.79	638.98
447.16	637.39
447.53	636.28
447.90	632.43
448.27	628.68
448.64	623.88
449.01	620.16
449.37	614.21
449.74	608.11
450.11	601.12
450.48	593.51
450.85	585.62
451.22	578.98
451.59	572.56
451.96	566.29
452.33	558.22
452.70	551.11
453.07	542.44
453.43	533.40
453.80	524.80
454.17	516.85
454.54	509.01
454.91	500.96
455.28	493.05
455.65	485.87
456.02	479.23
456.38	472.88
456.75	465.28
457.12	458.63
457.49	452.41
457.86	446.26
458.23	441.24
458.59	435.53
458.96	429.84
459.33	424.78
459.70	419.77
460.07	415.78
460.43	411.07
460.80	406.77
461.17	403.06
461.54	399.13
461.91	395.34
462.27	391.57
462.64	388.31
463.01	384.79
463.38	381.42
463.74	377.41
464.11	374.42
464.48	371.79
464.85	368.98
465.21	366.88
465.58	364.61
465.95	361.81
466.32	359.57
466.68	357.23
467.05	355.04
467.42	352.81
467.78	350.47
468.15	348.40
468.52	346.85
468.88	344.66
469.25	342.82
469.62	341.35
469.98	339.82
470.35	338.40
470.72	336.91
471.08	335.26
471.45	334.05
471.82	332.84
472.18	331.41
472.55	330.39
472.92	329.16
473.28	328.04
473.65	326.91
474.02	325.94
474.38	325.07
474.75	324.38
475.11	323.53
475.48	322.96
475.85	322.28
476.21	321.59
476.58	321.06
476.94	320.60
477.31	320.17
477.67	319.75
478.04	319.34
478.41	319.18
478.77	319.46
479.14	319.16
479.50	318.99
479.87	318.99
480.23	319.15
480.60	319.06
480.96	319.14
481.33	319.51
481.69	319.66
482.06	319.89
482.42	320.04
482.79	320.36
483.15	320.75
483.52	321.37
483.88	321.86
484.25	322.49
484.61	323.25
484.98	323.96
485.34	324.95
485.71	325.85
486.07	326.84
486.44	327.41
486.80	328.57
487.17	329.82
487.53	331.25
487.90	332.54
488.26	334.16
488.62	335.72
488.99	337.23
489.35	339.04
489.72	340.93
490.08	342.91
490.44	344.92
490.81	347.16
491.17	349.40
491.54	351.88
491.90	354.38
492.26	356.96
492.63	359.65
492.99	362.45
493.36	365.54
493.72	368.86
494.08	372.22
494.45	375.84
494.81	379.66
495.17	383.55
495.54	387.78
495.90	391.97
496.26	396.35
496.63	400.96
496.99	405.63
497.35	410.71
497.72	416.02
498.08	421.56
498.44	427.16
498.80	433.08
499.17	439.02
499.53	445.27
499.89	451.88
500.26	458.70
500.62	465.73
500.98	473.08
501.34	480.41
501.71	488.20
502.07	495.99
502.43	503.97
502.79	512.24
503.16	520.90
503.52	529.78
503.88	538.99
504.24	548.50
504.60	558.46
504.97	568.63
505.33	578.87
505.69	589.80
506.05	600.81
506.41	612.04
506.78	623.69
507.14	635.76
507.50	648.01
507.86	660.61
508.22	673.47
508.59	686.51
508.95	700.18
509.31	714.14
509.67	728.33
510.03	742.39
510.39	757.15
510.75	771.94
511.12	787.37
511.48	802.92
511.84	818.71
512.20	834.55
512.56	850.65
512.92	867.41
513.28	884.06
513.64	901.34
514.00	918.68
514.37	936.46
514.73	954.45
515.09	972.52
515.45	990.83
515.81	1009.11
516.17	1027.67
516.53	1046.20
516.89	1064.65
517.25	1083.75
517.61	1103.87
517.97	1123.87
518.33	1143.77
518.69	1163.64
519.05	1184.03
519.41	1204.53
519.77	1225.28
520.13	1245.98
520.49	1266.50
520.85	1288.71
521.21	1309.51
521.57	1330.50
521.93	1351.01
522.29	1371.98
522.65	1392.42
523.01	1413.19
523.37	1433.50
523.73	1454.26
524.09	1474.47
524.45	1495.09
524.81	1516.06
525.17	1536.62
525.53	1556.82
525.89	1577.39
526.25	1597.87
526.61	1618.15
526.97	1638.81
527.33	1659.70
527.68	1681.17
528.04	1702.32
528.40	1721.62
528.76	1742.29
529.12	1762.84
529.48	1783.49
529.84	1803.15
530.20	1824.03
530.56	1844.39
530.91	1865.23
531.27	1885.35
531.63	1905.93
531.99	1925.87
532.35	1945.43
532.71	1965.38
533.07	1985.78
533.42	2005.16
533.78	2025.31
534.14	2044.83
534.50	2063.72
534.86	2082.72
535.21	2099.96
535.57	2117.93
535.93	2135.49
536.29	2153.00
536.65	2170.67
537.00	2187.99
537.36	2205.27
537.72	2221.49
538.08	2238.30
538.44	2254.68
538.79	2270.82
539.15	2286.96
539.51	2302.92
539.87	2317.71
540.22	2331.03
540.58	2344.80
540.94	2358.03
541.29	2369.97
541.65	2381.97
542.01	2394.16
542.37	2404.17
542.72	2414.90
543.08	2425.13
543.44	2436.46
543.79	2446.12
544.15	2455.87
544.51	2465.69
544.87	2475.38
545.22	2483.97
545.58	2491.49
545.94	2498.23
546.29	2504.67
546.65	2510.63
547.01	2516.26
547.36	2521.57
547.72	2527.05
548.07	2530.80
548.43	2535.93
548.79	2540.46
549.14	2544.28
549.50	2548.17
549.86	2552.09
550.21	2555.72
550.57	2558.79
550.92	2559.94
551.28	2561.45
551.64	2563.26
551.99	2564.86
552.35	2565.89
552.70	2567.70
553.06	2569.20
553.41	2570.53
553.77	2571.91
554.13	2573.21
554.48	2574.20
554.84	2575.23
555.19	2576.30
555.55	2577.93
555.90	2576.63
556.26	2575.72
556.61	2574.10
556.97	2571.45
557.32	2570.97
557.68	2569.73
558.03	2568.50
558.39	2566.70
558.74	2565.34
559.10	2562.06
559.45	2558.40
559.81	2553.92
560.16	2548.62
560.52	2543.38
560.87	2538.59
561.23	2532.95
561.58	2527.13
561.94	2520.47
562.29	2513.05
562.64	2505.88
563.00	2497.71
563.35	2491.47
563.71	2484.62
564.06	2478.60
564.42	2472.06
564.77	2464.61
565.12	2456.95
565.48	2449.12
565.83	2441.11
566.19	2433.09
566.54	2424.81
566.89	2416.49
567.25	2408.89
567.60	2401.74
567.96	2394.26
568.31	2386.22
568.66	2377.65
569.02	2368.40
569.37	2360.20
569.72	2352.74
570.08	2343.35
570.43	2333.83
570.78	2324.94
571.14	2315.70
571.49	2305.14
571.84	2295.59
572.20	2285.28
572.55	2275.24
572.90	2264.40
573.26	2254.52
573.61	2243.50
573.96	2233.07
574.31	2221.15
574.67	2209.26
575.02	2196.59
575.37	2183.98
575.72	2171.00
576.08	2159.15
576.43	2146.86
576.78	2133.82
577.13	2120.22
577.49	2107.96
577.84	2096.40
578.19	2084.03
578.54	2071.34
578.90	2059.80
579.25	2047.85
579.60	2035.26
579.95	2022.32
580.30	2009.44
580.66	1996.02
581.01	1982.84
581.36	1969.08
581.71	1956.51
582.06	1943.86
582.42	1931.43
582.77	1919.15
583.12	1907.51
583.47	1895.33
583.82	1883.88
584.17	1871.85
584.53	1860.52
584.88	1847.78
585.23	1834.88
585.58	1821.24
585.93	1808.31
586.28	1795.35
586.63	1781.60
586.98	1767.68
587.34	1754.82
587.69	1741.65
588.04	1729.38
588.39	1717.37
588.74	1705.29
589.09	1693.61
589.44	1680.79
589.79	1668.96
590.14	1657.08
590.49	1645.08
590.84	1633.13
591.19	1621.08
591.54	1609.20
591.89	1596.89
592.25	1586.88
592.60	1575.27
592.95	1563.89
593.30	1552.31
593.65	1540.42
594.00	1528.50
594.35	1518.76
594.70	1506.96
595.05	1495.69
595.40	1483.92
595.75	1472.15
596.10	1460.93
596.45	1449.53
596.80	1439.12
597.15	1427.90
597.50	1416.50
597.85	1405.45
598.19	1393.91
598.54	1382.12
598.89	1371.08
599.24	1360.92
599.59	1349.45
599.94	1338.88
600.29	1328.83
600.64	1318.60
600.99	1308.24
601.34	1298.86
601.69	1288.03
602.04	1278.57
602.39	1269.15
602.74	1260.20
603.08	1250.93
603.43	1241.75
603.78	1232.20
604.13	1222.89
604.48	1213.42
604.83	1203.86
605.18	1194.21
605.53	1185.30
605.87	1176.70
606.22	1168.28
606.57	1158.85
606.92	1149.50
607.27	1140.79
607.62	1132.18
607.96	1123.82
608.31	1115.90
608.66	1107.52
609.01	1099.18
609.36	1090.63
609.70	1082.35
610.05	1073.66
610.40	1065.51
610.75	1057.07
611.10	1049.09
611.44	1040.38
611.79	1032.32
612.14	1024.53
612.49	1016.75
612.83	1009.14
613.18	1001.29
613.53	993.58
613.88	986.02
614.22	978.58
614.57	970.91
614.92	963.30
615.27	955.76
615.61	948.11
615.96	940.55
616.31	933.24
616.65	926.29
617.00	918.97
617.35	912.08
617.70	904.97
618.04	897.86
618.39	890.80
618.74	884.61
619.08	877.78
619.43	870.98
619.78	864.09
620.12	857.10
620.47	850.49
620.82	843.57
621.16	836.92
621.51	830.72
621.85	824.42
622.20	817.77
622.55	811.41
622.89	805.10
623.24	798.95
623.59	792.62
623.93	786.45
624.28	780.52
624.62	774.83
624.97	769.18
625.32	763.50
625.66	757.58
626.01	751.74
626.35	746.47
626.70	740.99
627.04	735.80
627.39	730.22
627.73	725.05
628.08	719.88
628.43	714.65
628.77	709.30
629.12	704.17
629.46	699.68
629.81	695.00
630.15	690.39
630.50	685.66
630.84	680.95
631.19	676.30
631.53	671.69
631.88	666.56
632.22	661.79
632.57	657.50
632.91	653.11
633.26	648.79
633.60	644.17
633.95	639.59
634.29	634.90
634.64	630.71
634.98	625.96
635.32	621.79
635.67	617.85
636.01	613.67
636.36	609.42
636.70	605.19
637.05	600.99
637.39	596.93
637.73	592.87
638.08	588.92
638.42	584.89
638.77	580.68
639.11	576.59
639.45	572.37
639.80	568.04
640.14	564.22
640.49	560.16
640.83	556.45
641.17	552.96
641.52	549.25
641.86	545.70
642.20	542.66
642.55	539.08
642.89	535.42
643.23	532.06
643.58	528.96
643.92	525.37
644.26	522.19
644.61	518.98
644.95	515.75
645.29	512.43
645.64	509.32
645.98	506.35
646.32	503.47
646.66	500.45
647.01	497.69
647.35	494.81
647.69	492.04
648.04	489.15
648.38	486.36
648.72	483.63
649.06	480.63
649.41	477.54
649.75	474.58
650.09	471.73
650.43	468.85
650.78	465.99
651.12	463.22
651.46	460.33
651.80	457.61
652.14	455.05
652.49	452.58
652.83	449.96
653.17	447.31
653.51	444.61
653.85	442.28
654.20	439.66
654.54	437.09
654.88	434.43
655.22	432.35
655.56	429.93
655.90	427.60
656.25	425.49
656.59	423.31
656.93	421.13
657.27	419.21
657.61	416.90
657.95	414.67
658.29	412.50
658.64	410.49
658.98	408.28
659.32	405.97
659.66	403.70
660.00	401.66
660.34	399.63
660.68	397.69
661.02	395.57
661.36	393.68
661.70	391.71
662.05	390.02
662.39	388.10
662.73	386.30
663.07	384.71
663.41	382.81
663.75	380.91
664.09	379.17
664.43	377.21
664.77	375.60
665.11	373.87
665.45	372.19
665.79	370.56
666.13	368.94
666.47	367.34
666.81	365.87
667.15	364.09
667.49	362.69
667.83	361.43
668.17	360.05
668.51	358.68
668.85	357.43
669.19	356.21
669.53	354.58
669.87	353.10
670.21	351.61
670.55	350.26
670.89	349.21
671.23	347.93
671.57	346.58
671.91	345.25
672.25	343.97
672.58	342.87
672.92	341.50
673.26	340.27
673.60	339.12
673.94	337.98
674.28	337.08
674.62	336.00
674.96	334.63
675.30	333.45
675.64	332.28
675.97	331.03
676.31	329.71
676.65	328.56
676.99	327.60
677.33	326.37
677.67	325.32
678.01	323.93
678.34	322.90
678.68	322.00
679.02	320.94
679.36	319.99
679.70	318.99
680.04	318.01
680.37	317.06
680.71	316.05
681.05	315.11
681.39	314.16
681.73	313.15
682.06	312.22
682.40	311.36
682.74	310.62
683.08	309.93
683.42	308.98
683.75	308.17
684.09	307.28
684.43	306.56
684.77	305.67
685.10	304.97
685.44	304.17
685.78	303.31
686.12	302.52
686.45	301.73
686.79	300.85
687.13	300.14
687.46	299.36
687.80	298.74
688.14	297.94
688.48	297.16
688.81	296.39
689.15	295.79
689.49	295.02
689.82	294.26
690.16	293.41
690.50	292.81
690.83	292.07
691.17	291.25
691.51	290.62
691.84	289.99
692.18	289.26
692.52	288.61
692.85	288.00
693.19	287.59
693.52	286.98
693.86	286.37
694.20	285.70
694.53	285.13
694.87	284.48
695.21	283.80
695.54	283.11
695.88	282.48
696.21	281.78
696.55	281.13
696.88	280.46
697.22	279.75
697.56	279.24
697.89	278.70
698.23	278.24
698.56	277.56
698.90	277.10
699.23	276.54
699.57	275.97
699.90	275.31
700.24	274.56
700.58	274.10
700.91	273.62
701.25	273.56
701.58	273.46
701.92	273.11
702.25	272.79
702.59	272.36
702.92	271.92
703.26	271.42
703.59	271.10
703.93	271.09
704.26	270.82
704.60	270.38
704.93	269.98
705.26	269.52
705.60	269.22
705.93	268.77
706.27	268.47
706.60	268.19
706.94	268.05
707.27	267.77
707.61	267.39
707.94	266.99
708.27	266.21
708.61	265.40
708.94	264.90
709.28	264.46
709.61	264.04
709.94	263.74
710.28	263.49
710.61	263.07
710.95	262.33
711.28	262.25
711.61	261.80
711.95	261.55
712.28	261.15
712.61	260.69
712.95	260.64
713.28	260.55
713.61	260.20
713.95	259.75
714.28	259.43
714.61	259.02
714.95	258.71
715.28	258.37
715.61	258.04
715.95	257.81
716.28	257.50
716.61	257.31
716.95	256.97
717.28	256.65
717.61	256.44
717.94	256.16
718.28	255.53
718.61	255.25
718.94	254.86
719.27	254.63
719.61	254.50
719.94	254.04
720.27	253.50
720.60	253.21
720.94	252.95
721.27	252.69
721.60	252.56
721.93	252.38
722.27	252.30
722.60	252.17
722.93	251.89
723.26	251.61
723.59	251.35
723.93	251.17
724.26	250.95
724.59	250.68
724.92	250.45
725.25	250.45
725.59	250.30
725.92	250.14
726.25	249.95
726.58	249.80
726.91	249.56
727.24	249.48
727.57	249.25
727.91	248.95
728.24	248.81
728.57	248.56
728.90	248.42
729.23	248.09
729.56	248.10
729.89	247.91
730.22	247.75
730.55	247.53
730.89	247.36
731.22	247.16
731.55	246.99
731.88	246.88
732.21	246.62
732.54	246.38
732.87	246.13
733.20	245.96
733.53	245.77
733.86	245.63
734.19	245.39
734.52	245.34
734.85	245.54
735.18	245.30
735.51	245.25
735.84	245.07
736.17	245.07
736.50	244.63
736.83	245.07
737.16	244.90
737.49	244.76
737.82	244.61
738.15	244.54
738.48	244.43
738.81	244.24
739.14	244.01
739.47	243.86
739.80	243.78
740.13	243.73
740.46	243.55
740.79	243.42
741.12	243.21
741.45	242.92
741.78	242.55
742.11	242.56
742.44	242.31
742.77	242.24
743.10	242.01
743.43	241.90
743.75	241.22
744.08	241.69
744.41	241.60
744.74	241.38
745.07	241.12
745.40	241.08
745.73	241.15
746.06	241.02
746.39	241.02
746.71	240.90
747.04	240.64
747.37	240.44
747.70	240.40
748.03	240.29
748.36	240.26
748.68	240.15
749.01	239.91
749.34	239.82
749.67	239.70
750.00	239.66
750.33	239.94
750.65	239.81
750.98	239.13
751.31	238.94
751.64	238.89
751.97	239.06
752.29	238.88
752.62	238.48
752.95	238.35
753.28	238.13
753.60	237.95
753.93	237.97
754.26	237.97
754.59	237.70
754.91	237.59
755.24	237.39
755.57	237.27
755.90	237.14
756.22	236.93
756.55	236.79
756.88	236.55
757.20	236.10
757.53	235.92
757.86	235.80
758.19	235.77
758.51	235.69
758.84	235.37
759.17	235.20
759.49	235.19
759.82	235.35
760.15	235.27
760.47	235.20
760.80	234.92
761.13	234.84
761.45	234.75
761.78	234.60
762.11	234.58
762.43	234.43
762.76	234.35
763.08	234.41
763.41	234.27
763.74	234.24
764.06	234.17
764.39	234.04
764.71	233.93
765.04	233.86
765.37	233.65
765.69	233.54
766.02	233.41
766.34	233.25
766.67	232.98
767.00	232.96
767.32	233.15
767.65	233.44
767.97	233.39
768.30	233.33
768.62	233.28
768.95	233.14
769.27	233.06
769.60	232.98
769.92	232.79
770.25	232.62
770.57	232.43
770.90	232.26
771.22	232.21
771.55	232.16
771.87	232.09
772.20	232.06
772.52	232.43
772.85	233.00
773.17	233.03
773.50	232.90
773.82	232.81
774.15	232.45
774.47	232.07
774.80	231.89
775.12	231.81
775.45	231.77
775.77	231.73
776.09	231.69
776.42	231.70
776.74	231.81
777.07	231.85
777.39	231.90
777.72	231.89
778.04	231.95
778.36	231.83
778.69	231.75
779.01	231.73
779.33	231.29
779.66	230.67
779.98	230.51
780.31	230.58
780.63	230.68
780.95	230.77
781.28	230.73
781.60	230.66
781.92	230.62
782.25	230.58
782.57	230.57
782.89	230.46
783.22	230.42
783.54	230.28
783.86	230.27
784.19	230.23
784.51	230.34
784.83	230.19
785.16	230.13
785.48	230.14
785.80	230.16
786.12	230.18
786.45	230.20
786.77	230.27
787.09	230.12
787.42	229.91
787.74	229.90
788.06	229.96
788.38	229.91
788.71	229.80
789.03	229.84
789.35	229.84
789.67	229.78
789.99	229.67
790.32	229.59
790.64	229.57
790.96	229.89
791.28	229.67
791.61	229.65
791.93	229.77
792.25	229.74
792.57	230.01
792.89	229.90
793.21	229.87
793.54	229.76
793.86	229.68
794.18	229.74
794.50	229.60
794.82	229.52
795.14	229.59
795.47	229.76
795.79	229.77
796.11	229.69
796.43	229.71
796.75	229.76
797.07	229.72
797.39	229.69
797.71	229.33
798.04	229.34
798.36	229.42
798.68	229.40
799.00	229.45
799.32	229.18
799.64	229.30
799.96	229.28
800.28	229.37
800.60	229.43
800.92	229.43
801.24	229.40
801.56	229.40
801.89	229.37
802.21	229.36
802.53	229.24
802.85	229.34
803.17	229.55
803.49	229.50
803.81	229.55
804.13	229.51
804.45	229.44
804.77	229.46
805.09	229.38
805.41	229.29
805.73	229.17
806.05	229.02
806.37	228.85
806.69	228.83
807.01	228.80
807.33	228.77
807.65	228.60
807.97	228.80
808.28	228.80
808.60	228.73
808.92	228.65
809.24	228.91
809.56	228.83
809.88	228.66
810.20	228.60
810.52	228.58
810.84	228.49
811.16	228.45
811.48	228.39
811.80	228.60
812.12	228.55
812.43	228.62
812.75	228.69
813.07	228.71
813.39	228.67
813.71	228.55
814.03	228.52
814.35	228.47
814.67	228.26
814.98	228.14
815.30	228.14
815.62	228.03
815.94	227.75
816.26	227.92
816.58	227.80
816.89	227.88
817.21	227.76
817.53	227.82
817.85	227.76
