SpectraSuite Data File
++++++++++++++++++++++++++++++++++++
Date: Wed Sep 04 17:45:33 EDT 2013
User: lab3
Dark Spectrum Present: Yes
Reference Spectrum Present: No
Number of Sampled Component Spectra: 1
Spectrometers: USB2E7196
Integration Time (usec): 170000 (USB2E7196)
Spectra Averaged: 20 (USB2E7196)
Boxcar Smoothing: 10 (USB2E7196)
Correct for Electrical Dark: No (USB2E7196)
Strobe/Lamp Enabled: No (USB2E7196)
Correct for Detector Non-linearity: No (USB2E7196)
Correct for Stray Light: No (USB2E7196)
Number of Pixels in Processed Spectrum: 2048
>>>>>Begin Processed Spectral Data<<<<<
339.09	0.00
339.48	212.45
339.86	213.50
340.24	215.55
340.63	216.35
341.01	226.15
341.39	218.60
341.78	221.00
342.16	222.90
342.54	223.05
342.93	211.65
343.31	222.35
343.69	222.90
344.07	223.39
344.46	223.91
344.84	224.34
345.22	224.27
345.60	224.62
345.99	224.82
346.37	224.98
346.75	225.10
347.13	225.16
347.52	225.23
347.90	225.43
348.28	225.45
348.66	225.59
349.05	225.51
349.43	225.59
349.81	225.72
350.19	225.73
350.57	225.73
350.96	225.88
351.34	225.93
351.72	226.04
352.10	226.10
352.48	226.08
352.87	226.13
353.25	226.25
353.63	226.27
354.01	226.35
354.39	226.40
354.77	226.53
355.15	226.74
355.54	226.75
355.92	226.61
356.30	226.75
356.68	227.13
357.06	227.23
357.44	227.27
357.82	227.30
358.20	227.78
358.58	227.93
358.97	228.00
359.35	228.22
359.73	228.36
360.11	228.47
360.49	228.57
360.87	228.70
361.25	228.81
361.63	229.03
362.01	229.10
362.39	229.05
362.77	229.00
363.15	228.96
363.53	229.08
363.91	229.19
364.29	229.16
364.67	228.78
365.05	228.82
365.43	228.86
365.81	228.98
366.19	228.85
366.57	228.98
366.95	229.00
367.33	228.87
367.71	228.92
368.09	229.02
368.47	228.98
368.85	228.84
369.23	228.93
369.61	228.77
369.99	228.93
370.37	229.00
370.75	229.30
371.13	229.26
371.51	229.22
371.89	229.20
372.27	229.21
372.65	229.17
373.03	229.20
373.41	229.15
373.78	229.04
374.16	228.74
374.54	228.57
374.92	228.48
375.30	228.52
375.68	228.25
376.06	228.15
376.44	228.07
376.82	228.06
377.19	227.92
377.57	227.76
377.95	227.51
378.33	227.39
378.71	226.96
379.09	226.91
379.47	226.84
379.84	226.81
380.22	226.69
380.60	226.58
380.98	226.43
381.36	226.32
381.73	226.23
382.11	226.25
382.49	226.15
382.87	226.01
383.25	225.95
383.62	226.52
384.00	226.40
384.38	226.40
384.76	226.45
385.13	226.59
385.51	226.63
385.89	226.54
386.27	226.53
386.64	226.66
387.02	226.59
387.40	226.45
387.78	226.34
388.15	226.38
388.53	226.31
388.91	226.30
389.29	226.25
389.66	226.35
390.04	226.34
390.42	226.43
390.79	226.48
391.17	226.42
391.55	225.90
391.92	225.90
392.30	225.94
392.68	225.79
393.05	225.76
393.43	225.71
393.81	225.76
394.18	225.72
394.56	225.68
394.94	225.78
395.31	225.85
395.69	226.09
396.06	226.13
396.44	226.24
396.82	226.23
397.19	226.55
397.57	226.54
397.95	226.65
398.32	226.62
398.70	226.69
399.07	226.84
399.45	226.90
399.82	226.99
400.20	227.01
400.58	227.19
400.95	227.06
401.33	227.31
401.70	227.75
402.08	227.91
402.45	228.04
402.83	228.27
403.20	228.42
403.58	228.49
403.95	228.74
404.33	228.95
404.71	229.20
405.08	229.61
405.46	229.75
405.83	230.02
406.21	230.26
406.58	230.47
406.96	230.70
407.33	231.04
407.70	231.33
408.08	232.06
408.45	232.41
408.83	232.90
409.20	233.25
409.58	233.37
409.95	233.94
410.33	234.48
410.70	234.89
411.08	235.51
411.45	236.11
411.82	236.68
412.20	237.36
412.57	238.32
412.95	238.62
413.32	239.51
413.69	240.28
414.07	241.11
414.44	242.17
414.82	243.17
415.19	244.36
415.56	245.59
415.94	246.51
416.31	248.00
416.68	249.32
417.06	250.93
417.43	252.51
417.81	254.24
418.18	256.00
418.55	257.77
418.93	259.76
419.30	261.72
419.67	263.89
420.04	266.10
420.42	268.32
420.79	271.41
421.16	274.04
421.54	277.10
421.91	280.05
422.28	283.02
422.66	286.21
423.03	289.58
423.40	292.85
423.77	296.44
424.15	299.87
424.52	303.65
424.89	307.76
425.26	311.69
425.64	315.35
426.01	319.50
426.38	323.83
426.75	328.22
427.13	332.84
427.50	337.41
427.87	342.27
428.24	347.19
428.61	351.49
428.99	356.81
429.36	362.06
429.73	367.38
430.10	372.77
430.47	378.28
430.85	383.74
431.22	389.86
431.59	396.46
431.96	402.65
432.33	409.42
432.70	415.71
433.08	423.38
433.45	430.60
433.82	437.74
434.19	445.78
434.56	453.73
434.93	461.13
435.30	468.85
435.68	477.32
436.05	485.47
436.42	493.71
436.79	501.23
437.16	509.28
437.53	518.04
437.90	526.63
438.27	535.05
438.64	543.82
439.01	551.71
439.38	558.74
439.75	565.67
440.13	573.56
440.50	581.15
440.87	587.19
441.24	593.45
441.61	600.26
441.98	605.23
442.35	610.86
442.72	616.85
443.09	622.45
443.46	625.72
443.83	628.02
444.20	629.95
444.57	632.46
444.94	633.56
445.31	634.68
445.68	636.00
446.05	636.19
446.42	634.87
446.79	633.54
447.16	631.95
447.53	630.68
447.90	627.05
448.27	623.42
448.64	618.67
449.01	615.11
449.37	609.21
449.74	603.30
450.11	596.58
450.48	588.93
450.85	581.16
451.22	574.47
451.59	568.03
451.96	561.91
452.33	554.09
452.70	547.08
453.07	538.54
453.43	529.63
453.80	521.47
454.17	513.70
454.54	506.25
454.91	498.26
455.28	490.49
455.65	483.08
456.02	476.40
456.38	470.14
456.75	462.54
457.12	456.08
457.49	450.00
457.86	443.81
458.23	438.76
458.59	433.15
458.96	427.46
459.33	422.40
459.70	417.43
460.07	413.45
460.43	408.71
460.80	404.53
461.17	400.86
461.54	396.92
461.91	393.09
462.27	389.31
462.64	386.08
463.01	382.58
463.38	379.54
463.74	375.52
464.11	372.59
464.48	370.03
464.85	367.20
465.21	365.05
465.58	362.72
465.95	359.93
466.32	357.69
466.68	355.55
467.05	353.35
467.42	351.19
467.78	348.83
468.15	346.75
468.52	345.25
468.88	342.98
469.25	341.05
469.62	339.62
469.98	338.08
470.35	336.59
470.72	335.14
471.08	333.35
471.45	332.20
471.82	330.96
472.18	329.51
472.55	328.52
472.92	327.12
473.28	326.08
473.65	325.10
474.02	324.10
474.38	323.14
474.75	322.43
475.11	321.51
475.48	320.87
475.85	320.23
476.21	319.47
476.58	319.09
476.94	318.68
477.31	318.31
477.67	317.87
478.04	317.56
478.41	317.37
478.77	317.70
479.14	317.39
479.50	317.35
479.87	317.37
480.23	317.41
480.60	317.46
480.96	317.55
481.33	317.91
481.69	318.17
482.06	318.47
482.42	318.79
482.79	319.22
483.15	319.72
483.52	320.36
483.88	320.83
484.25	321.31
484.61	322.07
484.98	322.65
485.34	323.61
485.71	324.53
486.07	325.51
486.44	326.12
486.80	327.24
487.17	328.30
487.53	329.76
487.90	331.19
488.26	332.92
488.62	334.56
488.99	336.09
489.35	337.81
489.72	339.69
490.08	341.71
490.44	343.71
490.81	345.91
491.17	348.17
491.54	350.69
491.90	353.26
492.26	355.92
492.63	358.84
492.99	361.57
493.36	364.74
493.72	367.96
494.08	371.40
494.45	375.10
494.81	378.98
495.17	382.80
495.54	386.93
495.90	391.09
496.26	395.43
496.63	399.95
496.99	404.62
497.35	409.56
497.72	414.77
498.08	420.17
498.44	425.79
498.80	431.80
499.17	437.74
499.53	444.10
499.89	450.62
500.26	457.23
500.62	464.31
500.98	471.45
501.34	478.85
501.71	486.47
502.07	494.14
502.43	502.24
502.79	510.46
503.16	519.05
503.52	527.86
503.88	537.00
504.24	546.47
504.60	556.54
504.97	566.80
505.33	577.01
505.69	587.94
506.05	598.84
506.41	609.84
506.78	621.36
507.14	633.23
507.50	645.43
507.86	657.96
508.22	670.65
508.59	683.54
508.95	697.06
509.31	710.90
509.67	725.15
510.03	739.08
510.39	753.70
510.75	768.42
511.12	783.38
511.48	798.88
511.84	814.38
512.20	830.00
512.56	846.01
512.92	862.59
513.28	879.23
513.64	896.26
514.00	913.58
514.37	931.09
514.73	948.74
515.09	966.72
515.45	984.83
515.81	1002.90
516.17	1021.60
516.53	1039.91
516.89	1058.48
517.25	1077.55
517.61	1097.36
517.97	1117.10
518.33	1136.91
518.69	1156.96
519.05	1177.11
519.41	1197.53
519.77	1218.20
520.13	1238.59
520.49	1258.71
520.85	1279.15
521.21	1299.86
521.57	1320.95
521.93	1341.15
522.29	1362.17
522.65	1382.28
523.01	1402.50
523.37	1422.51
523.73	1443.02
524.09	1463.28
524.45	1483.35
524.81	1503.60
525.17	1523.96
525.53	1544.12
525.89	1564.41
526.25	1584.42
526.61	1604.20
526.97	1624.67
527.33	1645.30
527.68	1666.43
528.04	1687.36
528.40	1707.66
528.76	1728.08
529.12	1747.61
529.48	1768.15
529.84	1787.43
530.20	1808.10
530.56	1828.52
530.91	1849.22
531.27	1868.99
531.63	1888.90
531.99	1908.81
532.35	1928.19
532.71	1947.63
533.07	1967.77
533.42	1986.85
533.78	2006.40
534.14	2025.66
534.50	2044.02
534.86	2062.46
535.21	2079.50
535.57	2097.10
535.93	2114.42
536.29	2131.30
536.65	2149.17
537.00	2166.26
537.36	2183.29
537.72	2199.06
538.08	2215.55
538.44	2231.27
538.79	2246.69
539.15	2262.56
539.51	2278.25
539.87	2292.82
540.22	2306.01
540.58	2319.57
540.94	2332.64
541.29	2344.65
541.65	2356.55
542.01	2368.42
542.37	2378.33
542.72	2388.74
543.08	2398.63
543.44	2409.47
543.79	2419.25
544.15	2428.27
544.51	2437.44
544.87	2446.34
545.22	2454.36
545.58	2461.49
545.94	2468.31
546.29	2474.53
546.65	2479.80
547.01	2484.76
547.36	2489.77
547.72	2494.66
548.07	2498.07
548.43	2502.96
548.79	2506.95
549.14	2510.75
549.50	2514.41
549.86	2517.78
550.21	2521.05
550.57	2524.24
550.92	2525.11
551.28	2525.82
551.64	2527.78
551.99	2529.14
552.35	2530.20
552.70	2532.10
553.06	2533.42
553.41	2534.47
553.77	2535.67
554.13	2537.35
554.48	2538.45
554.84	2539.44
555.19	2540.38
555.55	2541.51
555.90	2540.04
556.26	2539.04
556.61	2536.81
556.97	2533.73
557.32	2533.04
557.68	2531.49
558.03	2529.49
558.39	2527.82
558.74	2526.87
559.10	2523.15
559.45	2519.10
559.81	2514.35
560.16	2508.76
560.52	2503.44
560.87	2498.66
561.23	2493.34
561.58	2487.23
561.94	2480.22
562.29	2472.98
562.64	2465.97
563.00	2457.80
563.35	2451.22
563.71	2444.40
564.06	2438.30
564.42	2432.27
564.77	2425.13
565.12	2417.85
565.48	2410.08
565.83	2402.23
566.19	2393.71
566.54	2386.30
566.89	2378.60
567.25	2371.15
567.60	2364.28
567.96	2357.02
568.31	2349.32
568.66	2340.96
569.02	2331.94
569.37	2323.69
569.72	2316.30
570.08	2307.15
570.43	2298.21
570.78	2289.34
571.14	2280.06
571.49	2269.67
571.84	2260.31
572.20	2249.77
572.55	2239.62
572.90	2229.08
573.26	2218.79
573.61	2208.42
573.96	2197.14
574.31	2185.42
574.67	2174.03
575.02	2161.43
575.37	2148.69
575.72	2135.59
576.08	2123.58
576.43	2111.30
576.78	2098.62
577.13	2085.02
577.49	2072.72
577.84	2060.99
578.19	2049.15
578.54	2036.89
578.90	2025.52
579.25	2013.21
579.60	2001.24
579.95	1988.59
580.30	1975.97
580.66	1962.86
581.01	1949.36
581.36	1935.83
581.71	1923.44
582.06	1910.94
582.42	1898.76
582.77	1886.56
583.12	1874.92
583.47	1862.80
583.82	1851.33
584.17	1839.52
584.53	1827.95
584.88	1815.28
585.23	1802.13
585.58	1788.37
585.93	1775.61
586.28	1762.89
586.63	1749.45
586.98	1735.59
587.34	1722.55
587.69	1709.85
588.04	1697.89
588.39	1686.26
588.74	1674.45
589.09	1662.88
589.44	1650.48
589.79	1638.83
590.14	1627.35
590.49	1615.53
590.84	1603.90
591.19	1592.08
591.54	1580.29
591.89	1568.26
592.25	1558.39
592.60	1547.54
592.95	1536.61
593.30	1525.16
593.65	1513.19
594.00	1501.54
594.35	1492.11
594.70	1481.00
595.05	1469.95
595.40	1458.24
595.75	1446.80
596.10	1435.90
596.45	1424.77
596.80	1414.13
597.15	1403.00
597.50	1391.74
597.85	1380.73
598.19	1369.37
598.54	1358.27
598.89	1347.48
599.24	1337.49
599.59	1326.40
599.94	1315.96
600.29	1306.05
600.64	1296.17
600.99	1286.12
601.34	1276.77
601.69	1265.72
602.04	1256.11
602.39	1246.54
602.74	1237.93
603.08	1228.84
603.43	1219.94
603.78	1210.64
604.13	1201.49
604.48	1192.13
604.83	1182.74
605.18	1173.47
605.53	1164.38
605.87	1155.44
606.22	1147.19
606.57	1138.36
606.92	1129.36
607.27	1120.66
607.62	1112.10
607.96	1103.75
608.31	1096.15
608.66	1088.15
609.01	1080.07
609.36	1071.91
609.70	1063.85
610.05	1055.30
610.40	1047.15
610.75	1038.80
611.10	1030.78
611.44	1022.51
611.79	1014.73
612.14	1007.26
612.49	999.72
612.83	992.58
613.18	985.23
613.53	977.70
613.88	970.08
614.22	962.76
614.57	955.12
614.92	947.58
615.27	940.29
615.61	932.85
615.96	925.66
616.31	918.50
616.65	911.71
617.00	904.54
617.35	897.80
617.70	891.04
618.04	884.14
618.39	877.28
618.74	871.17
619.08	864.60
619.43	857.74
619.78	851.02
620.12	844.11
620.47	837.65
620.82	830.81
621.16	824.16
621.51	818.04
621.85	812.02
622.20	805.51
622.55	799.21
622.89	793.10
623.24	787.00
623.59	780.85
623.93	774.73
624.28	768.92
624.62	763.49
624.97	757.98
625.32	752.45
625.66	746.82
626.01	740.87
626.35	735.53
626.70	730.38
627.04	725.22
627.39	720.08
627.73	714.89
628.08	710.00
628.43	704.92
628.77	699.55
629.12	694.42
629.46	690.00
629.81	685.63
630.15	681.07
630.50	676.36
630.84	671.79
631.19	667.21
631.53	662.89
631.88	657.77
632.22	653.07
632.57	648.76
632.91	644.33
633.26	640.28
633.60	635.84
633.95	631.43
634.29	626.93
634.64	622.75
634.98	618.18
635.32	613.95
635.67	610.19
636.01	606.08
636.36	602.01
636.70	598.07
637.05	593.90
637.39	589.95
637.73	585.97
638.08	582.15
638.42	578.19
638.77	574.00
639.11	569.89
639.45	565.72
639.80	561.59
640.14	557.74
640.49	553.71
640.83	550.03
641.17	546.37
641.52	542.79
641.86	539.29
642.20	536.30
642.55	532.77
642.89	529.13
643.23	525.83
643.58	522.75
643.92	519.13
644.26	515.77
644.61	512.66
644.95	509.50
645.29	506.32
645.64	503.29
645.98	500.45
646.32	497.67
646.66	494.75
647.01	491.89
647.35	489.23
647.69	486.40
648.04	483.84
648.38	481.15
648.72	478.48
649.06	475.39
649.41	472.37
649.75	469.44
650.09	466.81
650.43	464.05
650.78	461.29
651.12	458.67
651.46	456.12
651.80	453.41
652.14	450.90
652.49	448.47
652.83	445.94
653.17	443.44
653.51	440.80
653.85	438.59
654.20	436.16
654.54	433.58
654.88	431.09
655.22	428.92
655.56	426.60
655.90	424.30
656.25	422.23
656.59	420.03
656.93	418.13
657.27	416.10
657.61	413.86
657.95	411.75
658.29	409.71
658.64	407.66
658.98	405.55
659.32	403.35
659.66	401.17
660.00	399.15
660.34	397.14
660.68	395.19
661.02	393.10
661.36	391.25
661.70	389.39
662.05	387.66
662.39	385.63
662.73	384.04
663.07	382.37
663.41	380.64
663.75	378.81
664.09	377.01
664.43	375.03
664.77	373.56
665.11	371.84
665.45	370.07
665.79	368.51
666.13	366.85
666.47	365.34
666.81	363.72
667.15	362.06
667.49	360.60
667.83	359.49
668.17	358.09
668.51	356.77
668.85	355.49
669.19	354.31
669.53	352.82
669.87	351.19
670.21	349.83
670.55	348.41
670.89	347.34
671.23	345.98
671.57	344.77
671.91	343.42
672.25	342.17
672.58	341.11
672.92	339.70
673.26	338.52
673.60	337.31
673.94	336.25
674.28	335.23
674.62	334.05
674.96	332.68
675.30	331.53
675.64	330.14
675.97	328.86
676.31	327.42
676.65	326.27
676.99	325.38
677.33	324.20
677.67	323.18
678.01	321.89
678.34	320.92
678.68	319.92
679.02	318.86
679.36	317.87
679.70	316.79
680.04	315.88
680.37	314.97
680.71	313.97
681.05	313.04
681.39	312.06
681.73	311.15
682.06	310.22
682.40	309.43
682.74	308.74
683.08	308.10
683.42	307.33
683.75	306.63
684.09	305.56
684.43	304.72
684.77	303.98
685.10	303.30
685.44	302.51
685.78	301.66
686.12	300.86
686.45	300.08
686.79	299.31
687.13	298.60
687.46	297.73
687.80	297.12
688.14	296.34
688.48	295.70
688.81	294.97
689.15	294.40
689.49	293.59
689.82	292.99
690.16	292.07
690.50	291.39
690.83	290.63
691.17	289.89
691.51	289.22
691.84	288.51
692.18	287.69
692.52	287.01
692.85	286.49
693.19	286.07
693.52	285.50
693.86	284.78
694.20	284.11
694.53	283.56
694.87	282.85
695.21	282.29
695.54	281.74
695.88	281.16
696.21	280.46
696.55	279.83
696.88	279.18
697.22	278.62
697.56	278.20
697.89	277.64
698.23	277.21
698.56	276.68
698.90	276.30
699.23	275.85
699.57	275.40
699.90	274.80
700.24	274.15
700.58	273.63
700.91	273.23
701.25	273.21
701.58	273.16
701.92	272.86
702.25	272.50
702.59	271.96
702.92	271.54
703.26	271.16
703.59	270.88
703.93	270.96
704.26	270.68
704.60	270.24
704.93	269.80
705.26	269.36
705.60	269.14
705.93	268.59
706.27	268.36
706.60	268.04
706.94	267.85
707.27	267.45
707.61	267.14
707.94	266.82
708.27	266.12
708.61	265.44
708.94	265.03
709.28	264.58
709.61	264.20
709.94	263.91
710.28	263.57
710.61	263.19
710.95	262.36
711.28	262.20
711.61	261.81
711.95	261.66
712.28	261.41
712.61	260.92
712.95	260.85
713.28	260.71
713.61	260.32
713.95	259.86
714.28	259.58
714.61	259.17
714.95	258.83
715.28	258.41
715.61	257.96
715.95	257.66
716.28	257.28
716.61	257.03
716.95	256.58
717.28	256.24
717.61	255.92
717.94	255.60
718.28	255.03
718.61	254.73
718.94	254.35
719.27	254.08
719.61	253.85
719.94	253.43
720.27	252.89
720.60	252.55
720.94	252.32
721.27	252.05
721.60	251.92
721.93	251.61
722.27	251.54
722.60	251.39
722.93	251.09
723.26	250.95
723.59	250.60
723.93	250.51
724.26	250.42
724.59	250.14
724.92	249.98
725.25	249.86
725.59	249.69
725.92	249.44
726.25	249.19
726.58	248.97
726.91	248.76
727.24	248.60
727.57	248.44
727.91	248.18
728.24	248.13
728.57	247.83
728.90	247.77
729.23	247.40
729.56	247.41
729.89	247.20
730.22	246.97
730.55	246.77
730.89	246.55
731.22	246.34
731.55	246.19
731.88	246.00
732.21	245.66
732.54	245.47
732.87	245.35
733.20	245.22
733.53	245.08
733.86	244.90
734.19	244.74
734.52	244.58
734.85	244.69
735.18	244.40
735.51	244.38
735.84	244.22
736.17	244.22
736.50	243.85
736.83	244.26
737.16	244.07
737.49	243.99
737.82	243.86
738.15	243.71
738.48	243.62
738.81	243.49
739.14	243.38
739.47	243.15
739.80	242.94
740.13	242.79
740.46	242.58
740.79	242.43
741.12	242.17
741.45	242.03
741.78	241.66
742.11	241.66
742.44	241.44
742.77	241.37
743.10	241.19
743.43	241.02
743.75	240.38
744.08	240.97
744.41	240.85
744.74	240.68
745.07	240.40
745.40	240.33
745.73	240.37
746.06	240.34
746.39	240.30
746.71	240.13
747.04	240.00
747.37	239.96
747.70	239.93
748.03	239.92
748.36	239.92
748.68	239.84
749.01	239.52
749.34	239.51
749.67	239.43
750.00	239.41
750.33	239.64
750.65	239.64
750.98	238.86
751.31	238.81
751.64	238.63
751.97	238.83
752.29	238.62
752.62	238.28
752.95	238.05
753.28	237.92
753.60	237.81
753.93	237.82
754.26	237.71
754.59	237.48
754.91	237.36
755.24	237.15
755.57	237.00
755.90	236.96
756.22	236.82
756.55	236.60
756.88	236.40
757.20	235.98
757.53	235.73
757.86	235.67
758.19	235.57
758.51	235.54
758.84	235.19
759.17	235.09
759.49	235.05
759.82	235.23
760.15	235.15
760.47	235.06
760.80	234.84
761.13	234.82
761.45	234.72
761.78	234.64
762.11	234.55
762.43	234.43
762.76	234.32
763.08	234.23
763.41	234.23
763.74	234.18
764.06	234.09
764.39	234.06
764.71	233.95
765.04	233.82
765.37	233.68
765.69	233.68
766.02	233.69
766.34	233.58
766.67	233.32
767.00	233.36
767.32	233.57
767.65	233.77
767.97	233.62
768.30	233.57
768.62	233.51
768.95	233.45
769.27	233.42
769.60	233.42
769.92	233.36
770.25	233.17
770.57	232.98
770.90	232.88
771.22	232.72
771.55	232.67
771.87	232.58
772.20	232.50
772.52	232.82
772.85	233.36
773.17	233.33
773.50	233.27
773.82	233.14
774.15	232.83
774.47	232.43
774.80	232.35
775.12	232.25
775.45	232.13
775.77	232.14
776.09	232.10
776.42	232.05
776.74	232.02
777.07	231.95
777.39	231.91
777.72	231.85
778.04	231.88
778.36	231.80
778.69	231.80
779.01	231.85
779.33	231.44
779.66	230.75
779.98	230.69
780.31	230.55
780.63	230.69
780.95	230.70
781.28	230.65
781.60	230.55
781.92	230.52
782.25	230.52
782.57	230.43
782.89	230.35
783.22	230.28
783.54	230.11
783.86	230.18
784.19	230.18
784.51	230.38
784.83	230.22
785.16	230.14
785.48	230.11
785.80	230.04
786.12	229.94
786.45	229.97
786.77	229.90
787.09	229.92
787.42	229.68
787.74	229.71
788.06	229.82
788.38	229.74
788.71	229.69
789.03	229.65
789.35	229.69
789.67	229.58
789.99	229.58
790.32	229.53
790.64	229.46
790.96	229.84
791.28	229.59
791.61	229.62
791.93	229.67
792.25	229.59
792.57	229.92
792.89	229.82
793.21	229.78
793.54	229.74
793.86	229.77
794.18	229.80
794.50	229.64
794.82	229.53
795.14	229.65
795.47	229.75
795.79	229.73
796.11	229.58
796.43	229.55
796.75	229.50
797.07	229.59
797.39	229.56
797.71	229.23
798.04	229.27
798.36	229.30
798.68	229.29
799.00	229.35
799.32	229.04
799.64	229.15
799.96	229.09
800.28	229.17
800.60	229.11
800.92	229.13
801.24	229.15
801.56	229.20
801.89	229.12
802.21	229.09
802.53	229.01
802.85	229.11
803.17	229.34
803.49	229.27
803.81	229.17
804.13	229.14
804.45	229.04
804.77	229.02
805.09	229.00
805.41	228.92
805.73	228.82
806.05	228.75
806.37	228.67
806.69	228.64
807.01	228.60
807.33	228.56
807.65	228.35
807.97	228.53
808.28	228.40
808.60	228.45
808.92	228.44
809.24	228.76
809.56	228.69
809.88	228.55
810.20	228.53
810.52	228.63
810.84	228.53
811.16	228.52
811.48	228.49
811.80	228.62
812.12	228.57
812.43	228.71
812.75	228.68
813.07	228.67
813.39	228.69
813.71	228.63
814.03	228.64
814.35	228.61
814.67	228.45
814.98	228.42
815.30	228.37
815.62	228.21
815.94	227.90
816.26	228.13
816.58	228.00
816.89	228.11
817.21	227.98
817.53	228.03
817.85	228.08
