SpectraSuite Data File
++++++++++++++++++++++++++++++++++++
Date: Wed Sep 04 17:45:16 EDT 2013
User: lab3
Dark Spectrum Present: Yes
Reference Spectrum Present: No
Number of Sampled Component Spectra: 1
Spectrometers: USB2E7196
Integration Time (usec): 170000 (USB2E7196)
Spectra Averaged: 20 (USB2E7196)
Boxcar Smoothing: 10 (USB2E7196)
Correct for Electrical Dark: No (USB2E7196)
Strobe/Lamp Enabled: No (USB2E7196)
Correct for Detector Non-linearity: No (USB2E7196)
Correct for Stray Light: No (USB2E7196)
Number of Pixels in Processed Spectrum: 2048
>>>>>Begin Processed Spectral Data<<<<<
339.09	0.00
339.48	211.65
339.86	214.35
340.24	215.75
340.63	215.85
341.01	225.65
341.39	218.50
341.78	221.70
342.16	224.55
342.54	222.10
342.93	211.70
343.31	222.40
343.69	222.95
344.07	223.37
344.46	223.86
344.84	224.33
345.22	224.28
345.60	224.68
345.99	224.86
346.37	224.93
346.75	225.10
347.13	225.17
347.52	225.21
347.90	225.45
348.28	225.50
348.66	225.66
349.05	225.60
349.43	225.71
349.81	225.77
350.19	225.87
350.57	225.91
350.96	225.96
351.34	226.06
351.72	226.19
352.10	226.30
352.48	226.30
352.87	226.36
353.25	226.46
353.63	226.38
354.01	226.39
354.39	226.50
354.77	226.52
355.15	226.65
355.54	226.67
355.92	226.52
356.30	226.63
356.68	226.97
357.06	227.02
357.44	226.92
357.82	226.95
358.20	227.37
358.58	227.38
358.97	227.48
359.35	227.66
359.73	227.80
360.11	227.84
360.49	227.90
360.87	227.92
361.25	228.03
361.63	228.27
362.01	228.34
362.39	228.35
362.77	228.44
363.15	228.47
363.53	228.44
363.91	228.54
364.29	228.55
364.67	228.17
365.05	228.26
365.43	228.49
365.81	228.65
366.19	228.53
366.57	228.77
366.95	228.79
367.33	228.61
367.71	228.67
368.09	228.79
368.47	228.80
368.85	228.78
369.23	228.88
369.61	228.73
369.99	228.91
370.37	228.98
370.75	229.19
371.13	229.04
371.51	229.02
371.89	229.06
372.27	229.03
372.65	229.03
373.03	228.93
373.41	228.78
373.78	228.66
374.16	228.44
374.54	228.16
374.92	228.09
375.30	228.06
375.68	227.86
376.06	227.78
376.44	227.74
376.82	227.75
377.19	227.60
377.57	227.48
377.95	227.23
378.33	227.07
378.71	226.71
379.09	226.74
379.47	226.70
379.84	226.55
380.22	226.48
380.60	226.27
380.98	226.19
381.36	226.08
381.73	225.97
382.11	225.91
382.49	225.94
382.87	225.80
383.25	225.73
383.62	226.30
384.00	226.17
384.38	226.15
384.76	226.15
385.13	226.21
385.51	226.20
385.89	226.16
386.27	226.10
386.64	226.07
387.02	226.03
387.40	225.93
387.78	225.90
388.15	225.87
388.53	225.83
388.91	225.78
389.29	225.74
389.66	225.76
390.04	225.66
390.42	225.71
390.79	225.75
391.17	225.74
391.55	225.05
391.92	225.07
392.30	225.07
392.68	224.95
393.05	224.89
393.43	224.88
393.81	224.91
394.18	224.83
394.56	224.91
394.94	225.00
395.31	225.00
395.69	225.18
396.06	225.23
396.44	225.37
396.82	225.41
397.19	225.72
397.57	225.75
397.95	225.88
398.32	225.79
398.70	225.90
399.07	226.08
399.45	226.22
399.82	226.32
400.20	226.35
400.58	226.53
400.95	226.55
401.33	226.80
401.70	227.23
402.08	227.40
402.45	227.54
402.83	227.79
403.20	227.99
403.58	228.14
403.95	228.39
404.33	228.65
404.71	228.88
405.08	229.32
405.46	229.51
405.83	229.76
406.21	230.00
406.58	230.30
406.96	230.55
407.33	230.89
407.70	231.22
408.08	231.97
408.45	232.36
408.83	232.83
409.20	233.11
409.58	233.23
409.95	233.84
410.33	234.34
410.70	234.64
411.08	235.33
411.45	235.96
411.82	236.56
412.20	237.23
412.57	238.16
412.95	238.46
413.32	239.32
413.69	240.17
414.07	241.15
414.44	242.09
414.82	243.09
415.19	244.31
415.56	245.46
415.94	246.47
416.31	247.89
416.68	249.34
417.06	250.90
417.43	252.49
417.81	254.24
418.18	256.09
418.55	258.10
418.93	260.03
419.30	262.05
419.67	264.24
420.04	266.48
420.42	268.74
420.79	271.79
421.16	274.52
421.54	277.55
421.91	280.50
422.28	283.57
422.66	286.87
423.03	290.22
423.40	293.52
423.77	296.92
424.15	300.40
424.52	304.03
424.89	308.17
425.26	312.02
425.64	315.76
426.01	319.91
426.38	324.05
426.75	328.56
427.13	332.95
427.50	337.51
427.87	342.42
428.24	347.27
428.61	351.65
428.99	356.80
429.36	362.12
429.73	367.40
430.10	372.71
430.47	378.21
430.85	383.69
431.22	389.68
431.59	396.27
431.96	402.36
432.33	409.09
432.70	415.65
433.08	423.39
433.45	430.47
433.82	437.52
434.19	445.61
434.56	453.43
434.93	460.91
435.30	468.57
435.68	476.72
436.05	484.92
436.42	493.07
436.79	500.69
437.16	508.85
437.53	517.48
437.90	526.05
438.27	534.35
438.64	542.96
439.01	551.03
439.38	558.23
439.75	565.22
440.13	573.02
440.50	580.40
440.87	586.36
441.24	592.60
441.61	599.36
441.98	604.35
442.35	609.98
442.72	615.94
443.09	621.71
443.46	625.25
443.83	627.65
444.20	629.56
444.57	632.05
444.94	633.00
445.31	634.17
445.68	635.47
446.05	635.71
446.42	634.51
446.79	633.06
447.16	631.37
447.53	630.15
447.90	626.60
448.27	622.91
448.64	618.10
449.01	614.62
449.37	608.64
449.74	602.75
450.11	596.15
450.48	588.58
450.85	580.64
451.22	573.93
451.59	567.31
451.96	561.20
452.33	553.37
452.70	546.26
453.07	537.69
453.43	528.76
453.80	520.54
454.17	512.75
454.54	505.34
454.91	497.26
455.28	489.37
455.65	482.13
456.02	475.58
456.38	469.43
456.75	461.73
457.12	455.37
457.49	449.23
457.86	443.05
458.23	438.07
458.59	432.49
458.96	426.87
459.33	421.92
459.70	416.96
460.07	413.04
460.43	408.44
460.80	404.21
461.17	400.59
461.54	396.71
461.91	392.89
462.27	389.08
462.64	386.06
463.01	382.67
463.38	379.57
463.74	375.48
464.11	372.54
464.48	369.99
464.85	367.27
465.21	365.17
465.58	362.93
465.95	360.15
466.32	358.06
466.68	355.85
467.05	353.76
467.42	351.51
467.78	349.20
468.15	347.13
468.52	345.66
468.88	343.50
469.25	341.61
469.62	340.25
469.98	338.74
470.35	337.14
470.72	335.70
471.08	333.88
471.45	332.81
471.82	331.58
472.18	330.20
472.55	329.16
472.92	327.85
473.28	326.62
473.65	325.48
474.02	324.35
474.38	323.52
474.75	322.70
475.11	321.89
475.48	321.28
475.85	320.65
476.21	319.99
476.58	319.49
476.94	319.04
477.31	318.52
477.67	318.15
478.04	317.87
478.41	317.77
478.77	318.05
479.14	317.67
479.50	317.51
479.87	317.54
480.23	317.51
480.60	317.52
480.96	317.59
481.33	318.01
481.69	318.25
482.06	318.44
482.42	318.70
482.79	318.99
483.15	319.36
483.52	320.01
483.88	320.65
484.25	321.25
484.61	321.97
484.98	322.68
485.34	323.60
485.71	324.55
486.07	325.45
486.44	326.04
486.80	327.19
487.17	328.41
487.53	329.68
487.90	331.18
488.26	332.83
488.62	334.60
488.99	336.05
489.35	337.85
489.72	339.71
490.08	341.73
490.44	343.85
490.81	346.15
491.17	348.29
491.54	350.62
491.90	353.13
492.26	355.80
492.63	358.65
492.99	361.41
493.36	364.42
493.72	367.65
494.08	371.08
494.45	374.69
494.81	378.59
495.17	382.55
495.54	386.73
495.90	390.89
496.26	395.29
496.63	400.01
496.99	404.71
497.35	409.76
497.72	415.00
498.08	420.44
498.44	426.09
498.80	432.09
499.17	438.00
499.53	444.20
499.89	450.84
500.26	457.55
500.62	464.57
500.98	471.86
501.34	479.21
501.71	486.94
502.07	494.67
502.43	502.57
502.79	510.91
503.16	519.36
503.52	528.19
503.88	537.08
504.24	546.54
504.60	556.34
504.97	566.54
505.33	576.70
505.69	587.50
506.05	598.31
506.41	609.23
506.78	620.75
507.14	632.67
507.50	644.68
507.86	657.13
508.22	669.99
508.59	682.82
508.95	696.26
509.31	710.16
509.67	724.35
510.03	738.64
510.39	753.07
510.75	767.82
511.12	783.07
511.48	798.61
511.84	814.08
512.20	829.85
512.56	845.74
512.92	862.47
513.28	878.94
513.64	895.73
514.00	912.95
514.37	930.50
514.73	948.34
515.09	966.18
515.45	984.32
515.81	1002.24
516.17	1020.70
516.53	1038.96
516.89	1057.17
517.25	1075.95
517.61	1095.85
517.97	1115.75
518.33	1135.40
518.69	1155.04
519.05	1175.04
519.41	1195.41
519.77	1216.13
520.13	1236.40
520.49	1256.42
520.85	1276.91
521.21	1297.57
521.57	1318.57
521.93	1338.87
522.29	1359.38
522.65	1379.62
523.01	1400.03
523.37	1420.37
523.73	1441.01
524.09	1460.98
524.45	1481.16
524.81	1501.55
525.17	1521.29
525.53	1541.17
525.89	1561.73
526.25	1581.93
526.61	1601.87
526.97	1622.39
527.33	1642.83
527.68	1663.77
528.04	1684.77
528.40	1705.38
528.76	1726.08
529.12	1745.80
529.48	1766.15
529.84	1785.66
530.20	1806.05
530.56	1826.14
530.91	1846.39
531.27	1866.18
531.63	1886.30
531.99	1906.51
532.35	1925.97
532.71	1945.57
533.07	1965.68
533.42	1984.70
533.78	2003.97
534.14	2023.12
534.50	2041.45
534.86	2059.91
535.21	2077.24
535.57	2094.75
535.93	2111.49
536.29	2128.60
536.65	2146.00
537.00	2162.46
537.36	2179.45
537.72	2195.16
538.08	2211.59
538.44	2227.36
538.79	2243.13
539.15	2258.86
539.51	2274.13
539.87	2288.98
540.22	2302.34
540.58	2315.81
540.94	2328.74
541.29	2340.84
541.65	2352.89
542.01	2364.75
542.37	2374.96
542.72	2385.14
543.08	2395.06
543.44	2406.36
543.79	2415.56
544.15	2424.74
544.51	2434.58
544.87	2443.46
545.22	2451.73
545.58	2458.71
545.94	2465.67
546.29	2471.48
546.65	2477.35
547.01	2482.08
547.36	2486.78
547.72	2491.77
548.07	2495.03
548.43	2499.38
548.79	2503.57
549.14	2506.93
549.50	2510.29
549.86	2513.69
550.21	2516.97
550.57	2519.92
550.92	2520.75
551.28	2521.54
551.64	2523.45
551.99	2524.82
552.35	2525.86
552.70	2527.61
553.06	2528.87
553.41	2529.55
553.77	2530.94
554.13	2531.96
554.48	2533.40
554.84	2534.19
555.19	2534.73
555.55	2536.24
555.90	2535.16
556.26	2533.79
556.61	2531.92
556.97	2529.43
557.32	2528.51
557.68	2527.15
558.03	2525.45
558.39	2523.66
558.74	2522.50
559.10	2518.78
559.45	2514.61
559.81	2509.90
560.16	2504.31
560.52	2499.10
560.87	2494.20
561.23	2488.33
561.58	2482.37
561.94	2475.11
562.29	2467.54
562.64	2460.73
563.00	2452.31
563.35	2445.64
563.71	2438.86
564.06	2432.40
564.42	2425.69
564.77	2418.56
565.12	2410.68
565.48	2402.63
565.83	2394.62
566.19	2386.54
566.54	2378.84
566.89	2371.20
567.25	2363.72
567.60	2357.02
567.96	2349.72
568.31	2341.88
568.66	2333.38
569.02	2324.38
569.37	2316.38
569.72	2309.27
570.08	2300.03
570.43	2290.50
570.78	2281.66
571.14	2272.55
571.49	2262.37
571.84	2252.93
572.20	2242.33
572.55	2232.44
572.90	2221.80
573.26	2211.87
573.61	2201.17
573.96	2190.46
574.31	2178.44
574.67	2166.79
575.02	2153.93
575.37	2141.34
575.72	2128.69
576.08	2117.06
576.43	2104.60
576.78	2091.60
577.13	2077.83
577.49	2065.45
577.84	2054.40
578.19	2042.59
578.54	2030.40
578.90	2019.18
579.25	2007.07
579.60	1994.55
579.95	1981.90
580.30	1969.21
580.66	1956.06
581.01	1942.91
581.36	1929.37
581.71	1917.04
582.06	1904.55
582.42	1892.65
582.77	1880.35
583.12	1868.77
583.47	1856.72
583.82	1845.21
584.17	1833.93
584.53	1822.99
584.88	1810.46
585.23	1797.56
585.58	1783.71
585.93	1770.74
586.28	1757.69
586.63	1744.30
586.98	1730.78
587.34	1718.14
587.69	1705.40
588.04	1693.51
588.39	1681.80
588.74	1669.93
589.09	1658.28
589.44	1645.94
589.79	1634.23
590.14	1622.87
590.49	1611.01
590.84	1599.43
591.19	1587.99
591.54	1575.85
591.89	1563.69
592.25	1554.02
592.60	1542.90
592.95	1532.21
593.30	1520.70
593.65	1509.19
594.00	1497.51
594.35	1488.23
594.70	1477.00
595.05	1466.03
595.40	1454.22
595.75	1442.60
596.10	1431.78
596.45	1420.71
596.80	1410.29
597.15	1399.18
597.50	1387.96
597.85	1377.04
598.19	1365.74
598.54	1354.52
598.89	1343.80
599.24	1333.83
599.59	1322.46
599.94	1312.15
600.29	1302.05
600.64	1292.25
600.99	1282.10
601.34	1273.23
601.69	1262.27
602.04	1252.76
602.39	1243.57
602.74	1234.75
603.08	1225.73
603.43	1216.75
603.78	1207.55
604.13	1198.37
604.48	1189.10
604.83	1179.50
605.18	1170.10
605.53	1160.92
605.87	1152.22
606.22	1144.06
606.57	1135.22
606.92	1126.33
607.27	1117.62
607.62	1109.16
607.96	1100.92
608.31	1093.31
608.66	1084.80
609.01	1076.61
609.36	1068.42
609.70	1060.24
610.05	1051.80
610.40	1043.94
610.75	1035.71
611.10	1027.67
611.44	1019.32
611.79	1011.55
612.14	1004.20
612.49	996.55
612.83	989.48
613.18	982.04
613.53	974.56
613.88	966.77
614.22	959.29
614.57	951.87
614.92	944.49
615.27	937.33
615.61	930.03
615.96	923.07
616.31	916.00
616.65	909.24
617.00	902.01
617.35	895.34
617.70	888.52
618.04	881.76
618.39	875.19
618.74	869.24
619.08	862.72
619.43	856.24
619.78	849.56
620.12	842.75
620.47	836.00
620.82	829.14
621.16	822.73
621.51	816.83
621.85	810.73
622.20	804.27
622.55	798.08
622.89	791.78
623.24	785.69
623.59	779.67
623.93	773.62
624.28	767.94
624.62	762.72
624.97	757.13
625.32	751.71
625.66	746.00
626.01	740.32
626.35	734.95
626.70	729.54
627.04	724.70
627.39	719.39
627.73	714.52
628.08	709.64
628.43	704.48
628.77	699.13
629.12	694.14
629.46	689.60
629.81	684.94
630.15	680.50
630.50	675.96
630.84	671.28
631.19	666.65
631.53	662.34
631.88	657.25
632.22	652.50
632.57	648.07
632.91	643.65
633.26	639.41
633.60	635.04
633.95	630.57
634.29	626.09
634.64	621.76
634.98	617.10
635.32	612.87
635.67	608.98
636.01	604.89
636.36	600.72
636.70	596.90
637.05	592.93
637.39	588.89
637.73	584.86
638.08	581.17
638.42	577.27
638.77	573.09
639.11	568.95
639.45	564.89
639.80	560.80
640.14	557.00
640.49	553.05
640.83	549.40
641.17	546.07
641.52	542.34
641.86	539.00
642.20	536.09
642.55	532.70
642.89	529.23
643.23	525.99
643.58	522.93
643.92	519.27
644.26	515.88
644.61	512.75
644.95	509.55
645.29	506.15
645.64	503.06
645.98	500.14
646.32	497.32
646.66	494.44
647.01	491.58
647.35	488.85
647.69	486.04
648.04	483.34
648.38	480.50
648.72	477.85
649.06	474.96
649.41	471.96
649.75	469.10
650.09	466.35
650.43	463.57
650.78	460.79
651.12	458.11
651.46	455.41
651.80	452.57
652.14	450.04
652.49	447.71
652.83	445.25
653.17	442.75
653.51	440.17
653.85	437.84
654.20	435.36
654.54	432.75
654.88	430.29
655.22	428.06
655.56	425.77
655.90	423.51
656.25	421.32
656.59	419.10
656.93	416.94
657.27	414.98
657.61	412.75
657.95	410.54
658.29	408.40
658.64	406.48
658.98	404.47
659.32	402.27
659.66	400.01
660.00	397.86
660.34	395.81
660.68	393.90
661.02	391.95
661.36	390.16
661.70	388.22
662.05	386.37
662.39	384.47
662.73	382.63
663.07	380.99
663.41	379.29
663.75	377.51
664.09	375.83
664.43	373.96
664.77	372.25
665.11	370.62
665.45	369.10
665.79	367.48
666.13	365.81
666.47	364.20
666.81	362.70
667.15	361.18
667.49	359.76
667.83	358.45
668.17	356.98
668.51	355.53
668.85	354.36
669.19	353.24
669.53	351.70
669.87	350.25
670.21	348.75
670.55	347.39
670.89	346.31
671.23	345.01
671.57	343.74
671.91	342.57
672.25	341.33
672.58	340.25
672.92	338.87
673.26	337.76
673.60	336.66
673.94	335.56
674.28	334.50
674.62	333.43
674.96	332.19
675.30	331.03
675.64	329.98
675.97	328.74
676.31	327.35
676.65	326.22
676.99	325.41
677.33	324.29
677.67	323.34
678.01	322.04
678.34	320.99
678.68	320.04
679.02	318.95
679.36	317.94
679.70	316.88
680.04	316.03
680.37	315.11
680.71	314.08
681.05	313.18
681.39	312.27
681.73	311.35
682.06	310.40
682.40	309.60
682.74	308.83
683.08	308.21
683.42	307.50
683.75	306.84
684.09	305.88
684.43	305.19
684.77	304.38
685.10	303.65
685.44	302.89
685.78	302.14
686.12	301.40
686.45	300.62
686.79	299.84
687.13	299.27
687.46	298.56
687.80	297.94
688.14	297.17
688.48	296.33
688.81	295.59
689.15	295.03
689.49	294.27
689.82	293.49
690.16	292.55
690.50	291.86
690.83	291.07
691.17	290.29
691.51	289.48
691.84	288.82
692.18	288.12
692.52	287.50
692.85	286.86
693.19	286.41
693.52	285.84
693.86	285.18
694.20	284.37
694.53	283.77
694.87	283.15
695.21	282.53
695.54	282.02
695.88	281.43
696.21	280.69
696.55	280.09
696.88	279.53
697.22	279.00
697.56	278.44
697.89	277.81
698.23	277.39
698.56	276.93
698.90	276.43
699.23	275.90
699.57	275.35
699.90	274.75
700.24	274.08
700.58	273.58
700.91	273.19
701.25	273.18
701.58	273.05
701.92	272.67
702.25	272.24
702.59	271.87
702.92	271.46
703.26	271.09
703.59	270.65
703.93	270.57
704.26	270.22
704.60	269.90
704.93	269.55
705.26	269.00
705.60	268.60
705.93	268.04
706.27	267.80
706.60	267.54
706.94	267.35
707.27	267.01
707.61	266.67
707.94	266.31
708.27	265.59
708.61	264.79
708.94	264.35
709.28	263.98
709.61	263.50
709.94	263.10
710.28	262.76
710.61	262.46
710.95	261.73
711.28	261.67
711.61	261.23
711.95	260.99
712.28	260.59
712.61	260.30
712.95	260.31
713.28	260.14
713.61	259.70
713.95	259.23
714.28	258.95
714.61	258.67
714.95	258.25
715.28	257.73
715.61	257.45
715.95	257.18
716.28	256.76
716.61	256.56
716.95	256.22
717.28	255.95
717.61	255.65
717.94	255.42
718.28	254.79
718.61	254.50
718.94	254.19
719.27	254.00
719.61	253.79
719.94	253.38
720.27	252.91
720.60	252.69
720.94	252.47
721.27	252.24
721.60	252.01
721.93	251.84
722.27	251.86
722.60	251.72
722.93	251.35
723.26	251.24
723.59	250.96
723.93	250.85
724.26	250.59
724.59	250.33
724.92	250.12
725.25	250.00
725.59	249.80
725.92	249.56
726.25	249.36
726.58	249.13
726.91	248.91
727.24	248.75
727.57	248.56
727.91	248.30
728.24	248.11
728.57	247.85
728.90	247.73
729.23	247.40
729.56	247.44
729.89	247.36
730.22	247.27
730.55	247.15
730.89	246.95
731.22	246.75
731.55	246.66
731.88	246.49
732.21	246.32
732.54	246.12
732.87	245.92
733.20	245.81
733.53	245.64
733.86	245.55
734.19	245.35
734.52	245.25
734.85	245.39
735.18	245.19
735.51	245.15
735.84	244.98
736.17	244.95
736.50	244.51
736.83	244.95
737.16	244.68
737.49	244.49
737.82	244.34
738.15	244.24
738.48	244.05
738.81	243.86
739.14	243.62
739.47	243.44
739.80	243.32
740.13	243.22
740.46	243.04
740.79	242.80
741.12	242.62
741.45	242.38
741.78	241.98
742.11	241.94
742.44	241.72
742.77	241.71
743.10	241.50
743.43	241.36
743.75	240.67
744.08	241.22
744.41	241.07
744.74	240.85
745.07	240.69
745.40	240.60
745.73	240.65
746.06	240.53
746.39	240.49
746.71	240.39
747.04	240.15
747.37	239.98
747.70	239.94
748.03	239.80
748.36	239.78
748.68	239.74
749.01	239.51
749.34	239.43
749.67	239.27
750.00	239.18
750.33	239.50
750.65	239.41
750.98	238.60
751.31	238.48
751.64	238.41
751.97	238.50
752.29	238.39
752.62	238.05
752.95	238.04
753.28	237.77
753.60	237.57
753.93	237.62
754.26	237.59
754.59	237.32
754.91	237.20
755.24	236.96
755.57	236.80
755.90	236.60
756.22	236.41
756.55	236.16
756.88	235.97
757.20	235.48
757.53	235.20
757.86	235.15
758.19	235.10
758.51	235.01
758.84	234.68
759.17	234.51
759.49	234.54
759.82	234.58
760.15	234.57
760.47	234.53
760.80	234.28
761.13	234.25
761.45	234.19
761.78	234.14
762.11	234.17
762.43	233.95
762.76	233.93
763.08	233.95
763.41	233.97
763.74	233.98
764.06	233.89
764.39	233.93
764.71	233.88
765.04	233.84
765.37	233.69
765.69	233.63
766.02	233.57
766.34	233.43
766.67	233.21
767.00	233.27
767.32	233.45
767.65	233.70
767.97	233.57
768.30	233.53
768.62	233.50
768.95	233.35
769.27	233.34
769.60	233.40
769.92	233.26
770.25	233.17
770.57	233.02
770.90	233.00
771.22	232.92
771.55	232.85
771.87	232.82
772.20	232.84
772.52	233.25
772.85	233.76
773.17	233.73
773.50	233.65
773.82	233.59
774.15	233.38
774.47	233.01
774.80	232.94
775.12	232.86
775.45	232.76
775.77	232.78
776.09	232.76
776.42	232.69
776.74	232.79
777.07	232.68
777.39	232.66
777.72	232.58
778.04	232.55
778.36	232.47
778.69	232.29
779.01	232.21
779.33	231.70
779.66	231.14
779.98	231.12
780.31	231.12
780.63	231.26
780.95	231.24
781.28	231.22
781.60	231.16
781.92	231.21
782.25	231.20
782.57	231.15
782.89	231.14
783.22	231.10
783.54	231.00
783.86	231.05
784.19	230.94
784.51	231.01
784.83	230.89
785.16	230.86
785.48	230.95
785.80	230.94
786.12	230.95
786.45	230.86
786.77	230.81
787.09	230.80
787.42	230.57
787.74	230.60
788.06	230.62
788.38	230.59
788.71	230.53
789.03	230.51
789.35	230.52
789.67	230.38
789.99	230.30
790.32	230.15
790.64	230.09
790.96	230.50
791.28	230.27
791.61	230.23
791.93	230.25
792.25	230.12
792.57	230.49
792.89	230.41
793.21	230.45
793.54	230.36
793.86	230.24
794.18	230.30
794.50	230.15
794.82	230.07
795.14	230.07
795.47	230.07
795.79	230.09
796.11	229.90
796.43	229.89
796.75	229.84
797.07	229.87
797.39	229.84
797.71	229.50
798.04	229.57
798.36	229.64
798.68	229.56
799.00	229.61
799.32	229.25
799.64	229.32
799.96	229.25
800.28	229.30
800.60	229.27
800.92	229.23
801.24	229.11
801.56	229.16
801.89	229.12
802.21	229.08
802.53	228.95
802.85	229.11
803.17	229.32
803.49	229.26
803.81	229.16
804.13	229.11
804.45	229.04
804.77	229.05
805.09	228.92
805.41	228.88
805.73	228.74
806.05	228.59
806.37	228.53
806.69	228.48
807.01	228.44
807.33	228.38
807.65	228.20
807.97	228.39
808.28	228.32
808.60	228.27
808.92	228.20
809.24	228.52
809.56	228.41
809.88	228.20
810.20	228.22
810.52	228.29
810.84	228.22
811.16	228.17
811.48	228.07
811.80	228.30
812.12	228.24
812.43	228.33
812.75	228.39
813.07	228.31
813.39	228.35
813.71	228.20
814.03	228.18
814.35	228.20
814.67	228.07
814.98	228.00
815.30	227.90
815.62	227.85
815.94	227.47
816.26	227.66
816.58	227.60
816.89	227.63
817.21	227.51
817.53	227.57
817.85	227.56
