SpectraSuite Data File
++++++++++++++++++++++++++++++++++++
Date: Wed Sep 04 17:42:43 EDT 2013
User: lab3
Dark Spectrum Present: Yes
Reference Spectrum Present: No
Number of Sampled Component Spectra: 1
Spectrometers: USB2E7196
Integration Time (usec): 170000 (USB2E7196)
Spectra Averaged: 20 (USB2E7196)
Boxcar Smoothing: 10 (USB2E7196)
Correct for Electrical Dark: No (USB2E7196)
Strobe/Lamp Enabled: No (USB2E7196)
Correct for Detector Non-linearity: No (USB2E7196)
Correct for Stray Light: No (USB2E7196)
Number of Pixels in Processed Spectrum: 2048
>>>>>Begin Processed Spectral Data<<<<<
339.09	0.00
339.48	212.95
339.86	213.15
340.24	216.65
340.63	218.15
341.01	225.60
341.39	219.70
341.78	221.70
342.16	224.55
342.54	222.05
342.93	212.05
343.31	222.74
343.69	223.36
344.07	223.85
344.46	224.24
344.84	224.60
345.22	224.53
345.60	224.83
345.99	225.06
346.37	225.12
346.75	225.25
347.13	225.25
347.52	225.38
347.90	225.50
348.28	225.49
348.66	225.54
349.05	225.38
349.43	225.50
349.81	225.57
350.19	225.62
350.57	225.73
350.96	225.89
351.34	226.04
351.72	226.02
352.10	226.13
352.48	226.18
352.87	226.16
353.25	226.22
353.63	226.20
354.01	226.17
354.39	226.21
354.77	226.26
355.15	226.51
355.54	226.46
355.92	226.40
356.30	226.48
356.68	226.89
357.06	227.00
357.44	226.97
357.82	226.99
358.20	227.46
358.58	227.47
358.97	227.48
359.35	227.59
359.73	227.73
360.11	227.79
360.49	227.88
360.87	227.90
361.25	227.99
361.63	228.27
362.01	228.36
362.39	228.44
362.77	228.55
363.15	228.54
363.53	228.65
363.91	228.71
364.29	228.72
364.67	228.31
365.05	228.37
365.43	228.50
365.81	228.58
366.19	228.37
366.57	228.57
366.95	228.63
367.33	228.48
367.71	228.50
368.09	228.57
368.47	228.58
368.85	228.59
369.23	228.74
369.61	228.52
369.99	228.66
370.37	228.69
370.75	228.95
371.13	228.80
371.51	228.68
371.89	228.72
372.27	228.77
372.65	228.73
373.03	228.69
373.41	228.58
373.78	228.52
374.16	228.30
374.54	228.14
374.92	227.95
375.30	227.90
375.68	227.80
376.06	227.75
376.44	227.63
376.82	227.69
377.19	227.57
377.57	227.48
377.95	227.30
378.33	227.22
378.71	226.84
379.09	226.82
379.47	226.85
379.84	226.75
380.22	226.58
380.60	226.43
380.98	226.35
381.36	226.27
381.73	226.11
382.11	226.11
382.49	226.10
382.87	226.08
383.25	226.07
383.62	226.52
384.00	226.39
384.38	226.37
384.76	226.37
385.13	226.51
385.51	226.44
385.89	226.31
386.27	226.19
386.64	226.24
387.02	226.21
387.40	226.09
387.78	226.08
388.15	226.08
388.53	226.06
388.91	226.03
389.29	226.01
389.66	226.09
390.04	226.07
390.42	226.06
390.79	226.04
391.17	226.06
391.55	225.55
391.92	225.61
392.30	225.62
392.68	225.52
393.05	225.49
393.43	225.54
393.81	225.62
394.18	225.65
394.56	225.62
394.94	225.73
395.31	225.72
395.69	225.85
396.06	225.88
396.44	226.01
396.82	225.97
397.19	226.24
397.57	226.23
397.95	226.31
398.32	226.19
398.70	226.28
399.07	226.40
399.45	226.45
399.82	226.42
400.20	226.54
400.58	226.62
400.95	226.48
401.33	226.67
401.70	227.00
402.08	227.08
402.45	227.25
402.83	227.42
403.20	227.61
403.58	227.70
403.95	227.93
404.33	228.11
404.71	228.35
405.08	228.70
405.46	228.86
405.83	229.10
406.21	229.37
406.58	229.63
406.96	229.78
407.33	230.11
407.70	230.47
408.08	231.11
408.45	231.41
408.83	231.94
409.20	232.28
409.58	232.41
409.95	232.98
410.33	233.41
410.70	233.73
411.08	234.26
411.45	234.76
411.82	235.27
412.20	235.85
412.57	236.75
412.95	237.01
413.32	237.77
413.69	238.36
414.07	239.20
414.44	240.03
414.82	240.93
415.19	241.89
415.56	242.90
415.94	243.68
416.31	244.91
416.68	245.99
417.06	247.32
417.43	248.74
417.81	250.03
418.18	251.48
418.55	253.10
418.93	254.69
419.30	256.39
419.67	258.24
420.04	260.17
420.42	262.06
420.79	264.73
421.16	267.09
421.54	269.72
421.91	272.24
422.28	274.79
422.66	277.52
423.03	280.43
423.40	283.24
423.77	286.11
424.15	289.05
424.52	292.15
424.89	295.61
425.26	298.89
425.64	302.10
426.01	305.56
426.38	309.16
426.75	313.08
427.13	316.91
427.50	320.85
427.87	324.90
428.24	328.87
428.61	332.51
428.99	336.99
429.36	341.48
429.73	345.89
430.10	350.50
430.47	355.20
430.85	359.79
431.22	364.95
431.59	370.75
431.96	376.01
432.33	381.81
432.70	387.36
433.08	393.81
433.45	399.95
433.82	406.05
434.19	412.87
434.56	419.56
434.93	425.95
435.30	432.48
435.68	439.65
436.05	446.79
436.42	453.73
436.79	460.03
437.16	466.92
437.53	474.32
437.90	481.54
438.27	488.73
438.64	496.19
439.01	503.10
439.38	508.92
439.75	514.84
440.13	521.52
440.50	527.64
440.87	532.84
441.24	538.21
441.61	543.94
441.98	548.34
442.35	553.17
442.72	558.23
443.09	563.04
443.46	565.89
443.83	567.77
444.20	569.54
444.57	571.80
444.94	572.82
445.31	573.83
445.68	575.14
446.05	575.27
446.42	574.06
446.79	572.89
447.16	571.68
447.53	570.75
447.90	567.72
448.27	564.69
448.64	560.53
449.01	557.55
449.37	552.69
449.74	547.60
450.11	542.07
450.48	535.62
450.85	528.92
451.22	523.35
451.59	517.91
451.96	512.88
452.33	506.27
452.70	500.25
453.07	493.04
453.43	485.40
453.80	478.43
454.17	471.99
454.54	465.65
454.91	458.98
455.28	452.32
455.65	446.19
456.02	440.84
456.38	435.70
456.75	429.24
457.12	423.77
457.49	418.65
457.86	413.25
458.23	409.06
458.59	404.41
458.96	399.54
459.33	395.33
459.70	390.87
460.07	387.48
460.43	383.66
460.80	380.16
461.17	377.11
461.54	373.88
461.91	370.65
462.27	367.42
462.64	364.61
463.01	361.66
463.38	359.00
463.74	355.50
464.11	353.00
464.48	350.85
464.85	348.56
465.21	346.78
465.58	344.98
465.95	342.53
466.32	340.79
466.68	338.92
467.05	337.13
467.42	335.31
467.78	333.42
468.15	331.65
468.52	330.36
468.88	328.49
469.25	326.93
469.62	325.82
469.98	324.54
470.35	323.37
470.72	322.28
471.08	320.78
471.45	319.81
471.82	318.86
472.18	317.74
472.55	316.87
472.92	315.80
473.28	314.74
473.65	313.92
474.02	312.95
474.38	312.34
474.75	311.79
475.11	311.06
475.48	310.55
475.85	310.00
476.21	309.45
476.58	309.15
476.94	308.85
477.31	308.55
477.67	308.14
478.04	307.85
478.41	307.71
478.77	308.11
479.14	307.84
479.50	307.71
479.87	307.75
480.23	307.89
480.60	307.90
480.96	308.05
481.33	308.50
481.69	308.80
482.06	309.07
482.42	309.34
482.79	309.75
483.15	310.10
483.52	310.82
483.88	311.24
484.25	311.77
484.61	312.47
484.98	313.04
485.34	314.04
485.71	315.01
486.07	315.93
486.44	316.60
486.80	317.67
487.17	318.82
487.53	320.18
487.90	321.48
488.26	323.04
488.62	324.53
488.99	325.88
489.35	327.52
489.72	329.20
490.08	330.96
490.44	332.81
490.81	334.91
491.17	336.91
491.54	339.31
491.90	341.61
492.26	343.99
492.63	346.60
492.99	349.16
493.36	351.89
493.72	354.93
494.08	358.05
494.45	361.42
494.81	364.95
495.17	368.32
495.54	372.08
495.90	375.88
496.26	380.03
496.63	384.23
496.99	388.55
497.35	393.11
497.72	397.98
498.08	402.95
498.44	408.02
498.80	413.40
499.17	418.75
499.53	424.39
499.89	430.34
500.26	436.39
500.62	442.68
500.98	449.38
501.34	455.96
501.71	462.62
502.07	469.66
502.43	476.78
502.79	484.21
503.16	491.92
503.52	499.89
503.88	507.87
504.24	516.30
504.60	525.23
504.97	534.20
505.33	543.12
505.69	552.77
506.05	562.33
506.41	572.04
506.78	582.08
507.14	592.51
507.50	603.18
507.86	613.91
508.22	625.07
508.59	636.15
508.95	647.89
509.31	660.26
509.67	672.65
510.03	684.85
510.39	697.53
510.75	710.14
511.12	722.96
511.48	736.16
511.84	749.47
512.20	762.70
512.56	776.35
512.92	790.59
513.28	804.48
513.64	818.92
514.00	833.44
514.37	848.19
514.73	863.06
515.09	878.15
515.45	893.62
515.81	908.79
516.17	924.25
516.53	939.57
516.89	954.49
517.25	970.09
517.61	986.41
517.97	1002.57
518.33	1019.03
518.69	1035.54
519.05	1052.32
519.41	1068.98
519.77	1085.96
520.13	1102.57
520.49	1118.80
520.85	1136.92
521.21	1153.72
521.57	1170.42
521.93	1186.93
522.29	1203.51
522.65	1219.32
523.01	1235.30
523.37	1251.29
523.73	1267.70
524.09	1283.36
524.45	1299.56
524.81	1315.54
525.17	1331.19
525.53	1346.97
525.89	1362.61
526.25	1378.12
526.61	1393.32
526.97	1408.94
527.33	1424.67
527.68	1441.08
528.04	1457.01
528.40	1471.34
528.76	1486.99
529.12	1502.10
529.48	1517.16
529.84	1531.82
530.20	1547.60
530.56	1562.88
530.91	1577.90
531.27	1592.25
531.63	1607.07
531.99	1621.58
532.35	1635.70
532.71	1650.20
533.07	1664.80
533.42	1678.86
533.78	1692.99
534.14	1706.82
534.50	1719.88
534.86	1732.97
535.21	1744.50
535.57	1757.18
535.93	1768.75
536.29	1780.40
536.65	1792.52
537.00	1804.25
537.36	1815.65
537.72	1826.20
538.08	1837.34
538.44	1848.05
538.79	1858.85
539.15	1869.68
539.51	1880.00
539.87	1889.34
540.22	1897.86
540.58	1906.71
540.94	1914.28
541.29	1921.41
541.65	1928.62
542.01	1936.02
542.37	1942.12
542.72	1948.39
543.08	1953.71
543.44	1960.57
543.79	1965.88
544.15	1970.79
544.51	1976.14
544.87	1981.35
545.22	1985.38
545.58	1988.63
545.94	1991.84
546.29	1994.12
546.65	1996.18
547.01	1997.58
547.36	1999.27
547.72	2001.03
548.07	2001.28
548.43	2003.07
548.79	2004.10
549.14	2004.40
549.50	2004.72
549.86	2004.77
550.21	2005.11
550.57	2005.15
550.92	2003.29
551.28	2001.80
551.64	2001.00
551.99	1999.75
552.35	1998.33
552.70	1997.67
553.06	1996.47
553.41	1994.70
553.77	1993.87
554.13	1992.54
554.48	1991.48
554.84	1990.44
555.19	1989.01
555.55	1988.23
555.90	1985.26
556.26	1982.26
556.61	1978.92
556.97	1975.41
557.32	1972.92
557.68	1969.96
558.03	1967.00
558.39	1964.12
558.74	1961.41
559.10	1957.06
559.45	1952.40
559.81	1947.34
560.16	1941.56
560.52	1936.10
560.87	1931.41
561.23	1925.36
561.58	1919.32
561.94	1912.32
562.29	1905.18
562.64	1898.39
563.00	1890.67
563.35	1884.38
563.71	1878.21
564.06	1872.27
564.42	1865.96
564.77	1859.42
565.12	1852.54
565.48	1845.70
565.83	1838.95
566.19	1831.72
566.54	1824.87
566.89	1817.83
567.25	1810.96
567.60	1804.62
567.96	1797.94
568.31	1791.00
568.66	1783.90
569.02	1776.06
569.37	1769.25
569.72	1762.75
570.08	1755.01
570.43	1746.85
570.78	1739.32
571.14	1731.68
571.49	1723.56
571.84	1715.48
572.20	1706.69
572.55	1698.44
572.90	1689.60
573.26	1681.03
573.61	1672.39
573.96	1663.61
574.31	1654.32
574.67	1644.89
575.02	1635.08
575.37	1625.24
575.72	1614.99
576.08	1605.52
576.43	1596.29
576.78	1586.27
577.13	1575.65
577.49	1565.85
577.84	1556.94
578.19	1547.68
578.54	1538.09
578.90	1529.02
579.25	1519.79
579.60	1510.53
579.95	1500.71
580.30	1490.77
580.66	1480.80
581.01	1470.92
581.36	1460.75
581.71	1451.40
582.06	1442.31
582.42	1433.08
582.77	1423.96
583.12	1415.23
583.47	1406.18
583.82	1397.42
584.17	1388.86
584.53	1380.55
584.88	1371.05
585.23	1361.60
585.58	1351.42
585.93	1341.85
586.28	1332.18
586.63	1322.44
586.98	1312.29
587.34	1302.96
587.69	1293.60
588.04	1284.60
588.39	1275.69
588.74	1267.01
589.09	1258.45
589.44	1249.17
589.79	1240.63
590.14	1231.97
590.49	1223.16
590.84	1214.55
591.19	1206.01
591.54	1197.26
591.89	1188.69
592.25	1181.87
592.60	1173.80
592.95	1166.13
593.30	1157.93
593.65	1149.59
594.00	1141.13
594.35	1134.76
594.70	1126.56
595.05	1118.70
595.40	1110.34
595.75	1102.07
596.10	1094.35
596.45	1086.37
596.80	1078.92
597.15	1070.85
597.50	1062.97
597.85	1055.32
598.19	1047.30
598.54	1039.22
598.89	1031.69
599.24	1024.37
599.59	1016.10
599.94	1008.83
600.29	1001.40
600.64	994.27
600.99	987.17
601.34	980.40
601.69	972.20
602.04	965.50
602.39	959.06
602.74	952.87
603.08	946.53
603.43	940.09
603.78	933.49
604.13	927.05
604.48	920.74
604.83	914.11
605.18	907.50
605.53	901.10
605.87	894.84
606.22	888.82
606.57	882.26
606.92	876.04
607.27	869.81
607.62	863.98
607.96	858.47
608.31	853.12
608.66	847.66
609.01	842.00
609.36	836.14
609.70	830.26
610.05	824.39
610.40	818.74
610.75	812.80
611.10	807.21
611.44	801.33
611.79	795.63
612.14	790.34
612.49	784.91
612.83	779.65
613.18	774.47
613.53	769.23
613.88	763.99
614.22	758.77
614.57	753.39
614.92	747.89
615.27	742.55
615.61	737.22
615.96	731.88
616.31	726.87
616.65	722.30
617.00	717.21
617.35	712.23
617.70	707.35
618.04	702.48
618.39	697.63
618.74	693.33
619.08	688.61
619.43	683.86
619.78	679.26
620.12	674.63
620.47	670.05
620.82	665.25
621.16	660.64
621.51	656.39
621.85	652.22
622.20	647.79
622.55	643.23
622.89	638.83
623.24	634.70
623.59	630.41
623.93	626.12
624.28	622.03
624.62	618.31
624.97	614.26
625.32	610.39
625.66	606.34
626.01	602.17
626.35	598.45
626.70	594.72
627.04	590.98
627.39	587.16
627.73	583.55
628.08	580.18
628.43	576.52
628.77	572.74
629.12	569.20
629.46	566.09
629.81	563.11
630.15	559.90
630.50	556.50
630.84	553.14
631.19	549.72
631.53	546.67
631.88	542.98
632.22	539.58
632.57	536.62
632.91	533.54
633.26	530.60
633.60	527.43
633.95	524.15
634.29	521.00
634.64	518.07
634.98	514.89
635.32	511.89
635.67	509.31
636.01	506.43
636.36	503.33
636.70	500.59
637.05	497.53
637.39	494.72
637.73	492.08
638.08	489.46
638.42	486.70
638.77	483.81
639.11	480.83
639.45	478.08
639.80	474.99
640.14	472.24
640.49	469.29
640.83	466.66
641.17	464.29
641.52	461.79
641.86	459.27
642.20	456.92
642.55	454.32
642.89	451.73
643.23	449.26
643.58	447.13
643.92	444.50
644.26	442.13
644.61	439.87
644.95	437.43
645.29	434.98
645.64	432.76
645.98	430.43
646.32	428.48
646.66	426.26
647.01	424.21
647.35	422.31
647.69	420.34
648.04	418.40
648.38	416.43
648.72	414.44
649.06	412.38
649.41	410.24
649.75	408.26
650.09	406.25
650.43	404.31
650.78	402.25
651.12	400.37
651.46	398.41
651.80	396.46
652.14	394.60
652.49	392.87
652.83	390.94
653.17	389.16
653.51	387.31
653.85	385.75
654.20	384.03
654.54	382.17
654.88	380.46
655.22	379.01
655.56	377.28
655.90	375.61
656.25	374.15
656.59	372.63
656.93	371.14
657.27	369.82
657.61	368.18
657.95	366.65
658.29	365.11
658.64	363.74
658.98	362.20
659.32	360.70
659.66	359.16
660.00	357.87
660.34	356.57
660.68	355.17
661.02	353.71
661.36	352.35
661.70	350.96
662.05	349.64
662.39	348.22
662.73	347.05
663.07	346.01
663.41	344.60
663.75	343.38
664.09	342.06
664.43	340.58
664.77	339.48
665.11	338.23
665.45	337.06
665.79	335.94
666.13	334.65
666.47	333.53
666.81	332.33
667.15	330.99
667.49	329.95
667.83	329.09
668.17	328.08
668.51	327.10
668.85	326.25
669.19	325.50
669.53	324.35
669.87	323.29
670.21	322.08
670.55	321.19
670.89	320.46
671.23	319.55
671.57	318.64
671.91	317.67
672.25	316.86
672.58	316.07
672.92	315.07
673.26	314.28
673.60	313.40
673.94	312.66
674.28	312.03
674.62	311.20
674.96	310.20
675.30	309.40
675.64	308.53
675.97	307.62
676.31	306.66
676.65	305.86
676.99	305.19
677.33	304.40
677.67	303.67
678.01	302.68
678.34	301.85
678.68	301.24
679.02	300.58
679.36	299.86
679.70	299.04
680.04	298.33
680.37	297.70
680.71	296.89
681.05	296.20
681.39	295.54
681.73	294.85
682.06	294.24
682.40	293.60
682.74	293.01
683.08	292.57
683.42	291.77
683.75	291.25
684.09	290.60
684.43	290.02
684.77	289.29
685.10	288.67
685.44	288.13
685.78	287.48
686.12	286.85
686.45	286.17
686.79	285.59
687.13	285.16
687.46	284.58
687.80	284.27
688.14	283.71
688.48	283.04
688.81	282.49
689.15	282.10
689.49	281.49
689.82	281.05
690.16	280.33
690.50	279.85
690.83	279.29
691.17	278.61
691.51	278.11
691.84	277.74
692.18	277.18
692.52	276.67
692.85	276.23
693.19	275.93
693.52	275.47
693.86	274.95
694.20	274.39
694.53	273.98
694.87	273.49
695.21	272.90
695.54	272.57
695.88	272.02
696.21	271.34
696.55	270.98
696.88	270.39
697.22	269.99
697.56	269.74
697.89	269.26
698.23	268.99
698.56	268.54
698.90	268.20
699.23	267.74
699.57	267.41
699.90	266.95
700.24	266.42
700.58	266.26
700.91	265.99
701.25	265.97
701.58	265.95
701.92	265.65
702.25	265.48
702.59	265.07
702.92	264.81
703.26	264.52
703.59	264.18
703.93	264.36
704.26	264.14
704.60	263.80
704.93	263.42
705.26	263.02
705.60	262.78
705.93	262.30
706.27	262.23
706.60	262.05
706.94	261.95
707.27	261.58
707.61	261.18
707.94	260.89
708.27	260.23
708.61	259.59
708.94	259.25
709.28	258.93
709.61	258.58
709.94	258.38
710.28	258.09
710.61	257.83
710.95	257.10
711.28	257.07
711.61	256.75
711.95	256.70
712.28	256.30
712.61	256.02
712.95	256.05
713.28	255.88
713.61	255.50
713.95	255.05
714.28	254.83
714.61	254.46
714.95	254.17
715.28	253.82
715.61	253.51
715.95	253.26
716.28	252.87
716.61	252.83
716.95	252.53
717.28	252.21
717.61	251.92
717.94	251.77
718.28	251.16
718.61	250.91
718.94	250.57
719.27	250.44
719.61	250.24
719.94	249.83
720.27	249.47
720.60	249.24
720.94	249.00
721.27	248.84
721.60	248.84
721.93	248.60
722.27	248.61
722.60	248.48
722.93	248.28
723.26	248.29
723.59	247.90
723.93	247.70
724.26	247.65
724.59	247.40
724.92	247.17
725.25	247.13
725.59	246.93
725.92	246.80
726.25	246.62
726.58	246.43
726.91	246.21
727.24	246.05
727.57	245.85
727.91	245.67
728.24	245.54
728.57	245.30
728.90	245.21
729.23	244.95
729.56	244.99
729.89	244.83
730.22	244.61
730.55	244.48
730.89	244.31
731.22	244.14
731.55	243.98
731.88	243.86
732.21	243.63
732.54	243.38
732.87	243.20
733.20	243.13
733.53	242.98
733.86	242.99
734.19	242.80
734.52	242.73
734.85	242.90
735.18	242.76
735.51	242.74
735.84	242.62
736.17	242.58
736.50	242.22
736.83	242.62
737.16	242.45
737.49	242.42
737.82	242.33
738.15	242.29
738.48	242.18
738.81	241.96
739.14	241.79
739.47	241.70
739.80	241.56
740.13	241.40
740.46	241.20
740.79	240.96
741.12	240.88
741.45	240.65
741.78	240.21
742.11	240.13
742.44	239.90
742.77	239.87
743.10	239.67
743.43	239.53
743.75	238.89
744.08	239.46
744.41	239.17
744.74	239.01
745.07	238.77
745.40	238.84
745.73	239.01
746.06	238.97
746.39	238.93
746.71	238.74
747.04	238.59
747.37	238.48
747.70	238.41
748.03	238.32
748.36	238.36
748.68	238.36
749.01	238.18
749.34	238.10
749.67	237.97
750.00	237.93
750.33	238.19
750.65	238.13
750.98	237.36
751.31	237.31
751.64	237.20
751.97	237.40
752.29	237.20
752.62	236.83
752.95	236.68
753.28	236.54
753.60	236.55
753.93	236.58
754.26	236.53
754.59	236.34
754.91	236.16
755.24	235.99
755.57	235.86
755.90	235.76
756.22	235.58
756.55	235.46
756.88	235.28
757.20	234.92
757.53	234.67
757.86	234.60
758.19	234.60
758.51	234.53
758.84	234.14
759.17	234.03
759.49	233.97
759.82	234.11
760.15	234.04
760.47	233.91
760.80	233.70
761.13	233.70
761.45	233.57
761.78	233.51
762.11	233.48
762.43	233.32
762.76	233.19
763.08	233.21
763.41	233.14
763.74	233.06
764.06	232.93
764.39	232.93
764.71	232.80
765.04	232.63
765.37	232.57
765.69	232.55
766.02	232.44
766.34	232.35
766.67	232.10
767.00	232.14
767.32	232.36
767.65	232.59
767.97	232.50
768.30	232.50
768.62	232.45
768.95	232.35
769.27	232.35
769.60	232.32
769.92	232.15
770.25	231.98
770.57	231.85
770.90	231.80
771.22	231.71
771.55	231.67
771.87	231.64
772.20	231.56
772.52	231.95
772.85	232.49
773.17	232.45
773.50	232.35
773.82	232.23
774.15	231.88
774.47	231.55
774.80	231.46
775.12	231.39
775.45	231.27
775.77	231.26
776.09	231.22
776.42	231.20
776.74	231.34
777.07	231.35
777.39	231.32
777.72	231.25
778.04	231.29
778.36	231.24
778.69	231.26
779.01	231.24
779.33	230.73
779.66	230.12
779.98	230.06
780.31	230.07
780.63	230.13
780.95	230.21
781.28	230.14
781.60	229.99
781.92	229.95
782.25	229.98
782.57	229.87
782.89	229.82
783.22	229.77
783.54	229.60
783.86	229.53
784.19	229.48
784.51	229.57
784.83	229.46
785.16	229.40
785.48	229.36
785.80	229.32
786.12	229.38
786.45	229.40
786.77	229.38
787.09	229.28
787.42	229.14
787.74	229.07
788.06	229.05
788.38	229.09
788.71	229.06
789.03	229.00
789.35	228.98
789.67	228.89
789.99	228.91
790.32	228.89
790.64	228.93
790.96	229.32
791.28	229.18
791.61	229.13
791.93	229.19
792.25	229.19
792.57	229.48
792.89	229.31
793.21	229.32
793.54	229.19
793.86	229.17
794.18	229.17
794.50	229.18
794.82	229.21
795.14	229.19
795.47	229.20
795.79	229.23
796.11	229.14
796.43	229.09
796.75	229.06
797.07	229.04
797.39	228.97
797.71	228.57
798.04	228.64
798.36	228.64
798.68	228.59
799.00	228.53
799.32	228.26
799.64	228.39
799.96	228.41
800.28	228.57
800.60	228.54
800.92	228.58
801.24	228.47
801.56	228.47
801.89	228.43
802.21	228.50
802.53	228.38
802.85	228.55
803.17	228.82
803.49	228.73
803.81	228.65
804.13	228.64
804.45	228.61
804.77	228.62
805.09	228.62
805.41	228.64
805.73	228.63
806.05	228.54
806.37	228.44
806.69	228.30
807.01	228.20
807.33	228.20
807.65	227.97
807.97	228.22
808.28	228.13
808.60	228.13
808.92	228.08
809.24	228.38
809.56	228.30
809.88	228.10
810.20	228.08
810.52	228.16
810.84	228.08
811.16	228.11
811.48	228.03
811.80	228.20
812.12	228.10
812.43	228.12
812.75	228.17
813.07	228.13
813.39	228.13
813.71	228.06
814.03	228.09
814.35	228.16
814.67	227.91
814.98	227.82
815.30	227.84
815.62	227.71
815.94	227.45
816.26	227.61
816.58	227.46
816.89	227.58
817.21	227.44
817.53	227.49
817.85	227.43
818.17	227.37
818.48	227.18
818.80	227.33
