SpectraSuite Data File
++++++++++++++++++++++++++++++++++++
Date: Wed Sep 04 17:58:40 EDT 2013
User: lab3
Dark Spectrum Present: Yes
Reference Spectrum Present: No
Number of Sampled Component Spectra: 1
Spectrometers: USB2E7196
Integration Time (usec): 170000 (USB2E7196)
Spectra Averaged: 20 (USB2E7196)
Boxcar Smoothing: 10 (USB2E7196)
Correct for Electrical Dark: No (USB2E7196)
Strobe/Lamp Enabled: No (USB2E7196)
Correct for Detector Non-linearity: No (USB2E7196)
Correct for Stray Light: No (USB2E7196)
Number of Pixels in Processed Spectrum: 2048
>>>>>Begin Processed Spectral Data<<<<<
339.09	0.00
339.48	212.70
339.86	214.95
340.24	215.45
340.63	217.20
341.01	226.00
341.39	220.75
341.78	221.90
342.16	225.15
342.54	222.85
342.93	212.39
343.31	223.10
343.69	223.68
344.07	224.15
344.46	224.62
344.84	225.05
345.22	225.05
345.60	225.29
345.99	225.49
346.37	225.55
346.75	225.67
347.13	225.70
347.52	225.78
347.90	226.01
348.28	226.12
348.66	226.30
349.05	226.18
349.43	226.28
349.81	226.42
350.19	226.42
350.57	226.48
350.96	226.62
351.34	226.74
351.72	226.80
352.10	226.93
352.48	227.06
352.87	227.11
353.25	227.20
353.63	227.21
354.01	227.22
354.39	227.30
354.77	227.42
355.15	227.66
355.54	227.60
355.92	227.47
356.30	227.54
356.68	227.95
357.06	228.02
357.44	227.99
357.82	227.98
358.20	228.41
358.58	228.46
358.97	228.57
359.35	228.69
359.73	228.90
360.11	228.93
360.49	228.90
360.87	228.90
361.25	229.02
361.63	229.27
362.01	229.37
362.39	229.38
362.77	229.50
363.15	229.45
363.53	229.62
363.91	229.70
364.29	229.72
364.67	229.24
365.05	229.32
365.43	229.48
365.81	229.55
366.19	229.47
366.57	229.70
366.95	229.69
367.33	229.67
367.71	229.64
368.09	229.73
368.47	229.81
368.85	229.88
369.23	229.91
369.61	229.76
369.99	229.94
370.37	230.03
370.75	230.21
371.13	230.08
371.51	230.01
371.89	230.03
372.27	230.04
372.65	230.00
373.03	229.89
373.41	229.72
373.78	229.63
374.16	229.33
374.54	229.16
374.92	229.01
375.30	228.96
375.68	228.75
376.06	228.69
376.44	228.57
376.82	228.51
377.19	228.44
377.57	228.35
377.95	228.14
378.33	228.00
378.71	227.66
379.09	227.70
379.47	227.65
379.84	227.56
380.22	227.42
380.60	227.30
380.98	227.28
381.36	227.30
381.73	227.19
382.11	227.20
382.49	227.19
382.87	227.13
383.25	227.06
383.62	227.67
384.00	227.55
384.38	227.54
384.76	227.55
385.13	227.70
385.51	227.59
385.89	227.45
386.27	227.32
386.64	227.40
387.02	227.25
387.40	227.21
387.78	227.28
388.15	227.22
388.53	227.23
388.91	227.19
389.29	227.11
389.66	227.17
390.04	227.10
390.42	227.10
390.79	227.08
391.17	227.07
391.55	226.44
391.92	226.43
392.30	226.41
392.68	226.30
393.05	226.22
393.43	226.32
393.81	226.40
394.18	226.46
394.56	226.42
394.94	226.62
395.31	226.64
395.69	226.65
396.06	226.76
396.44	226.79
396.82	226.83
397.19	227.12
397.57	227.11
397.95	227.20
398.32	227.10
398.70	227.23
399.07	227.36
399.45	227.47
399.82	227.54
400.20	227.65
400.58	227.83
400.95	227.66
401.33	227.85
401.70	228.28
402.08	228.46
402.45	228.64
402.83	228.92
403.20	229.12
403.58	229.28
403.95	229.50
404.33	229.79
404.71	230.00
405.08	230.44
405.46	230.72
405.83	230.97
406.21	231.27
406.58	231.54
406.96	231.83
407.33	232.17
407.70	232.57
408.08	233.25
408.45	233.61
408.83	234.18
409.20	234.50
409.58	234.71
409.95	235.18
410.33	235.63
410.70	235.96
411.08	236.49
411.45	237.07
411.82	237.67
412.20	238.41
412.57	239.44
412.95	239.74
413.32	240.59
413.69	241.36
414.07	242.26
414.44	243.27
414.82	244.27
415.19	245.47
415.56	246.60
415.94	247.67
416.31	249.12
416.68	250.56
417.06	252.24
417.43	253.88
417.81	255.62
418.18	257.47
418.55	259.45
418.93	261.47
419.30	263.60
419.67	265.82
420.04	268.08
420.42	270.30
420.79	273.41
421.16	276.28
421.54	279.34
421.91	282.41
422.28	285.54
422.66	288.87
423.03	292.40
423.40	295.85
423.77	299.43
424.15	303.03
424.52	306.80
424.89	311.06
425.26	315.04
425.64	318.84
426.01	323.06
426.38	327.40
426.75	332.04
427.13	336.68
427.50	341.46
427.87	346.47
428.24	351.39
428.61	355.91
428.99	361.23
429.36	366.75
429.73	372.26
430.10	377.82
430.47	383.51
430.85	389.06
431.22	395.14
431.59	402.03
431.96	408.30
432.33	415.16
432.70	421.80
433.08	429.69
433.45	437.25
433.82	444.76
434.19	453.05
434.56	461.21
434.93	468.97
435.30	476.77
435.68	485.53
436.05	494.08
436.42	502.50
436.79	510.31
437.16	518.82
437.53	527.71
437.90	536.36
438.27	545.00
438.64	553.94
439.01	562.43
439.38	569.55
439.75	576.69
440.13	584.92
440.50	592.37
440.87	598.57
441.24	604.90
441.61	611.95
441.98	617.10
442.35	622.81
442.72	628.93
443.09	634.87
443.46	638.10
443.83	640.35
444.20	642.24
444.57	644.86
444.94	645.88
445.31	646.82
445.68	648.17
446.05	648.21
446.42	647.01
446.79	645.49
447.16	643.82
447.53	642.61
447.90	638.80
448.27	635.15
448.64	630.08
449.01	626.36
449.37	619.84
449.74	613.74
450.11	606.90
450.48	598.91
450.85	590.79
451.22	583.95
451.59	577.38
451.96	571.06
452.33	562.90
452.70	555.54
453.07	546.94
453.43	537.82
453.80	529.44
454.17	521.25
454.54	513.41
454.91	505.21
455.28	497.11
455.65	489.71
456.02	482.75
456.38	476.45
456.75	468.66
457.12	462.36
457.49	455.94
457.86	449.47
458.23	444.29
458.59	438.52
458.96	432.69
459.33	427.51
459.70	422.45
460.07	418.25
460.43	413.45
460.80	409.09
461.17	405.45
461.54	401.47
461.91	397.72
462.27	393.94
462.64	390.63
463.01	387.10
463.38	383.75
463.74	379.74
464.11	376.65
464.48	373.96
464.85	371.05
465.21	368.91
465.58	366.60
465.95	363.70
466.32	361.40
466.68	359.08
467.05	356.90
467.42	354.61
467.78	352.36
468.15	350.22
468.52	348.55
468.88	346.15
469.25	344.28
469.62	342.78
469.98	341.17
470.35	339.67
470.72	338.17
471.08	336.44
471.45	335.20
471.82	333.98
472.18	332.61
472.55	331.54
472.92	330.20
473.28	329.02
473.65	327.93
474.02	326.87
474.38	326.02
474.75	325.25
475.11	324.40
475.48	323.85
475.85	323.30
476.21	322.70
476.58	322.25
476.94	321.83
477.31	321.36
477.67	320.95
478.04	320.55
478.41	320.35
478.77	320.64
479.14	320.40
479.50	320.24
479.87	320.28
480.23	320.25
480.60	320.24
480.96	320.34
481.33	320.82
481.69	321.07
482.06	321.42
482.42	321.77
482.79	322.11
483.15	322.45
483.52	323.05
483.88	323.54
484.25	324.15
484.61	324.77
484.98	325.40
485.34	326.28
485.71	327.31
486.07	328.36
486.44	328.95
486.80	330.09
487.17	331.23
487.53	332.54
487.90	334.01
488.26	335.78
488.62	337.54
488.99	338.95
489.35	340.80
489.72	342.62
490.08	344.51
490.44	346.50
490.81	348.62
491.17	350.80
491.54	353.27
491.90	355.87
492.26	358.57
492.63	361.41
492.99	364.28
493.36	367.43
493.72	370.76
494.08	374.20
494.45	377.91
494.81	381.86
495.17	385.75
495.54	389.90
495.90	394.02
496.26	398.38
496.63	403.06
496.99	407.77
497.35	412.88
497.72	418.22
498.08	423.76
498.44	429.58
498.80	435.77
499.17	441.80
499.53	448.14
499.89	454.80
500.26	461.65
500.62	468.74
500.98	476.09
501.34	483.50
501.71	491.31
502.07	499.14
502.43	507.18
502.79	515.60
503.16	524.38
503.52	533.43
503.88	542.65
504.24	552.38
504.60	562.57
504.97	572.82
505.33	583.20
505.69	594.36
506.05	605.24
506.41	616.41
506.78	628.15
507.14	640.23
507.50	652.59
507.86	665.35
508.22	678.32
508.59	691.26
508.95	704.94
509.31	719.13
509.67	733.43
510.03	747.92
510.39	762.74
510.75	777.76
511.12	793.19
511.48	808.91
511.84	824.59
512.20	840.37
512.56	856.61
512.92	873.48
513.28	890.18
513.64	907.59
514.00	925.28
514.37	943.02
514.73	960.95
515.09	979.27
515.45	997.66
515.81	1016.31
516.17	1035.35
516.53	1054.20
516.89	1072.86
517.25	1092.34
517.61	1112.56
517.97	1133.00
518.33	1153.05
518.69	1173.02
519.05	1193.64
519.41	1214.40
519.77	1235.74
520.13	1256.49
520.49	1277.14
520.85	1298.38
521.21	1319.49
521.57	1340.56
521.93	1361.35
522.29	1382.71
522.65	1403.45
523.01	1424.54
523.37	1445.37
523.73	1466.55
524.09	1487.29
524.45	1508.36
524.81	1529.56
525.17	1550.37
525.53	1570.75
525.89	1591.64
526.25	1612.50
526.61	1632.91
526.97	1653.94
527.33	1674.98
527.68	1696.84
528.04	1718.37
528.40	1739.20
528.76	1760.34
529.12	1780.82
529.48	1802.03
529.84	1822.35
530.20	1843.56
530.56	1864.33
530.91	1885.23
531.27	1905.59
531.63	1926.11
531.99	1946.43
532.35	1966.35
532.71	1986.69
533.07	2007.30
533.42	2027.55
533.78	2048.08
534.14	2067.95
534.50	2087.25
534.86	2106.77
535.21	2124.54
535.57	2143.06
535.93	2161.04
536.29	2178.91
536.65	2197.27
537.00	2214.83
537.36	2232.62
537.72	2249.24
538.08	2266.27
538.44	2282.94
538.79	2299.22
539.15	2315.98
539.51	2332.00
539.87	2347.08
540.22	2361.05
540.58	2375.68
540.94	2388.78
541.29	2401.16
541.65	2413.91
542.01	2426.72
542.37	2437.24
542.72	2448.47
543.08	2458.80
543.44	2470.42
543.79	2480.57
544.15	2490.46
544.51	2500.65
544.87	2510.10
545.22	2518.90
545.58	2526.62
545.94	2534.04
546.29	2540.89
546.65	2546.78
547.01	2552.59
547.36	2558.50
547.72	2564.31
548.07	2567.99
548.43	2573.56
548.79	2578.34
549.14	2582.66
549.50	2586.35
549.86	2590.56
550.21	2594.10
550.57	2597.99
550.92	2599.35
551.28	2600.76
551.64	2603.29
551.99	2605.00
552.35	2606.86
552.70	2608.79
553.06	2611.13
553.41	2611.99
553.77	2613.67
554.13	2615.75
554.48	2617.24
554.84	2618.46
555.19	2619.59
555.55	2621.44
555.90	2620.63
556.26	2619.69
556.61	2617.89
556.97	2615.97
557.32	2614.95
557.68	2614.11
558.03	2612.30
558.39	2610.93
558.74	2610.12
559.10	2606.51
559.45	2602.99
559.81	2598.22
560.16	2593.30
560.52	2588.01
560.87	2583.99
561.23	2578.62
561.58	2572.20
561.94	2565.55
562.29	2558.20
562.64	2551.13
563.00	2542.89
563.35	2536.47
563.71	2530.53
564.06	2524.73
564.42	2518.32
564.77	2511.74
565.12	2504.16
565.48	2496.68
565.83	2489.11
566.19	2480.95
566.54	2473.30
566.89	2465.36
567.25	2457.92
567.60	2450.76
567.96	2443.45
568.31	2435.32
568.66	2426.64
569.02	2418.24
569.37	2410.24
569.72	2402.64
570.08	2393.10
570.43	2384.06
570.78	2374.88
571.14	2365.31
571.49	2354.95
571.84	2345.23
572.20	2334.19
572.55	2324.02
572.90	2313.39
573.26	2302.88
573.61	2291.91
573.96	2280.55
574.31	2268.37
574.67	2256.47
575.02	2243.60
575.37	2230.75
575.72	2217.57
576.08	2205.69
576.43	2193.02
576.78	2179.58
577.13	2166.12
577.49	2153.47
577.84	2141.41
578.19	2128.85
578.54	2115.69
578.90	2103.58
579.25	2091.00
579.60	2078.38
579.95	2065.31
580.30	2051.74
580.66	2038.46
581.01	2024.68
581.36	2011.10
581.71	1998.73
582.06	1985.61
582.42	1972.82
582.77	1960.07
583.12	1947.97
583.47	1935.50
583.82	1923.32
584.17	1911.20
584.53	1899.02
584.88	1886.10
585.23	1872.81
585.58	1858.92
585.93	1845.75
586.28	1832.32
586.63	1818.23
586.98	1804.04
587.34	1790.72
587.69	1777.52
588.04	1764.90
588.39	1753.07
588.74	1740.56
589.09	1728.31
589.44	1715.67
589.79	1703.80
590.14	1691.79
590.49	1679.53
590.84	1667.35
591.19	1655.31
591.54	1643.16
591.89	1631.12
592.25	1621.03
592.60	1609.59
592.95	1598.20
593.30	1586.30
593.65	1574.26
594.00	1562.31
594.35	1552.37
594.70	1540.57
595.05	1529.23
595.40	1517.07
595.75	1504.67
596.10	1493.54
596.45	1481.92
596.80	1470.93
597.15	1459.48
597.50	1447.53
597.85	1436.30
598.19	1424.51
598.54	1412.63
598.89	1401.19
599.24	1390.53
599.59	1378.63
599.94	1367.62
600.29	1357.06
600.64	1346.85
600.99	1336.09
601.34	1326.70
601.69	1315.50
602.04	1305.37
602.39	1295.70
602.74	1286.26
603.08	1277.21
603.43	1267.81
603.78	1258.14
604.13	1248.55
604.48	1238.62
604.83	1229.08
605.18	1219.17
605.53	1209.78
605.87	1200.69
606.22	1192.28
606.57	1182.75
606.92	1173.21
607.27	1164.20
607.62	1155.52
607.96	1146.86
608.31	1139.15
608.66	1130.50
609.01	1122.03
609.36	1113.62
609.70	1105.08
610.05	1096.49
610.40	1087.88
610.75	1079.06
611.10	1070.60
611.44	1061.92
611.79	1053.70
612.14	1045.65
612.49	1037.69
612.83	1029.88
613.18	1022.04
613.53	1014.10
613.88	1006.15
614.22	998.69
614.57	990.70
614.92	982.76
615.27	975.02
615.61	967.10
615.96	959.49
616.31	952.03
616.65	945.02
617.00	937.57
617.35	930.25
617.70	923.00
618.04	916.07
618.39	909.09
618.74	902.72
619.08	895.95
619.43	888.86
619.78	881.79
620.12	874.69
620.47	867.65
620.82	860.46
621.16	853.55
621.51	847.05
621.85	840.75
622.20	834.07
622.55	827.40
622.89	820.69
623.24	814.20
623.59	807.76
623.93	801.19
624.28	794.89
624.62	789.24
624.97	783.42
625.32	777.54
625.66	771.52
626.01	765.23
626.35	759.57
626.70	754.05
627.04	748.85
627.39	743.39
627.73	738.12
628.08	732.71
628.43	727.39
628.77	721.79
629.12	716.58
629.46	711.89
629.81	707.25
630.15	702.68
630.50	697.78
630.84	692.91
631.19	688.31
631.53	683.76
631.88	678.38
632.22	673.50
632.57	668.95
632.91	664.33
633.26	659.82
633.60	655.06
633.95	650.36
634.29	645.47
634.64	640.81
634.98	636.06
635.32	631.73
635.67	627.67
636.01	623.53
636.36	619.02
636.70	614.71
637.05	610.35
637.39	606.04
637.73	601.92
638.08	597.85
638.42	593.52
638.77	589.10
639.11	584.89
639.45	580.50
639.80	576.09
640.14	571.86
640.49	567.85
640.83	564.03
641.17	560.39
641.52	556.73
641.86	553.18
642.20	550.05
642.55	546.44
642.89	542.84
643.23	539.32
643.58	536.18
643.92	532.46
644.26	528.96
644.61	525.76
644.95	522.40
645.29	518.95
645.64	515.78
645.98	512.68
646.32	509.84
646.66	506.81
647.01	503.90
647.35	501.10
647.69	498.24
648.04	495.51
648.38	492.67
648.72	489.71
649.06	486.77
649.41	483.63
649.75	480.57
650.09	477.58
650.43	474.63
650.78	471.55
651.12	468.82
651.46	466.13
651.80	463.23
652.14	460.44
652.49	457.94
652.83	455.19
653.17	452.52
653.51	449.65
653.85	447.28
654.20	444.67
654.54	442.09
654.88	439.46
655.22	437.15
655.56	434.69
655.90	432.35
656.25	430.14
656.59	427.74
656.93	425.74
657.27	423.66
657.61	421.16
657.95	418.88
658.29	416.62
658.64	414.48
658.98	412.27
659.32	410.02
659.66	407.84
660.00	405.76
660.34	403.69
660.68	401.72
661.02	399.57
661.36	397.55
661.70	395.52
662.05	393.58
662.39	391.43
662.73	389.62
663.07	388.04
663.41	386.09
663.75	384.24
664.09	382.30
664.43	380.32
664.77	378.77
665.11	377.10
665.45	375.48
665.79	373.79
666.13	372.16
666.47	370.50
666.81	368.74
667.15	367.04
667.49	365.63
667.83	364.28
668.17	362.73
668.51	361.26
668.85	360.01
669.19	358.82
669.53	357.32
669.87	355.74
670.21	354.12
670.55	352.69
670.89	351.55
671.23	350.13
671.57	348.75
671.91	347.37
672.25	346.04
672.58	344.77
672.92	343.30
673.26	342.00
673.60	340.79
673.94	339.72
674.28	338.69
674.62	337.47
674.96	336.10
675.30	334.93
675.64	333.75
675.97	332.42
676.31	331.10
676.65	329.90
676.99	328.85
677.33	327.66
677.67	326.62
678.01	325.20
678.34	324.07
678.68	323.15
679.02	322.08
679.36	321.10
679.70	320.07
680.04	319.21
680.37	318.24
680.71	317.28
681.05	316.28
681.39	315.29
681.73	314.36
682.06	313.41
682.40	312.55
682.74	311.65
683.08	311.02
683.42	310.05
683.75	309.32
684.09	308.42
684.43	307.58
684.77	306.73
685.10	305.95
685.44	305.30
685.78	304.42
686.12	303.65
686.45	302.84
686.79	302.04
687.13	301.29
687.46	300.53
687.80	299.88
688.14	299.08
688.48	298.37
688.81	297.53
689.15	296.88
689.49	296.16
689.82	295.48
690.16	294.51
690.50	293.88
690.83	293.17
691.17	292.34
691.51	291.70
691.84	291.05
692.18	290.40
692.52	289.63
692.85	289.12
693.19	288.69
693.52	288.05
693.86	287.38
694.20	286.75
694.53	286.19
694.87	285.55
695.21	284.87
695.54	284.25
695.88	283.64
696.21	282.90
696.55	282.30
696.88	281.73
697.22	281.15
697.56	280.68
697.89	280.08
698.23	279.61
698.56	279.05
698.90	278.60
699.23	278.09
699.57	277.65
699.90	276.90
700.24	276.26
700.58	275.75
700.91	275.37
701.25	275.23
701.58	275.03
701.92	274.71
702.25	274.33
702.59	273.88
702.92	273.48
703.26	273.09
703.59	272.65
703.93	272.64
704.26	272.25
704.60	271.75
704.93	271.28
705.26	270.84
705.60	270.43
705.93	269.86
706.27	269.60
706.60	269.31
706.94	269.27
707.27	268.82
707.61	268.50
707.94	268.04
708.27	267.28
708.61	266.48
708.94	265.95
709.28	265.58
709.61	265.13
709.94	264.74
710.28	264.38
710.61	264.01
710.95	263.16
711.28	263.12
711.61	262.75
711.95	262.51
712.28	262.10
712.61	261.80
712.95	261.72
713.28	261.55
713.61	261.09
713.95	260.50
714.28	260.17
714.61	259.73
714.95	259.40
715.28	259.06
715.61	258.75
715.95	258.42
716.28	258.04
716.61	257.79
716.95	257.47
717.28	257.19
717.61	256.86
717.94	256.66
718.28	256.04
718.61	255.73
718.94	255.36
719.27	255.17
719.61	254.90
719.94	254.56
720.27	254.09
720.60	253.78
720.94	253.56
721.27	253.41
721.60	253.31
721.93	253.02
722.27	252.98
722.60	252.92
722.93	252.69
723.26	252.54
723.59	252.28
723.93	252.12
724.26	251.90
724.59	251.71
724.92	251.44
725.25	251.36
725.59	251.16
725.92	251.10
726.25	250.87
726.58	250.66
726.91	250.36
727.24	250.27
727.57	250.07
727.91	249.84
728.24	249.65
728.57	249.35
728.90	249.25
729.23	248.83
729.56	248.78
729.89	248.53
730.22	248.37
730.55	248.17
730.89	248.01
731.22	247.76
731.55	247.63
731.88	247.55
732.21	247.26
732.54	247.05
732.87	246.78
733.20	246.58
733.53	246.43
733.86	246.35
734.19	246.06
734.52	246.02
734.85	246.15
735.18	245.92
735.51	245.92
735.84	245.81
736.17	245.80
736.50	245.38
736.83	245.90
737.16	245.72
737.49	245.57
737.82	245.35
738.15	245.34
738.48	245.14
738.81	244.90
739.14	244.73
739.47	244.65
739.80	244.54
740.13	244.53
740.46	244.32
740.79	244.03
741.12	243.87
741.45	243.55
741.78	243.21
742.11	243.17
742.44	242.92
742.77	242.78
743.10	242.55
743.43	242.33
743.75	241.57
744.08	242.01
744.41	241.91
744.74	241.76
745.07	241.51
745.40	241.43
745.73	241.43
746.06	241.28
746.39	241.11
746.71	240.94
747.04	240.64
747.37	240.53
747.70	240.54
748.03	240.44
748.36	240.45
748.68	240.26
749.01	239.98
749.34	239.89
749.67	239.69
750.00	239.68
750.33	239.97
750.65	239.93
750.98	239.23
751.31	239.06
751.64	239.00
751.97	239.16
752.29	239.00
752.62	238.75
752.95	238.65
753.28	238.49
753.60	238.28
753.93	238.33
754.26	238.24
754.59	238.02
754.91	237.87
755.24	237.73
755.57	237.65
755.90	237.56
756.22	237.35
756.55	237.20
756.88	236.96
757.20	236.61
757.53	236.32
757.86	236.23
758.19	236.16
758.51	236.04
758.84	235.74
759.17	235.57
759.49	235.46
759.82	235.57
760.15	235.57
760.47	235.53
760.80	235.30
761.13	235.26
761.45	235.10
761.78	235.00
762.11	234.85
762.43	234.69
762.76	234.57
763.08	234.62
763.41	234.61
763.74	234.55
764.06	234.38
764.39	234.31
764.71	234.22
765.04	234.11
765.37	233.99
765.69	233.92
766.02	233.90
766.34	233.91
766.67	233.61
767.00	233.60
767.32	233.78
767.65	234.01
767.97	233.85
768.30	233.85
768.62	233.73
768.95	233.67
769.27	233.64
769.60	233.70
769.92	233.47
770.25	233.35
770.57	233.22
770.90	233.14
771.22	233.14
771.55	233.09
771.87	233.06
772.20	233.08
772.52	233.36
772.85	233.85
773.17	233.77
773.50	233.76
773.82	233.70
774.15	233.45
774.47	233.14
774.80	233.14
775.12	233.11
775.45	233.15
775.77	233.11
776.09	233.12
776.42	233.10
776.74	233.26
777.07	233.22
777.39	233.20
777.72	233.19
778.04	233.24
778.36	233.14
778.69	233.16
779.01	233.08
779.33	232.67
779.66	232.14
779.98	232.00
780.31	231.95
780.63	232.08
780.95	232.03
781.28	231.99
781.60	231.82
781.92	231.72
782.25	231.73
782.57	231.75
782.89	231.70
783.22	231.64
783.54	231.47
783.86	231.44
784.19	231.40
784.51	231.51
784.83	231.41
785.16	231.40
785.48	231.31
785.80	231.32
786.12	231.28
786.45	231.22
786.77	231.21
787.09	231.19
787.42	230.98
787.74	231.06
788.06	231.02
788.38	231.04
788.71	231.03
789.03	230.97
789.35	230.98
789.67	230.87
789.99	230.80
790.32	230.72
790.64	230.78
790.96	231.13
791.28	230.97
791.61	230.92
791.93	230.88
792.25	230.87
792.57	231.11
792.89	231.03
793.21	231.02
793.54	230.96
793.86	230.88
794.18	230.87
794.50	230.72
794.82	230.69
795.14	230.69
795.47	230.76
795.79	230.70
796.11	230.56
796.43	230.47
796.75	230.48
797.07	230.48
797.39	230.38
797.71	230.04
798.04	230.04
798.36	230.05
798.68	230.08
799.00	230.09
799.32	229.78
799.64	229.83
799.96	229.71
800.28	229.80
800.60	229.71
800.92	229.68
801.24	229.55
801.56	229.62
801.89	229.55
802.21	229.46
802.53	229.38
802.85	229.45
803.17	229.69
803.49	229.54
803.81	229.47
804.13	229.46
804.45	229.32
804.77	229.24
805.09	229.11
805.41	229.04
805.73	228.91
806.05	228.84
806.37	228.77
806.69	228.77
807.01	228.73
807.33	228.78
807.65	228.58
807.97	228.84
808.28	228.72
808.60	228.70
808.92	228.65
809.24	228.91
809.56	228.86
809.88	228.63
810.20	228.68
810.52	228.79
810.84	228.64
811.16	228.60
811.48	228.57
811.80	228.73
812.12	228.67
812.43	228.78
812.75	228.74
813.07	228.72
813.39	228.78
813.71	228.64
814.03	228.58
814.35	228.65
814.67	228.43
814.98	228.43
815.30	228.42
815.62	228.37
815.94	228.02
816.26	228.19
816.58	228.15
816.89	228.15
817.21	228.01
817.53	228.13
817.85	228.21
