SpectraSuite Data File
++++++++++++++++++++++++++++++++++++
Date: Wed Sep 04 17:46:11 EDT 2013
User: lab3
Dark Spectrum Present: Yes
Reference Spectrum Present: No
Number of Sampled Component Spectra: 1
Spectrometers: USB2E7196
Integration Time (usec): 170000 (USB2E7196)
Spectra Averaged: 20 (USB2E7196)
Boxcar Smoothing: 10 (USB2E7196)
Correct for Electrical Dark: No (USB2E7196)
Strobe/Lamp Enabled: No (USB2E7196)
Correct for Detector Non-linearity: No (USB2E7196)
Correct for Stray Light: No (USB2E7196)
Number of Pixels in Processed Spectrum: 2048
>>>>>Begin Processed Spectral Data<<<<<
339.09	0.00
339.48	211.90
339.86	214.55
340.24	215.65
340.63	216.80
341.01	227.15
341.39	219.60
341.78	222.25
342.16	222.65
342.54	223.35
342.93	211.83
343.31	222.48
343.69	223.11
344.07	223.50
344.46	223.94
344.84	224.38
345.22	224.27
345.60	224.57
345.99	224.67
346.37	224.84
346.75	224.92
347.13	224.96
347.52	225.01
347.90	225.42
348.28	225.43
348.66	225.50
349.05	225.35
349.43	225.35
349.81	225.44
350.19	225.52
350.57	225.59
350.96	225.77
351.34	225.91
351.72	225.95
352.10	226.14
352.48	226.22
352.87	226.27
353.25	226.34
353.63	226.37
354.01	226.50
354.39	226.60
354.77	226.72
355.15	226.88
355.54	226.89
355.92	226.69
356.30	226.75
356.68	227.08
357.06	227.24
357.44	227.29
357.82	227.37
358.20	227.82
358.58	227.86
358.97	227.95
359.35	228.16
359.73	228.29
360.11	228.25
360.49	228.31
360.87	228.30
361.25	228.42
361.63	228.67
362.01	228.72
362.39	228.68
362.77	228.73
363.15	228.71
363.53	228.74
363.91	228.84
364.29	228.90
364.67	228.55
365.05	228.57
365.43	228.70
365.81	228.81
366.19	228.68
366.57	228.90
366.95	228.85
367.33	228.60
367.71	228.69
368.09	228.94
368.47	228.94
368.85	229.03
369.23	229.04
369.61	228.81
369.99	228.96
370.37	229.03
370.75	229.25
371.13	229.17
371.51	229.12
371.89	229.14
372.27	229.14
372.65	229.21
373.03	229.23
373.41	229.11
373.78	228.96
374.16	228.64
374.54	228.37
374.92	228.35
375.30	228.40
375.68	228.16
376.06	228.09
376.44	227.98
376.82	227.85
377.19	227.82
377.57	227.74
377.95	227.54
378.33	227.40
378.71	226.99
379.09	227.01
379.47	227.05
379.84	226.88
380.22	226.70
380.60	226.48
380.98	226.42
381.36	226.36
381.73	226.28
382.11	226.33
382.49	226.30
382.87	226.15
383.25	226.11
383.62	226.62
384.00	226.43
384.38	226.41
384.76	226.51
385.13	226.63
385.51	226.60
385.89	226.42
386.27	226.36
386.64	226.43
387.02	226.28
387.40	226.15
387.78	226.20
388.15	226.25
388.53	226.22
388.91	226.06
389.29	226.06
389.66	226.09
390.04	226.04
390.42	226.17
390.79	226.20
391.17	226.13
391.55	225.60
391.92	225.55
392.30	225.63
392.68	225.48
393.05	225.48
393.43	225.50
393.81	225.65
394.18	225.63
394.56	225.71
394.94	225.87
395.31	225.87
395.69	226.03
396.06	226.10
396.44	226.18
396.82	226.27
397.19	226.50
397.57	226.49
397.95	226.60
398.32	226.50
398.70	226.64
399.07	226.84
399.45	226.86
399.82	226.96
400.20	226.94
400.58	227.02
400.95	226.86
401.33	227.07
401.70	227.55
402.08	227.73
402.45	227.79
402.83	227.99
403.20	228.14
403.58	228.18
403.95	228.43
404.33	228.66
404.71	228.89
405.08	229.36
405.46	229.63
405.83	229.95
406.21	230.18
406.58	230.42
406.96	230.64
407.33	231.04
407.70	231.45
408.08	232.26
408.45	232.70
408.83	233.17
409.20	233.54
409.58	233.61
409.95	234.10
410.33	234.67
410.70	235.15
411.08	235.82
411.45	236.48
411.82	237.06
412.20	237.82
412.57	238.75
412.95	239.07
413.32	239.98
413.69	240.76
414.07	241.66
414.44	242.66
414.82	243.71
415.19	244.82
415.56	245.99
415.94	246.84
416.31	248.34
416.68	249.75
417.06	251.28
417.43	252.87
417.81	254.62
418.18	256.40
418.55	258.27
418.93	260.27
419.30	262.29
419.67	264.47
420.04	266.67
420.42	268.96
420.79	271.96
421.16	274.64
421.54	277.65
421.91	280.68
422.28	283.63
422.66	286.82
423.03	290.32
423.40	293.58
423.77	297.14
424.15	300.61
424.52	304.35
424.89	308.53
425.26	312.45
425.64	316.16
426.01	320.23
426.38	324.43
426.75	328.84
427.13	333.32
427.50	337.90
427.87	342.70
428.24	347.37
428.61	351.71
428.99	356.98
429.36	362.33
429.73	367.63
430.10	373.12
430.47	378.75
430.85	384.18
431.22	390.41
431.59	397.05
431.96	403.21
432.33	409.98
432.70	416.41
433.08	424.15
433.45	431.36
433.82	438.57
434.19	446.65
434.56	454.50
434.93	462.06
435.30	469.75
435.68	478.28
436.05	486.55
436.42	494.81
436.79	502.23
437.16	510.39
437.53	519.03
437.90	527.53
438.27	535.90
438.64	544.68
439.01	552.75
439.38	559.75
439.75	566.83
440.13	574.67
440.50	582.06
440.87	587.98
441.24	594.40
441.61	601.23
441.98	606.12
442.35	612.03
442.72	618.03
443.09	623.70
443.46	627.01
443.83	629.43
444.20	631.33
444.57	634.14
444.94	635.21
445.31	636.27
445.68	637.62
446.05	637.86
446.42	636.46
446.79	635.01
447.16	633.53
447.53	632.20
447.90	628.67
448.27	625.23
448.64	620.45
449.01	616.88
449.37	610.89
449.74	605.19
450.11	598.37
450.48	590.72
450.85	582.94
451.22	576.17
451.59	569.68
451.96	563.59
452.33	555.58
452.70	548.29
453.07	539.90
453.43	531.00
453.80	522.75
454.17	515.02
454.54	507.33
454.91	499.23
455.28	491.31
455.65	483.94
456.02	477.19
456.38	471.05
456.75	463.30
457.12	456.97
457.49	450.76
457.86	444.42
458.23	439.33
458.59	433.70
458.96	428.14
459.33	423.17
459.70	418.06
460.07	414.02
460.43	409.57
460.80	405.40
461.17	401.74
461.54	397.85
461.91	394.06
462.27	390.34
462.64	387.14
463.01	383.71
463.38	380.58
463.74	376.60
464.11	373.49
464.48	370.92
464.85	368.07
465.21	365.98
465.58	363.80
465.95	361.01
466.32	358.85
466.68	356.56
467.05	354.34
467.42	352.22
467.78	349.90
468.15	347.69
468.52	346.10
468.88	343.82
469.25	341.88
469.62	340.48
469.98	338.86
470.35	337.46
470.72	336.09
471.08	334.39
471.45	333.07
471.82	331.94
472.18	330.43
472.55	329.42
472.92	328.03
473.28	326.94
473.65	325.87
474.02	324.86
474.38	324.00
474.75	323.26
475.11	322.41
475.48	321.74
475.85	321.18
476.21	320.53
476.58	320.14
476.94	319.79
477.31	319.33
477.67	319.00
478.04	318.62
478.41	318.43
478.77	318.73
479.14	318.45
479.50	318.39
479.87	318.57
480.23	318.65
480.60	318.72
480.96	318.77
481.33	319.20
481.69	319.35
482.06	319.66
482.42	319.95
482.79	320.36
483.15	320.75
483.52	321.36
483.88	321.77
484.25	322.34
484.61	322.91
484.98	323.53
485.34	324.45
485.71	325.40
486.07	326.41
486.44	326.93
486.80	328.08
487.17	329.12
487.53	330.45
487.90	331.79
488.26	333.42
488.62	334.96
488.99	336.30
489.35	338.11
489.72	339.86
490.08	341.69
490.44	343.55
490.81	345.86
491.17	348.08
491.54	350.67
491.90	353.22
492.26	355.94
492.63	358.65
492.99	361.50
493.36	364.57
493.72	367.70
494.08	371.17
494.45	374.79
494.81	378.70
495.17	382.52
495.54	386.63
495.90	390.80
496.26	395.29
496.63	399.91
496.99	404.60
497.35	409.67
497.72	414.99
498.08	420.41
498.44	425.90
498.80	431.71
499.17	437.61
499.53	443.83
499.89	450.36
500.26	457.12
500.62	464.03
500.98	471.40
501.34	478.79
501.71	486.41
502.07	494.31
502.43	502.27
502.79	510.55
503.16	519.19
503.52	527.88
503.88	537.06
504.24	546.67
504.60	556.62
504.97	566.84
505.33	577.12
505.69	588.17
506.05	599.23
506.41	610.46
506.78	622.03
507.14	633.99
507.50	646.18
507.86	658.72
508.22	671.68
508.59	684.42
508.95	698.01
509.31	711.82
509.67	725.79
510.03	739.83
510.39	754.39
510.75	769.06
511.12	784.27
511.48	799.49
511.84	814.98
512.20	830.64
512.56	846.60
512.92	863.12
513.28	879.64
513.64	896.48
514.00	913.59
514.37	931.14
514.73	949.12
515.09	967.05
515.45	985.21
515.81	1003.13
516.17	1021.65
516.53	1040.06
516.89	1058.55
517.25	1077.75
517.61	1097.56
517.97	1117.61
518.33	1137.59
518.69	1157.63
519.05	1177.77
519.41	1198.17
519.77	1218.87
520.13	1239.34
520.49	1259.50
520.85	1281.42
521.21	1302.40
521.57	1323.34
521.93	1343.79
522.29	1364.41
522.65	1384.81
523.01	1405.58
523.37	1425.85
523.73	1446.34
524.09	1466.45
524.45	1486.82
524.81	1506.99
525.17	1527.61
525.53	1547.77
525.89	1568.15
526.25	1588.45
526.61	1608.40
526.97	1628.93
527.33	1649.77
527.68	1671.14
528.04	1692.11
528.40	1711.20
528.76	1731.75
529.12	1751.61
529.48	1771.87
529.84	1791.22
530.20	1811.61
530.56	1831.53
530.91	1852.15
531.27	1872.14
531.63	1892.11
531.99	1912.21
532.35	1931.98
532.71	1951.32
533.07	1971.41
533.42	1990.58
533.78	2009.83
534.14	2029.05
534.50	2047.53
534.86	2066.04
535.21	2082.90
535.57	2100.97
535.93	2118.40
536.29	2135.35
536.65	2153.06
537.00	2169.90
537.36	2187.13
537.72	2203.38
538.08	2220.20
538.44	2236.04
538.79	2251.90
539.15	2268.00
539.51	2283.45
539.87	2298.23
540.22	2312.05
540.58	2325.51
540.94	2338.28
541.29	2350.45
541.65	2362.89
542.01	2375.12
542.37	2385.00
542.72	2395.67
543.08	2405.79
543.44	2417.06
543.79	2426.87
544.15	2436.23
544.51	2445.92
544.87	2455.07
545.22	2463.10
545.58	2470.15
545.94	2476.89
546.29	2482.94
546.65	2488.34
547.01	2493.50
547.36	2498.39
547.72	2503.25
548.07	2506.97
548.43	2511.79
548.79	2515.81
549.14	2519.43
549.50	2522.71
549.86	2526.51
550.21	2529.90
550.57	2532.49
550.92	2533.21
551.28	2534.14
551.64	2535.96
551.99	2537.58
552.35	2538.74
552.70	2540.43
553.06	2541.86
553.41	2542.80
553.77	2544.35
554.13	2545.86
554.48	2546.81
554.84	2547.83
555.19	2548.49
555.55	2549.81
555.90	2549.07
556.26	2548.08
556.61	2546.38
556.97	2543.82
557.32	2542.90
557.68	2541.24
558.03	2539.67
558.39	2538.02
558.74	2537.14
559.10	2534.01
559.45	2530.08
559.81	2525.44
560.16	2520.30
560.52	2515.29
560.87	2511.01
561.23	2505.60
561.58	2499.68
561.94	2492.84
562.29	2485.63
562.64	2478.56
563.00	2470.16
563.35	2463.38
563.71	2456.92
564.06	2450.68
564.42	2444.10
564.77	2437.18
565.12	2429.68
565.48	2421.97
565.83	2414.22
566.19	2406.07
566.54	2397.96
566.89	2389.89
567.25	2382.21
567.60	2375.08
567.96	2367.29
568.31	2359.24
568.66	2350.33
569.02	2341.32
569.37	2333.10
569.72	2325.47
570.08	2316.30
570.43	2307.02
570.78	2297.59
571.14	2288.09
571.49	2277.84
571.84	2268.51
572.20	2257.48
572.55	2247.59
572.90	2236.98
573.26	2226.70
573.61	2215.34
573.96	2204.44
574.31	2192.57
574.67	2180.79
575.02	2167.92
575.37	2155.28
575.72	2142.19
576.08	2130.32
576.43	2117.87
576.78	2105.04
577.13	2091.67
577.49	2079.30
577.84	2067.47
578.19	2055.80
578.54	2043.72
578.90	2031.90
579.25	2019.81
579.60	2007.95
579.95	1995.26
580.30	1982.59
580.66	1969.38
581.01	1956.37
581.36	1942.78
581.71	1930.45
582.06	1918.01
582.42	1905.90
582.77	1893.68
583.12	1882.13
583.47	1870.10
583.82	1858.69
584.17	1847.15
584.53	1835.59
584.88	1823.27
585.23	1810.67
585.58	1797.00
585.93	1783.97
586.28	1770.85
586.63	1756.99
586.98	1742.85
587.34	1730.00
587.69	1716.79
588.04	1704.82
588.39	1693.01
588.74	1681.15
589.09	1669.43
589.44	1656.89
589.79	1645.09
590.14	1633.71
590.49	1621.73
590.84	1609.98
591.19	1598.08
591.54	1586.20
591.89	1574.19
592.25	1564.03
592.60	1552.94
592.95	1541.91
593.30	1530.25
593.65	1518.81
594.00	1507.42
594.35	1498.24
594.70	1486.67
595.05	1475.78
595.40	1464.00
595.75	1452.15
596.10	1441.31
596.45	1430.15
596.80	1419.67
597.15	1408.65
597.50	1397.22
597.85	1386.34
598.19	1375.20
598.54	1364.14
598.89	1353.19
599.24	1342.87
599.59	1331.58
599.94	1321.07
600.29	1311.07
600.64	1300.98
600.99	1290.63
601.34	1281.39
601.69	1270.28
602.04	1260.73
602.39	1251.20
602.74	1242.40
603.08	1233.71
603.43	1224.70
603.78	1215.50
604.13	1206.19
604.48	1196.96
604.83	1187.71
605.18	1178.28
605.53	1169.17
605.87	1160.28
606.22	1152.05
606.57	1143.31
606.92	1134.34
607.27	1125.55
607.62	1116.97
607.96	1108.95
608.31	1101.55
608.66	1093.64
609.01	1085.57
609.36	1077.41
609.70	1069.40
610.05	1060.74
610.40	1052.59
610.75	1044.14
611.10	1036.14
611.44	1027.98
611.79	1020.15
612.14	1012.54
612.49	1004.91
612.83	997.75
613.18	990.31
613.53	982.80
613.88	975.07
614.22	967.65
614.57	960.22
614.92	952.80
615.27	945.45
615.61	937.86
615.96	930.24
616.31	923.22
616.65	916.45
617.00	909.40
617.35	902.63
617.70	895.70
618.04	889.10
618.39	882.27
618.74	876.20
619.08	869.43
619.43	862.58
619.78	855.75
620.12	848.65
620.47	841.92
620.82	835.02
621.16	828.41
621.51	822.13
621.85	816.07
622.20	809.67
622.55	803.50
622.89	797.27
623.24	791.24
623.59	784.87
623.93	778.70
624.28	772.73
624.62	767.23
624.97	761.65
625.32	755.95
625.66	750.13
626.01	744.07
626.35	738.75
626.70	733.46
627.04	728.46
627.39	723.34
627.73	718.31
628.08	713.24
628.43	707.99
628.77	702.73
629.12	697.53
629.46	692.93
629.81	688.13
630.15	683.44
630.50	678.72
630.84	674.00
631.19	669.44
631.53	665.05
631.88	659.99
632.22	655.29
632.57	651.11
632.91	646.70
633.26	642.50
633.60	638.10
633.95	633.53
634.29	628.84
634.64	624.34
634.98	619.71
635.32	615.55
635.67	611.62
636.01	607.62
636.36	603.44
636.70	599.42
637.05	595.35
637.39	591.24
637.73	587.19
638.08	583.43
638.42	579.30
638.77	574.95
639.11	570.81
639.45	566.61
639.80	562.33
640.14	558.41
640.49	554.66
640.83	550.80
641.17	547.35
641.52	543.86
641.86	540.45
642.20	537.32
642.55	533.70
642.89	530.21
643.23	526.75
643.58	523.66
643.92	520.12
644.26	516.97
644.61	513.92
644.95	510.72
645.29	507.44
645.64	504.50
645.98	501.58
646.32	498.84
646.66	495.95
647.01	492.91
647.35	490.23
647.69	487.30
648.04	484.68
648.38	481.85
648.72	479.09
649.06	476.11
649.41	473.05
649.75	470.27
650.09	467.66
650.43	465.01
650.78	462.24
651.12	459.59
651.46	456.68
651.80	454.02
652.14	451.48
652.49	449.11
652.83	446.64
653.17	444.14
653.51	441.60
653.85	439.32
654.20	437.00
654.54	434.60
654.88	432.22
655.22	430.03
655.56	427.69
655.90	425.29
656.25	423.21
656.59	421.13
656.93	419.04
657.27	416.94
657.61	414.62
657.95	412.40
658.29	410.28
658.64	408.32
658.98	406.18
659.32	403.94
659.66	401.79
660.00	399.60
660.34	397.64
660.68	395.58
661.02	393.54
661.36	391.68
661.70	389.60
662.05	387.71
662.39	385.77
662.73	384.10
663.07	382.64
663.41	380.86
663.75	379.04
664.09	377.21
664.43	375.36
664.77	373.76
665.11	372.16
665.45	370.55
665.79	368.98
666.13	367.40
666.47	365.93
666.81	364.30
667.15	362.62
667.49	361.18
667.83	359.95
668.17	358.48
668.51	357.06
668.85	355.77
669.19	354.59
669.53	353.09
669.87	351.54
670.21	350.06
670.55	348.67
670.89	347.58
671.23	346.25
671.57	344.88
671.91	343.63
672.25	342.29
672.58	341.15
672.92	339.91
673.26	338.61
673.60	337.35
673.94	336.20
674.28	335.23
674.62	334.11
674.96	332.69
675.30	331.56
675.64	330.34
675.97	329.16
676.31	327.88
676.65	326.68
676.99	325.88
677.33	324.68
677.67	323.58
678.01	322.28
678.34	321.26
678.68	320.38
679.02	319.26
679.36	318.31
679.70	317.20
680.04	316.18
680.37	315.30
680.71	314.39
681.05	313.57
681.39	312.77
681.73	311.88
682.06	311.02
682.40	310.16
682.74	309.45
683.08	308.75
683.42	307.84
683.75	307.15
684.09	306.07
684.43	305.39
684.77	304.54
685.10	303.79
685.44	303.08
685.78	302.28
686.12	301.58
686.45	300.85
686.79	300.10
687.13	299.49
687.46	298.84
687.80	298.23
688.14	297.43
688.48	296.58
688.81	295.84
689.15	295.32
689.49	294.67
689.82	293.91
690.16	293.08
690.50	292.45
690.83	291.68
691.17	290.98
691.51	290.26
691.84	289.79
692.18	289.08
692.52	288.36
692.85	287.72
693.19	287.30
693.52	286.66
693.86	285.97
694.20	285.28
694.53	284.54
694.87	283.80
695.21	283.23
695.54	282.67
695.88	282.00
696.21	281.19
696.55	280.51
696.88	279.87
697.22	279.28
697.56	278.76
697.89	278.20
698.23	277.79
698.56	277.21
698.90	276.65
699.23	276.25
699.57	275.82
699.90	275.35
700.24	274.70
700.58	274.25
700.91	273.95
701.25	273.91
701.58	273.89
701.92	273.63
702.25	273.14
702.59	272.62
702.92	272.21
703.26	271.91
703.59	271.61
703.93	271.61
704.26	271.23
704.60	270.78
704.93	270.48
705.26	269.95
705.60	269.63
705.93	269.12
706.27	268.82
706.60	268.56
706.94	268.30
707.27	267.90
707.61	267.58
707.94	267.15
708.27	266.36
708.61	265.55
708.94	265.11
709.28	264.76
709.61	264.40
709.94	264.05
710.28	263.68
710.61	263.18
710.95	262.44
711.28	262.47
711.61	262.09
711.95	261.73
712.28	261.31
712.61	260.98
712.95	260.94
713.28	260.74
713.61	260.31
713.95	259.82
714.28	259.51
714.61	259.06
714.95	258.65
715.28	258.23
715.61	257.98
715.95	257.67
716.28	257.33
716.61	257.12
716.95	256.75
717.28	256.50
717.61	256.17
717.94	255.83
718.28	255.13
718.61	254.79
718.94	254.47
719.27	254.26
719.61	253.94
719.94	253.57
720.27	253.09
720.60	252.74
720.94	252.51
721.27	252.35
721.60	252.23
721.93	252.05
722.27	252.04
722.60	251.82
722.93	251.48
723.26	251.31
723.59	251.02
723.93	250.89
724.26	250.75
724.59	250.50
724.92	250.35
725.25	250.29
725.59	250.12
725.92	249.95
726.25	249.82
726.58	249.62
726.91	249.31
727.24	249.16
727.57	248.96
727.91	248.70
728.24	248.50
728.57	248.18
728.90	248.03
729.23	247.76
729.56	247.79
729.89	247.63
730.22	247.44
730.55	247.22
730.89	247.03
731.22	246.77
731.55	246.63
731.88	246.47
732.21	246.24
732.54	246.08
732.87	245.91
733.20	245.66
733.53	245.59
733.86	245.52
734.19	245.28
734.52	245.22
734.85	245.31
735.18	245.10
735.51	245.14
735.84	245.05
736.17	244.91
736.50	244.50
736.83	244.98
737.16	244.76
737.49	244.65
737.82	244.48
738.15	244.39
738.48	244.23
738.81	244.08
739.14	243.86
739.47	243.68
739.80	243.45
740.13	243.37
740.46	243.02
740.79	242.75
741.12	242.62
741.45	242.41
741.78	242.04
742.11	241.96
742.44	241.73
742.77	241.54
743.10	241.40
743.43	241.28
743.75	240.54
744.08	241.07
744.41	240.96
744.74	240.80
745.07	240.48
745.40	240.42
745.73	240.36
746.06	240.30
746.39	240.24
746.71	240.14
747.04	240.04
747.37	239.91
747.70	239.94
748.03	239.79
748.36	239.75
748.68	239.64
749.01	239.39
749.34	239.28
749.67	239.18
750.00	239.10
750.33	239.34
750.65	239.30
750.98	238.54
751.31	238.37
751.64	238.32
751.97	238.53
752.29	238.40
752.62	238.18
752.95	237.99
753.28	237.80
753.60	237.63
753.93	237.59
754.26	237.57
754.59	237.30
754.91	237.19
755.24	237.01
755.57	236.93
755.90	236.89
756.22	236.69
756.55	236.48
756.88	236.28
757.20	235.81
757.53	235.54
757.86	235.43
758.19	235.35
758.51	235.25
758.84	234.88
759.17	234.79
759.49	234.69
759.82	234.87
760.15	234.78
760.47	234.75
760.80	234.56
761.13	234.55
761.45	234.42
761.78	234.34
762.11	234.35
762.43	234.16
762.76	234.01
763.08	234.09
763.41	234.13
763.74	234.11
764.06	234.03
764.39	233.99
764.71	233.95
765.04	233.83
765.37	233.73
765.69	233.66
766.02	233.58
766.34	233.43
766.67	233.19
767.00	233.27
767.32	233.45
767.65	233.66
767.97	233.56
768.30	233.60
768.62	233.54
768.95	233.42
769.27	233.44
769.60	233.48
769.92	233.25
770.25	233.12
770.57	232.99
770.90	232.97
771.22	232.89
771.55	232.85
771.87	232.83
772.20	232.77
772.52	233.10
772.85	233.66
773.17	233.66
773.50	233.58
773.82	233.44
774.15	233.10
774.47	232.80
774.80	232.70
775.12	232.63
775.45	232.52
775.77	232.43
776.09	232.38
776.42	232.36
776.74	232.55
777.07	232.46
777.39	232.41
777.72	232.28
778.04	232.32
778.36	232.22
778.69	232.18
779.01	232.13
779.33	231.69
779.66	231.13
779.98	231.06
780.31	231.08
780.63	231.28
780.95	231.32
781.28	231.25
781.60	231.18
781.92	231.13
782.25	231.10
782.57	231.05
782.89	231.02
783.22	230.87
783.54	230.72
783.86	230.70
784.19	230.64
784.51	230.78
784.83	230.61
785.16	230.57
785.48	230.60
785.80	230.56
786.12	230.60
786.45	230.45
786.77	230.44
787.09	230.33
787.42	230.04
787.74	230.09
788.06	230.00
788.38	229.97
788.71	229.87
789.03	229.90
789.35	229.91
789.67	229.79
789.99	229.79
790.32	229.63
790.64	229.58
790.96	229.90
791.28	229.67
791.61	229.65
791.93	229.56
792.25	229.45
792.57	229.77
792.89	229.66
793.21	229.71
793.54	229.68
793.86	229.57
794.18	229.65
794.50	229.52
794.82	229.56
795.14	229.59
795.47	229.67
795.79	229.64
796.11	229.55
796.43	229.52
796.75	229.47
797.07	229.51
797.39	229.51
797.71	229.15
798.04	229.23
798.36	229.30
798.68	229.42
799.00	229.48
799.32	229.19
799.64	229.28
799.96	229.28
800.28	229.27
800.60	229.27
800.92	229.21
801.24	229.17
801.56	229.19
801.89	229.08
802.21	229.09
802.53	228.97
802.85	229.01
803.17	229.25
803.49	229.20
803.81	229.19
804.13	229.15
804.45	229.09
804.77	229.07
805.09	229.01
805.41	228.86
805.73	228.73
806.05	228.61
806.37	228.54
806.69	228.40
807.01	228.45
807.33	228.48
807.65	228.30
807.97	228.54
808.28	228.51
808.60	228.58
808.92	228.48
809.24	228.79
809.56	228.70
809.88	228.49
810.20	228.51
810.52	228.53
810.84	228.48
811.16	228.45
811.48	228.45
811.80	228.60
812.12	228.59
812.43	228.69
812.75	228.73
813.07	228.72
813.39	228.79
813.71	228.63
814.03	228.64
814.35	228.71
814.67	228.48
814.98	228.39
815.30	228.36
815.62	228.33
815.94	228.00
816.26	228.27
816.58	228.23
816.89	228.24
817.21	228.11
817.53	228.14
817.85	228.20
