SpectraSuite Data File
++++++++++++++++++++++++++++++++++++
Date: Wed Sep 04 17:48:20 EDT 2013
User: lab3
Dark Spectrum Present: Yes
Reference Spectrum Present: No
Number of Sampled Component Spectra: 1
Spectrometers: USB2E7196
Integration Time (usec): 170000 (USB2E7196)
Spectra Averaged: 20 (USB2E7196)
Boxcar Smoothing: 10 (USB2E7196)
Correct for Electrical Dark: No (USB2E7196)
Strobe/Lamp Enabled: No (USB2E7196)
Correct for Detector Non-linearity: No (USB2E7196)
Correct for Stray Light: No (USB2E7196)
Number of Pixels in Processed Spectrum: 2048
>>>>>Begin Processed Spectral Data<<<<<
339.09	0.00
339.48	212.60
339.86	214.00
340.24	216.35
340.63	216.50
341.01	224.20
341.39	220.95
341.78	221.15
342.16	223.90
342.54	222.75
342.93	212.03
343.31	222.67
343.69	223.26
344.07	223.72
344.46	224.13
344.84	224.55
345.22	224.63
345.60	224.89
345.99	225.19
346.37	225.31
346.75	225.41
347.13	225.49
347.52	225.56
347.90	225.88
348.28	225.87
348.66	226.02
349.05	225.90
349.43	225.93
349.81	226.01
350.19	226.14
350.57	226.16
350.96	226.30
351.34	226.44
351.72	226.54
352.10	226.66
352.48	226.69
352.87	226.62
353.25	226.67
353.63	226.67
354.01	226.60
354.39	226.63
354.77	226.78
355.15	226.90
355.54	226.89
355.92	226.72
356.30	226.77
356.68	227.09
357.06	227.23
357.44	227.17
357.82	227.31
358.20	227.69
358.58	227.75
358.97	227.85
359.35	228.04
359.73	228.20
360.11	228.26
360.49	228.38
360.87	228.62
361.25	228.67
361.63	228.86
362.01	229.01
362.39	229.04
362.77	229.05
363.15	229.02
363.53	229.10
363.91	229.18
364.29	229.19
364.67	228.75
365.05	228.75
365.43	228.91
365.81	228.95
366.19	228.80
366.57	228.95
366.95	228.85
367.33	228.73
367.71	228.70
368.09	228.78
368.47	228.80
368.85	228.73
369.23	228.85
369.61	228.70
369.99	228.81
370.37	228.85
370.75	229.07
371.13	229.01
371.51	228.87
371.89	228.94
372.27	228.98
372.65	229.02
373.03	229.06
373.41	228.97
373.78	228.94
374.16	228.68
374.54	228.50
374.92	228.51
375.30	228.46
375.68	228.29
376.06	228.28
376.44	228.20
376.82	228.17
377.19	228.13
377.57	228.06
377.95	227.88
378.33	227.78
378.71	227.43
379.09	227.46
379.47	227.51
379.84	227.42
380.22	227.32
380.60	227.21
380.98	227.07
381.36	227.01
381.73	226.80
382.11	226.82
382.49	226.82
382.87	226.65
383.25	226.63
383.62	227.15
384.00	226.98
384.38	226.94
384.76	227.01
385.13	227.12
385.51	227.06
385.89	226.88
386.27	226.90
386.64	226.97
387.02	226.92
387.40	226.81
387.78	226.75
388.15	226.76
388.53	226.76
388.91	226.80
389.29	226.73
389.66	226.84
390.04	226.76
390.42	226.83
390.79	226.90
391.17	226.84
391.55	226.28
391.92	226.25
392.30	226.29
392.68	226.15
393.05	226.07
393.43	226.14
393.81	226.25
394.18	226.13
394.56	226.13
394.94	226.25
395.31	226.27
395.69	226.51
396.06	226.53
396.44	226.55
396.82	226.49
397.19	226.83
397.57	226.76
397.95	226.85
398.32	226.72
398.70	226.74
399.07	226.93
399.45	227.04
399.82	227.17
400.20	227.20
400.58	227.28
400.95	227.16
401.33	227.39
401.70	227.81
402.08	228.06
402.45	228.20
402.83	228.36
403.20	228.51
403.58	228.55
403.95	228.81
404.33	229.07
404.71	229.34
405.08	229.76
405.46	230.01
405.83	230.34
406.21	230.57
406.58	230.84
406.96	231.03
407.33	231.32
407.70	231.71
408.08	232.48
408.45	232.94
408.83	233.45
409.20	233.78
409.58	233.92
409.95	234.40
410.33	234.93
410.70	235.34
411.08	235.96
411.45	236.52
411.82	237.10
412.20	237.81
412.57	238.77
412.95	239.07
413.32	239.95
413.69	240.71
414.07	241.64
414.44	242.67
414.82	243.74
415.19	244.96
415.56	246.12
415.94	247.02
416.31	248.49
416.68	249.97
417.06	251.58
417.43	253.22
417.81	254.91
418.18	256.69
418.55	258.56
418.93	260.60
419.30	262.72
419.67	264.95
420.04	267.15
420.42	269.39
420.79	272.43
421.16	275.21
421.54	278.24
421.91	281.24
422.28	284.29
422.66	287.42
423.03	290.80
423.40	294.12
423.77	297.79
424.15	301.28
424.52	304.88
424.89	309.00
425.26	312.89
425.64	316.63
426.01	320.83
426.38	325.18
426.75	329.68
427.13	334.28
427.50	338.87
427.87	343.81
428.24	348.64
428.61	353.04
428.99	358.26
429.36	363.60
429.73	368.92
430.10	374.39
430.47	380.11
430.85	385.66
431.22	391.60
431.59	398.12
431.96	404.35
432.33	411.21
432.70	417.73
433.08	425.44
433.45	432.78
433.82	439.92
434.19	447.98
434.56	455.90
434.93	463.37
435.30	471.09
435.68	479.60
436.05	487.98
436.42	496.34
436.79	503.82
437.16	512.05
437.53	521.00
437.90	529.64
438.27	538.01
438.64	546.69
439.01	555.00
439.38	562.09
439.75	569.12
440.13	577.15
440.50	584.56
440.87	590.75
441.24	597.08
441.61	604.05
441.98	609.05
442.35	614.78
442.72	620.77
443.09	626.54
443.46	629.70
443.83	631.92
444.20	633.78
444.57	636.53
444.94	637.63
445.31	638.48
445.68	639.76
446.05	640.03
446.42	638.82
446.79	637.55
447.16	635.96
447.53	634.63
447.90	630.83
448.27	627.20
448.64	622.26
449.01	618.65
449.37	612.44
449.74	606.44
450.11	599.64
450.48	592.00
450.85	584.07
451.22	577.45
451.59	570.99
451.96	564.81
452.33	556.76
452.70	549.49
453.07	541.07
453.43	532.01
453.80	523.70
454.17	515.75
454.54	508.10
454.91	500.07
455.28	492.25
455.65	485.02
456.02	478.28
456.38	471.97
456.75	464.33
457.12	458.01
457.49	451.85
457.86	445.66
458.23	440.50
458.59	434.87
458.96	429.18
459.33	424.06
459.70	419.06
460.07	415.09
460.43	410.42
460.80	406.15
461.17	402.54
461.54	398.62
461.91	394.98
462.27	391.15
462.64	387.92
463.01	384.32
463.38	381.00
463.74	377.06
464.11	374.09
464.48	371.38
464.85	368.60
465.21	366.52
465.58	364.17
465.95	361.34
466.32	359.17
466.68	356.94
467.05	354.81
467.42	352.51
467.78	350.21
468.15	348.24
468.52	346.70
468.88	344.48
469.25	342.58
469.62	341.15
469.98	339.48
470.35	337.99
470.72	336.58
471.08	334.91
471.45	333.67
471.82	332.53
472.18	331.14
472.55	330.12
472.92	328.81
473.28	327.68
473.65	326.70
474.02	325.70
474.38	324.86
474.75	324.13
475.11	323.23
475.48	322.63
475.85	321.95
476.21	321.23
476.58	320.87
476.94	320.43
477.31	319.90
477.67	319.46
478.04	319.14
478.41	318.94
478.77	319.31
479.14	318.99
479.50	318.74
479.87	318.80
480.23	318.83
480.60	318.94
480.96	319.05
481.33	319.42
481.69	319.64
482.06	319.88
482.42	320.15
482.79	320.58
483.15	321.01
483.52	321.70
483.88	322.18
484.25	322.70
484.61	323.35
484.98	323.96
485.34	324.99
485.71	325.92
486.07	326.90
486.44	327.40
486.80	328.41
487.17	329.61
487.53	330.94
487.90	332.26
488.26	333.86
488.62	335.47
488.99	336.85
489.35	338.58
489.72	340.42
490.08	342.28
490.44	344.32
490.81	346.62
491.17	348.73
491.54	351.29
491.90	353.75
492.26	356.37
492.63	359.29
492.99	362.07
493.36	365.15
493.72	368.40
494.08	371.94
494.45	375.83
494.81	379.69
495.17	383.49
495.54	387.60
495.90	391.62
496.26	396.04
496.63	400.76
496.99	405.59
497.35	410.50
497.72	415.85
498.08	421.33
498.44	426.89
498.80	432.93
499.17	438.79
499.53	444.94
499.89	451.61
500.26	458.32
500.62	465.14
500.98	472.66
501.34	480.22
501.71	487.91
502.07	495.70
502.43	503.67
502.79	512.05
503.16	520.75
503.52	529.91
503.88	539.11
504.24	548.62
504.60	558.37
504.97	568.66
505.33	578.95
505.69	589.97
506.05	600.86
506.41	611.95
506.78	623.67
507.14	635.82
507.50	647.90
507.86	660.31
508.22	673.35
508.59	685.96
508.95	699.52
509.31	713.50
509.67	727.78
510.03	742.13
510.39	756.83
510.75	771.72
511.12	786.79
511.48	802.21
511.84	818.03
512.20	833.94
512.56	850.01
512.92	866.66
513.28	883.19
513.64	900.20
514.00	917.66
514.37	935.14
514.73	953.00
515.09	971.20
515.45	989.59
515.81	1007.88
516.17	1026.59
516.53	1045.19
516.89	1063.67
517.25	1082.63
517.61	1102.65
517.97	1122.75
518.33	1142.67
518.69	1162.70
519.05	1183.21
519.41	1203.40
519.77	1224.43
520.13	1245.11
520.49	1265.49
520.85	1287.77
521.21	1308.77
521.57	1329.63
521.93	1350.32
522.29	1371.39
522.65	1391.77
523.01	1412.56
523.37	1432.93
523.73	1453.95
524.09	1474.26
524.45	1494.88
524.81	1515.36
525.17	1535.72
525.53	1556.02
525.89	1576.61
526.25	1597.23
526.61	1617.14
526.97	1638.15
527.33	1658.77
527.68	1680.32
528.04	1701.31
528.40	1720.68
528.76	1741.51
529.12	1761.89
529.48	1782.58
529.84	1802.10
530.20	1823.23
530.56	1843.53
530.91	1864.32
531.27	1884.41
531.63	1904.55
531.99	1924.41
532.35	1944.16
532.71	1963.99
533.07	1984.40
533.42	2003.92
533.78	2023.50
534.14	2043.19
534.50	2061.71
534.86	2080.78
535.21	2097.76
535.57	2115.82
535.93	2133.01
536.29	2150.34
536.65	2168.21
537.00	2185.39
537.36	2202.99
537.72	2218.57
538.08	2235.29
538.44	2251.62
538.79	2267.57
539.15	2283.73
539.51	2299.84
539.87	2314.52
540.22	2328.05
540.58	2341.89
540.94	2355.00
541.29	2367.24
541.65	2379.35
542.01	2391.87
542.37	2401.87
542.72	2412.63
543.08	2423.02
543.44	2434.32
543.79	2444.32
544.15	2453.58
544.51	2463.34
544.87	2472.50
545.22	2481.41
545.58	2489.05
545.94	2495.72
546.29	2501.99
546.65	2508.00
547.01	2513.15
547.36	2518.83
547.72	2524.38
548.07	2527.90
548.43	2532.59
548.79	2536.87
549.14	2540.54
549.50	2543.82
549.86	2547.69
550.21	2551.16
550.57	2554.28
550.92	2555.43
551.28	2556.24
551.64	2558.65
551.99	2559.81
552.35	2560.97
552.70	2562.71
553.06	2564.21
553.41	2565.25
553.77	2566.81
554.13	2568.21
554.48	2569.44
554.84	2570.69
555.19	2571.37
555.55	2573.01
555.90	2572.31
556.26	2571.32
556.61	2570.16
556.97	2567.89
557.32	2567.05
557.68	2565.94
558.03	2564.52
558.39	2563.06
558.74	2562.08
559.10	2558.33
559.45	2554.66
559.81	2550.13
560.16	2544.94
560.52	2539.46
560.87	2535.05
561.23	2529.47
561.58	2523.50
561.94	2516.84
562.29	2509.14
562.64	2502.05
563.00	2493.71
563.35	2487.12
563.71	2480.64
564.06	2474.05
564.42	2467.64
564.77	2460.41
565.12	2452.99
565.48	2445.18
565.83	2436.90
566.19	2428.76
566.54	2420.88
566.89	2413.06
567.25	2405.55
567.60	2398.01
567.96	2391.06
568.31	2382.90
568.66	2374.24
569.02	2365.25
569.37	2357.15
569.72	2349.61
570.08	2340.44
570.43	2331.07
570.78	2322.15
571.14	2312.45
571.49	2302.21
571.84	2292.50
572.20	2282.03
572.55	2271.87
572.90	2260.59
573.26	2250.61
573.61	2239.86
573.96	2228.93
574.31	2217.12
574.67	2205.23
575.02	2192.98
575.37	2180.06
575.72	2167.23
576.08	2155.28
576.43	2142.80
576.78	2129.40
577.13	2116.23
577.49	2103.84
577.84	2091.94
578.19	2079.95
578.54	2067.88
578.90	2056.14
579.25	2044.16
579.60	2031.84
579.95	2019.18
580.30	2006.65
580.66	1993.45
581.01	1979.79
581.36	1966.20
581.71	1953.77
582.06	1941.23
582.42	1928.93
582.77	1916.73
583.12	1904.69
583.47	1892.29
583.82	1880.57
584.17	1868.73
584.53	1856.90
584.88	1843.99
585.23	1831.15
585.58	1817.19
585.93	1803.82
586.28	1790.50
586.63	1776.75
586.98	1762.69
587.34	1749.50
587.69	1736.66
588.04	1724.58
588.39	1712.82
588.74	1701.01
589.09	1689.20
589.44	1676.44
589.79	1664.22
590.14	1652.24
590.49	1640.45
590.84	1628.67
591.19	1616.81
591.54	1604.88
591.89	1592.87
592.25	1583.09
592.60	1571.79
592.95	1560.74
593.30	1549.34
593.65	1537.79
594.00	1526.00
594.35	1516.53
594.70	1504.97
595.05	1493.83
595.40	1481.83
595.75	1470.09
596.10	1458.88
596.45	1447.44
596.80	1437.01
597.15	1426.02
597.50	1414.38
597.85	1403.46
598.19	1392.12
598.54	1380.67
598.89	1369.87
599.24	1359.62
599.59	1348.10
599.94	1337.68
600.29	1327.32
600.64	1317.22
600.99	1306.69
601.34	1297.38
601.69	1286.32
602.04	1276.64
602.39	1266.88
602.74	1258.05
603.08	1248.97
603.43	1239.82
603.78	1230.32
604.13	1220.87
604.48	1211.42
604.83	1201.97
605.18	1192.25
605.53	1183.13
605.87	1174.25
606.22	1165.75
606.57	1156.37
606.92	1147.25
607.27	1138.33
607.62	1129.73
607.96	1121.32
608.31	1113.73
608.66	1105.31
609.01	1096.96
609.36	1088.56
609.70	1080.32
610.05	1071.72
610.40	1063.59
610.75	1055.12
611.10	1047.00
611.44	1038.55
611.79	1030.58
612.14	1022.91
612.49	1015.19
612.83	1007.71
613.18	1000.18
613.53	992.47
613.88	984.91
614.22	977.29
614.57	969.52
614.92	961.78
615.27	954.35
615.61	946.70
615.96	939.30
616.31	932.03
616.65	925.03
617.00	917.93
617.35	910.95
617.70	903.81
618.04	896.90
618.39	889.93
618.74	883.69
619.08	876.93
619.43	870.14
619.78	863.28
620.12	856.31
620.47	849.50
620.82	842.57
621.16	835.76
621.51	829.58
621.85	823.46
622.20	817.13
622.55	810.61
622.89	804.27
623.24	798.23
623.59	792.00
623.93	786.07
624.28	780.04
624.62	774.37
624.97	768.70
625.32	763.04
625.66	757.34
626.01	751.47
626.35	746.21
626.70	740.85
627.04	735.52
627.39	730.16
627.73	724.90
628.08	719.92
628.43	714.63
628.77	709.30
629.12	704.20
629.46	699.41
629.81	694.83
630.15	690.14
630.50	685.22
630.84	680.51
631.19	675.74
631.53	671.27
631.88	666.04
632.22	661.27
632.57	656.78
632.91	652.26
633.26	647.86
633.60	643.09
633.95	638.53
634.29	633.96
634.64	629.52
634.98	624.82
635.32	620.35
635.67	616.63
636.01	612.55
636.36	608.22
636.70	604.18
637.05	600.12
637.39	596.25
637.73	592.25
638.08	588.31
638.42	584.13
638.77	579.95
639.11	575.80
639.45	571.60
639.80	567.39
640.14	563.55
640.49	559.63
640.83	555.87
641.17	552.29
641.52	548.67
641.86	545.27
642.20	542.20
642.55	538.76
642.89	535.02
643.23	531.54
643.58	528.53
643.92	524.87
644.26	521.45
644.61	518.16
644.95	514.81
645.29	511.51
645.64	508.47
645.98	505.33
646.32	502.47
646.66	499.43
647.01	496.49
647.35	493.63
647.69	490.76
648.04	488.14
648.38	485.38
648.72	482.76
649.06	479.76
649.41	476.64
649.75	473.65
650.09	470.89
650.43	468.05
650.78	465.08
651.12	462.38
651.46	459.64
651.80	456.95
652.14	454.32
652.49	451.89
652.83	449.32
653.17	446.79
653.51	444.24
653.85	441.86
654.20	439.39
654.54	436.83
654.88	434.37
655.22	432.09
655.56	429.68
655.90	427.22
656.25	425.04
656.59	422.93
656.93	420.82
657.27	418.74
657.61	416.45
657.95	414.33
658.29	412.16
658.64	410.17
658.98	407.95
659.32	405.73
659.66	403.52
660.00	401.47
660.34	399.43
660.68	397.52
661.02	395.50
661.36	393.57
661.70	391.62
662.05	389.74
662.39	387.80
662.73	386.05
663.07	384.59
663.41	382.75
663.75	380.85
664.09	378.98
664.43	377.11
664.77	375.51
665.11	373.79
665.45	372.25
665.79	370.67
666.13	368.95
666.47	367.32
666.81	365.70
667.15	364.03
667.49	362.59
667.83	361.30
668.17	359.80
668.51	358.42
668.85	357.14
669.19	355.97
669.53	354.48
669.87	352.96
670.21	351.36
670.55	349.97
670.89	348.88
671.23	347.66
671.57	346.20
671.91	344.85
672.25	343.50
672.58	342.31
672.92	340.86
673.26	339.73
673.60	338.61
673.94	337.40
674.28	336.30
674.62	335.26
674.96	333.88
675.30	332.82
675.64	331.59
675.97	330.41
676.31	329.02
676.65	327.75
676.99	326.75
677.33	325.56
677.67	324.51
678.01	323.20
678.34	322.14
678.68	321.25
679.02	320.27
679.36	319.25
679.70	318.15
680.04	317.16
680.37	316.12
680.71	315.14
681.05	314.25
681.39	313.29
681.73	312.19
682.06	311.27
682.40	310.38
682.74	309.59
683.08	308.80
683.42	307.87
683.75	307.24
684.09	306.25
684.43	305.54
684.77	304.69
685.10	303.97
685.44	303.17
685.78	302.44
686.12	301.67
686.45	300.95
686.79	300.17
687.13	299.53
687.46	298.77
687.80	298.13
688.14	297.26
688.48	296.61
688.81	295.88
689.15	295.26
689.49	294.45
689.82	293.78
690.16	292.83
690.50	292.17
690.83	291.36
691.17	290.66
691.51	289.95
691.84	289.29
692.18	288.66
692.52	288.05
692.85	287.38
693.19	286.88
693.52	286.24
693.86	285.53
694.20	284.82
694.53	284.25
694.87	283.48
695.21	282.97
695.54	282.31
695.88	281.65
696.21	280.91
696.55	280.40
696.88	279.74
697.22	279.21
697.56	278.70
697.89	278.13
698.23	277.70
698.56	277.05
698.90	276.68
699.23	276.15
699.57	275.65
699.90	275.08
700.24	274.42
700.58	274.05
700.91	273.68
701.25	273.60
701.58	273.56
701.92	273.31
702.25	272.83
702.59	272.33
702.92	271.95
703.26	271.65
703.59	271.24
703.93	271.24
704.26	270.91
704.60	270.59
704.93	270.22
705.26	269.81
705.60	269.53
705.93	268.98
706.27	268.70
706.60	268.45
706.94	268.28
707.27	267.92
707.61	267.49
707.94	267.09
708.27	266.40
708.61	265.67
708.94	265.19
709.28	264.89
709.61	264.51
709.94	264.25
710.28	263.81
710.61	263.41
710.95	262.63
711.28	262.61
711.61	262.21
711.95	261.98
712.28	261.61
712.61	261.17
712.95	261.13
713.28	260.93
713.61	260.48
713.95	260.00
714.28	259.74
714.61	259.41
714.95	259.03
715.28	258.62
715.61	258.27
715.95	258.02
716.28	257.60
716.61	257.43
716.95	256.92
717.28	256.63
717.61	256.36
717.94	256.14
718.28	255.43
718.61	255.10
718.94	254.67
719.27	254.30
719.61	254.16
719.94	253.72
720.27	253.17
720.60	252.86
720.94	252.63
721.27	252.36
721.60	252.16
721.93	251.91
722.27	251.90
722.60	251.65
722.93	251.33
723.26	251.21
723.59	250.87
723.93	250.80
724.26	250.54
724.59	250.25
724.92	249.99
725.25	249.91
725.59	249.70
725.92	249.56
726.25	249.38
726.58	249.21
726.91	248.96
727.24	248.85
727.57	248.67
727.91	248.35
728.24	248.16
728.57	247.93
728.90	247.82
729.23	247.42
729.56	247.47
729.89	247.35
730.22	247.02
730.55	246.89
730.89	246.72
731.22	246.60
731.55	246.40
731.88	246.22
732.21	245.97
732.54	245.73
732.87	245.52
733.20	245.43
733.53	245.15
733.86	245.00
734.19	244.74
734.52	244.60
734.85	244.81
735.18	244.56
735.51	244.52
735.84	244.45
736.17	244.45
736.50	244.02
736.83	244.36
737.16	244.30
737.49	244.16
737.82	243.96
738.15	243.84
738.48	243.78
738.81	243.62
739.14	243.45
739.47	243.28
739.80	243.14
740.13	243.05
740.46	242.90
740.79	242.70
741.12	242.65
741.45	242.45
741.78	242.08
742.11	242.04
742.44	241.76
742.77	241.67
743.10	241.44
743.43	241.31
743.75	240.65
744.08	241.13
744.41	240.95
744.74	240.79
745.07	240.59
745.40	240.54
745.73	240.66
746.06	240.55
746.39	240.50
746.71	240.37
747.04	240.12
747.37	239.99
747.70	239.98
748.03	239.81
748.36	239.78
748.68	239.56
749.01	239.32
749.34	239.25
749.67	239.08
750.00	239.09
750.33	239.34
750.65	239.29
750.98	238.60
751.31	238.55
751.64	238.44
751.97	238.56
752.29	238.44
752.62	238.17
752.95	238.07
753.28	237.94
753.60	237.81
753.93	237.82
754.26	237.70
754.59	237.45
754.91	237.30
755.24	237.12
755.57	237.20
755.90	237.12
756.22	237.03
756.55	236.87
756.88	236.58
757.20	236.16
757.53	235.97
757.86	235.87
758.19	235.77
758.51	235.71
758.84	235.38
759.17	235.21
759.49	235.08
759.82	235.23
760.15	235.17
760.47	235.09
760.80	234.90
761.13	234.94
761.45	234.88
761.78	234.90
762.11	234.87
762.43	234.66
762.76	234.62
763.08	234.57
763.41	234.57
763.74	234.55
764.06	234.48
764.39	234.47
764.71	234.41
765.04	234.32
765.37	234.15
765.69	234.15
766.02	234.13
766.34	234.00
766.67	233.71
767.00	233.76
767.32	233.88
767.65	234.10
767.97	233.98
768.30	233.94
768.62	233.82
768.95	233.63
769.27	233.53
769.60	233.46
769.92	233.33
770.25	233.13
770.57	232.98
770.90	232.90
771.22	232.73
771.55	232.65
771.87	232.57
772.20	232.50
772.52	232.81
772.85	233.26
773.17	233.26
773.50	233.15
773.82	233.02
774.15	232.82
774.47	232.44
774.80	232.36
775.12	232.30
775.45	232.21
775.77	232.20
776.09	232.10
776.42	232.10
776.74	232.13
777.07	232.10
777.39	232.10
777.72	232.05
778.04	232.07
778.36	231.96
778.69	231.96
779.01	231.95
779.33	231.51
779.66	230.97
779.98	230.82
780.31	230.76
780.63	230.89
780.95	230.83
781.28	230.81
781.60	230.68
781.92	230.67
782.25	230.61
782.57	230.56
782.89	230.53
783.22	230.45
783.54	230.37
783.86	230.32
784.19	230.22
784.51	230.29
784.83	230.23
785.16	230.13
785.48	230.03
785.80	230.02
786.12	229.93
786.45	229.83
786.77	229.87
787.09	229.80
787.42	229.61
787.74	229.64
788.06	229.62
788.38	229.51
788.71	229.44
789.03	229.41
789.35	229.54
789.67	229.49
789.99	229.51
790.32	229.41
790.64	229.49
790.96	229.84
791.28	229.67
791.61	229.53
791.93	229.58
792.25	229.60
792.57	229.94
792.89	229.93
793.21	229.91
793.54	229.81
793.86	229.78
794.18	229.82
794.50	229.66
794.82	229.66
795.14	229.81
795.47	229.87
795.79	229.89
796.11	229.66
796.43	229.63
796.75	229.58
797.07	229.61
797.39	229.50
797.71	229.23
798.04	229.21
798.36	229.27
798.68	229.25
799.00	229.23
799.32	228.94
799.64	228.98
799.96	229.01
800.28	229.09
800.60	229.08
800.92	229.02
801.24	229.00
801.56	229.08
801.89	229.05
802.21	228.96
802.53	228.85
802.85	228.97
803.17	229.22
803.49	229.13
803.81	229.04
804.13	228.90
804.45	228.82
804.77	228.89
805.09	228.83
805.41	228.77
805.73	228.75
806.05	228.62
806.37	228.55
806.69	228.49
807.01	228.45
807.33	228.45
807.65	228.30
807.97	228.59
808.28	228.51
808.60	228.39
808.92	228.45
809.24	228.80
809.56	228.74
809.88	228.55
810.20	228.60
810.52	228.75
810.84	228.78
811.16	228.75
811.48	228.68
811.80	228.95
812.12	228.93
812.43	228.88
812.75	228.96
813.07	228.93
813.39	228.95
813.71	228.89
814.03	228.88
814.35	228.92
814.67	228.70
814.98	228.65
815.30	228.69
815.62	228.52
815.94	228.15
816.26	228.32
816.58	228.19
816.89	228.17
817.21	227.97
817.53	228.00
817.85	227.95
