SpectraSuite Data File
++++++++++++++++++++++++++++++++++++
Date: Wed Sep 04 17:43:35 EDT 2013
User: lab3
Dark Spectrum Present: Yes
Reference Spectrum Present: No
Number of Sampled Component Spectra: 1
Spectrometers: USB2E7196
Integration Time (usec): 170000 (USB2E7196)
Spectra Averaged: 20 (USB2E7196)
Boxcar Smoothing: 10 (USB2E7196)
Correct for Electrical Dark: No (USB2E7196)
Strobe/Lamp Enabled: No (USB2E7196)
Correct for Detector Non-linearity: No (USB2E7196)
Correct for Stray Light: No (USB2E7196)
Number of Pixels in Processed Spectrum: 2048
>>>>>Begin Processed Spectral Data<<<<<
339.09	0.00
339.48	211.60
339.86	214.70
340.24	216.30
340.63	216.10
341.01	226.10
341.39	220.10
341.78	221.35
342.16	223.00
342.54	222.65
342.93	212.05
343.31	222.71
343.69	223.30
344.07	223.73
344.46	224.23
344.84	224.64
345.22	224.54
345.60	224.76
345.99	225.00
346.37	225.17
346.75	225.25
347.13	225.33
347.52	225.37
347.90	225.55
348.28	225.54
348.66	225.64
349.05	225.49
349.43	225.55
349.81	225.60
350.19	225.66
350.57	225.74
350.96	225.81
351.34	225.96
351.72	226.01
352.10	226.09
352.48	226.05
352.87	226.07
353.25	226.21
353.63	226.29
354.01	226.26
354.39	226.30
354.77	226.41
355.15	226.61
355.54	226.62
355.92	226.50
356.30	226.60
356.68	226.97
357.06	227.09
357.44	227.06
357.82	227.10
358.20	227.58
358.58	227.65
358.97	227.70
359.35	227.79
359.73	227.98
360.11	228.09
360.49	228.20
360.87	228.30
361.25	228.29
361.63	228.52
362.01	228.60
362.39	228.61
362.77	228.68
363.15	228.73
363.53	228.81
363.91	228.89
364.29	228.87
364.67	228.50
365.05	228.54
365.43	228.66
365.81	228.78
366.19	228.61
366.57	228.81
366.95	228.87
367.33	228.79
367.71	228.83
368.09	228.90
368.47	228.90
368.85	228.96
369.23	229.16
369.61	229.02
369.99	229.25
370.37	229.27
370.75	229.48
371.13	229.33
371.51	229.28
371.89	229.34
372.27	229.45
372.65	229.44
373.03	229.39
373.41	229.32
373.78	229.27
374.16	228.99
374.54	228.77
374.92	228.65
375.30	228.67
375.68	228.47
376.06	228.44
376.44	228.35
376.82	228.22
377.19	228.10
377.57	227.91
377.95	227.69
378.33	227.60
378.71	227.28
379.09	227.29
379.47	227.29
379.84	227.20
380.22	227.08
380.60	226.88
380.98	226.76
381.36	226.62
381.73	226.48
382.11	226.50
382.49	226.48
382.87	226.36
383.25	226.26
383.62	226.76
384.00	226.63
384.38	226.61
384.76	226.65
385.13	226.75
385.51	226.82
385.89	226.71
386.27	226.67
386.64	226.71
387.02	226.60
387.40	226.42
387.78	226.26
388.15	226.25
388.53	226.23
388.91	226.20
389.29	226.19
389.66	226.21
390.04	226.14
390.42	226.19
390.79	226.17
391.17	226.22
391.55	225.67
391.92	225.67
392.30	225.67
392.68	225.63
393.05	225.58
393.43	225.52
393.81	225.46
394.18	225.46
394.56	225.43
394.94	225.56
395.31	225.55
395.69	225.84
396.06	225.87
396.44	225.96
396.82	226.04
397.19	226.35
397.57	226.44
397.95	226.55
398.32	226.45
398.70	226.66
399.07	226.75
399.45	226.77
399.82	226.75
400.20	226.75
400.58	226.81
400.95	226.69
401.33	226.91
401.70	227.38
402.08	227.52
402.45	227.57
402.83	227.80
403.20	227.98
403.58	228.04
403.95	228.27
404.33	228.51
404.71	228.66
405.08	229.16
405.46	229.37
405.83	229.67
406.21	229.91
406.58	230.13
406.96	230.41
407.33	230.80
407.70	231.27
408.08	232.09
408.45	232.56
408.83	233.04
409.20	233.42
409.58	233.58
409.95	234.04
410.33	234.61
410.70	235.02
411.08	235.63
411.45	236.22
411.82	236.74
412.20	237.42
412.57	238.45
412.95	238.67
413.32	239.49
413.69	240.30
414.07	241.22
414.44	242.22
414.82	243.18
415.19	244.30
415.56	245.41
415.94	246.32
416.31	247.65
416.68	249.03
417.06	250.57
417.43	252.20
417.81	254.01
418.18	255.76
418.55	257.56
418.93	259.54
419.30	261.55
419.67	263.68
420.04	265.92
420.42	268.07
420.79	271.02
421.16	273.59
421.54	276.46
421.91	279.41
422.28	282.33
422.66	285.44
423.03	288.78
423.40	292.04
423.77	295.44
424.15	298.92
424.52	302.47
424.89	306.46
425.26	310.19
425.64	313.77
426.01	317.87
426.38	322.12
426.75	326.51
427.13	330.89
427.50	335.45
427.87	340.17
428.24	344.88
428.61	349.23
428.99	354.35
429.36	359.60
429.73	364.81
430.10	370.11
430.47	375.57
430.85	380.90
431.22	386.82
431.59	393.43
431.96	399.54
432.33	406.16
432.70	412.55
433.08	420.11
433.45	427.05
433.82	434.02
434.19	441.82
434.56	449.59
434.93	456.99
435.30	464.34
435.68	472.45
436.05	480.48
436.42	488.28
436.79	495.67
437.16	503.61
437.53	511.83
437.90	520.11
438.27	528.36
438.64	537.07
439.01	545.00
439.38	551.94
439.75	558.70
440.13	566.47
440.50	573.65
440.87	579.49
441.24	585.83
441.61	592.54
441.98	597.42
442.35	602.95
442.72	608.76
443.09	614.56
443.46	617.89
443.83	620.24
444.20	622.28
444.57	624.92
444.94	626.04
445.31	627.36
445.68	628.75
446.05	629.01
446.42	627.76
446.79	626.46
447.16	624.84
447.53	623.70
447.90	620.31
448.27	616.85
448.64	612.24
449.01	608.75
449.37	602.94
449.74	597.16
450.11	590.52
450.48	583.02
450.85	575.30
451.22	568.76
451.59	562.39
451.96	556.47
452.33	548.65
452.70	541.60
453.07	533.29
453.43	524.44
453.80	516.40
454.17	508.55
454.54	501.10
454.91	493.12
455.28	485.29
455.65	477.96
456.02	471.45
456.38	465.27
456.75	457.69
457.12	451.32
457.49	445.37
457.86	439.36
458.23	434.43
458.59	428.98
458.96	423.44
459.33	418.47
459.70	413.44
460.07	409.56
460.43	405.05
460.80	400.97
461.17	397.49
461.54	393.58
461.91	389.93
462.27	386.27
462.64	383.26
463.01	379.88
463.38	376.89
463.74	373.03
464.11	370.17
464.48	367.68
464.85	365.02
465.21	363.04
465.58	360.78
465.95	358.16
466.32	356.03
466.68	353.83
467.05	351.82
467.42	349.81
467.78	347.59
468.15	345.63
468.52	344.03
468.88	341.96
469.25	340.15
469.62	338.94
469.98	337.40
470.35	335.90
470.72	334.56
471.08	332.93
471.45	331.76
471.82	330.56
472.18	329.12
472.55	328.27
472.92	326.92
473.28	325.82
473.65	324.68
474.02	323.60
474.38	322.79
474.75	322.02
475.11	321.21
475.48	320.56
475.85	319.83
476.21	319.24
476.58	318.74
476.94	318.40
477.31	317.80
477.67	317.34
478.04	317.04
478.41	316.82
478.77	317.00
479.14	316.67
479.50	316.53
479.87	316.65
480.23	316.54
480.60	316.54
480.96	316.59
481.33	317.07
481.69	317.24
482.06	317.53
482.42	317.73
482.79	317.95
483.15	318.39
483.52	318.98
483.88	319.36
484.25	319.85
484.61	320.56
484.98	321.19
485.34	322.09
485.71	323.00
486.07	324.01
486.44	324.60
486.80	325.72
487.17	326.87
487.53	328.30
487.90	329.67
488.26	331.30
488.62	332.90
488.99	334.33
489.35	336.13
489.72	338.01
490.08	339.99
490.44	342.00
490.81	344.21
491.17	346.40
491.54	348.98
491.90	351.61
492.26	354.12
492.63	356.92
492.99	359.75
493.36	362.75
493.72	366.01
494.08	369.41
494.45	373.03
494.81	376.89
495.17	380.61
495.54	384.77
495.90	388.95
496.26	393.39
496.63	397.99
496.99	402.66
497.35	407.62
497.72	412.83
498.08	418.23
498.44	423.78
498.80	429.79
499.17	435.67
499.53	441.69
499.89	448.16
500.26	454.78
500.62	461.59
500.98	468.77
501.34	476.08
501.71	483.58
502.07	491.25
502.43	499.19
502.79	507.43
503.16	515.92
503.52	524.62
503.88	533.60
504.24	542.95
504.60	552.81
504.97	562.76
505.33	572.97
505.69	583.80
506.05	594.51
506.41	605.23
506.78	616.67
507.14	628.49
507.50	640.57
507.86	652.89
508.22	665.55
508.59	678.39
508.95	691.59
509.31	705.43
509.67	719.39
510.03	733.33
510.39	747.61
510.75	762.15
511.12	777.00
511.48	792.32
511.84	807.59
512.20	822.92
512.56	838.59
512.92	854.96
513.28	871.30
513.64	888.06
514.00	905.32
514.37	922.37
514.73	939.69
515.09	957.33
515.45	975.10
515.81	992.79
516.17	1010.90
516.53	1028.92
516.89	1046.80
517.25	1065.30
517.61	1084.52
517.97	1104.07
518.33	1123.47
518.69	1142.86
519.05	1162.56
519.41	1182.40
519.77	1202.76
520.13	1222.84
520.49	1242.50
520.85	1262.44
521.21	1282.64
521.57	1302.88
521.93	1322.84
522.29	1343.15
522.65	1362.69
523.01	1382.55
523.37	1402.29
523.73	1422.40
524.09	1441.85
524.45	1461.71
524.81	1481.55
525.17	1501.14
525.53	1520.43
525.89	1540.18
526.25	1559.90
526.61	1579.19
526.97	1599.35
527.33	1619.41
527.68	1640.29
528.04	1660.56
528.40	1680.40
528.76	1700.63
529.12	1719.79
529.48	1739.38
529.84	1758.26
530.20	1778.47
530.56	1798.31
530.91	1818.24
531.27	1837.14
531.63	1857.12
531.99	1876.31
532.35	1894.90
532.71	1914.02
533.07	1933.66
533.42	1952.11
533.78	1970.77
534.14	1989.25
534.50	2006.70
534.86	2024.83
535.21	2040.72
535.57	2057.90
535.93	2074.06
536.29	2090.15
536.65	2107.22
537.00	2123.92
537.36	2140.39
537.72	2155.34
538.08	2170.97
538.44	2186.26
538.79	2200.97
539.15	2215.67
539.51	2230.20
539.87	2244.48
540.22	2257.32
540.58	2270.54
540.94	2282.82
541.29	2294.43
541.65	2305.84
542.01	2316.99
542.37	2326.15
542.72	2336.15
543.08	2345.65
543.44	2356.64
543.79	2365.61
544.15	2374.21
544.51	2382.75
544.87	2391.29
545.22	2398.93
545.58	2405.37
545.94	2411.17
546.29	2417.30
546.65	2422.57
547.01	2427.29
547.36	2431.94
547.72	2436.30
548.07	2438.88
548.43	2443.05
548.79	2446.67
549.14	2449.52
549.50	2452.67
549.86	2455.39
550.21	2458.12
550.57	2460.41
550.92	2460.70
551.28	2461.14
551.64	2462.46
551.99	2463.55
552.35	2463.97
552.70	2465.22
553.06	2466.30
553.41	2467.03
553.77	2467.92
554.13	2468.65
554.48	2469.52
554.84	2469.75
555.19	2470.16
555.55	2471.11
555.90	2469.57
556.26	2468.00
556.61	2466.08
556.97	2463.38
557.32	2462.24
557.68	2460.46
558.03	2458.18
558.39	2456.17
558.74	2454.82
559.10	2451.19
559.45	2447.21
559.81	2442.78
560.16	2437.08
560.52	2431.68
560.87	2427.10
561.23	2421.41
561.58	2415.35
561.94	2408.10
562.29	2400.84
562.64	2393.60
563.00	2385.19
563.35	2378.42
563.71	2371.40
564.06	2365.07
564.42	2358.45
564.77	2351.58
565.12	2343.93
565.48	2336.24
565.83	2328.29
566.19	2320.18
566.54	2312.56
566.89	2304.30
567.25	2296.61
567.60	2289.75
567.96	2282.65
568.31	2274.39
568.66	2265.72
569.02	2256.98
569.37	2248.86
569.72	2241.19
570.08	2232.20
570.43	2223.17
570.78	2214.69
571.14	2205.53
571.49	2195.52
571.84	2186.20
572.20	2175.58
572.55	2165.93
572.90	2155.60
573.26	2145.55
573.61	2134.70
573.96	2123.58
574.31	2112.12
574.67	2100.57
575.02	2088.09
575.37	2075.66
575.72	2063.12
576.08	2051.58
576.43	2039.46
576.78	2027.37
577.13	2014.37
577.49	2002.39
577.84	1991.11
578.19	1979.46
578.54	1967.96
578.90	1956.55
579.25	1944.82
579.60	1932.98
579.95	1920.79
580.30	1908.21
580.66	1895.54
581.01	1882.95
581.36	1869.94
581.71	1858.08
582.06	1846.02
582.42	1834.54
582.77	1822.84
583.12	1811.78
583.47	1800.23
583.82	1789.16
584.17	1777.74
584.53	1766.67
584.88	1754.58
585.23	1742.12
585.58	1728.63
585.93	1715.96
586.28	1703.60
586.63	1690.48
586.98	1677.21
587.34	1664.46
587.69	1652.30
588.04	1640.91
588.39	1629.76
588.74	1618.49
589.09	1607.12
589.44	1595.14
589.79	1583.76
590.14	1572.45
590.49	1560.91
590.84	1549.55
591.19	1538.16
591.54	1526.85
591.89	1515.31
592.25	1505.60
592.60	1494.85
592.95	1484.60
593.30	1473.45
593.65	1462.36
594.00	1451.25
594.35	1442.20
594.70	1431.29
595.05	1420.85
595.40	1409.45
595.75	1398.16
596.10	1387.75
596.45	1377.07
596.80	1366.94
597.15	1356.32
597.50	1345.26
597.85	1334.65
598.19	1323.98
598.54	1313.05
598.89	1302.38
599.24	1292.66
599.59	1281.96
599.94	1272.14
600.29	1262.32
600.64	1252.75
600.99	1242.80
601.34	1234.16
601.69	1223.72
602.04	1214.56
602.39	1205.40
602.74	1197.00
603.08	1188.49
603.43	1179.80
603.78	1170.86
604.13	1162.21
604.48	1153.42
604.83	1144.47
605.18	1135.85
605.53	1127.01
605.87	1118.61
606.22	1110.73
606.57	1102.34
606.92	1093.65
607.27	1085.49
607.62	1077.43
607.96	1069.60
608.31	1062.44
608.66	1054.57
609.01	1046.69
609.36	1039.10
609.70	1031.17
610.05	1023.15
610.40	1015.25
610.75	1007.37
611.10	999.74
611.44	991.59
611.79	984.03
612.14	976.96
612.49	969.46
612.83	962.70
613.18	955.61
613.53	948.54
613.88	941.08
614.22	934.05
614.57	926.67
614.92	919.32
615.27	912.49
615.61	905.27
615.96	898.16
616.31	891.13
616.65	884.59
617.00	877.96
617.35	871.34
617.70	864.70
618.04	858.02
618.39	851.74
618.74	845.98
619.08	839.63
619.43	833.21
619.78	826.84
620.12	820.39
620.47	813.95
620.82	807.32
621.16	801.10
621.51	795.36
621.85	789.58
622.20	783.60
622.55	777.58
622.89	771.66
623.24	765.89
623.59	760.31
623.93	754.52
624.28	748.88
624.62	743.89
624.97	738.59
625.32	733.32
625.66	727.73
626.01	722.06
626.35	717.04
626.70	711.98
627.04	707.07
627.39	701.81
627.73	697.14
628.08	692.55
628.43	687.81
628.77	682.60
629.12	677.83
629.46	673.53
629.81	669.03
630.15	664.69
630.50	660.32
630.84	655.95
631.19	651.71
631.53	647.59
631.88	642.53
632.22	638.12
632.57	634.02
632.91	629.92
633.26	625.92
633.60	621.61
633.95	617.40
634.29	613.04
634.64	609.02
634.98	604.63
635.32	600.49
635.67	596.70
636.01	593.00
636.36	588.94
636.70	585.11
637.05	581.24
637.39	577.46
637.73	573.53
638.08	569.76
638.42	565.70
638.77	561.70
639.11	557.92
639.45	553.96
639.80	549.89
640.14	545.89
640.49	542.16
640.83	538.59
641.17	535.15
641.52	531.84
641.86	528.50
642.20	525.67
642.55	522.30
642.89	518.91
643.23	515.50
643.58	512.64
643.92	509.20
644.26	506.15
644.61	503.21
644.95	500.15
645.29	497.12
645.64	494.30
645.98	491.32
646.32	488.54
646.66	485.69
647.01	482.96
647.35	480.50
647.69	477.74
648.04	475.10
648.38	472.53
648.72	469.80
649.06	466.92
649.41	464.01
649.75	461.36
650.09	458.67
650.43	456.20
650.78	453.37
651.12	450.80
651.46	448.20
651.80	445.43
652.14	442.96
652.49	440.56
652.83	438.19
653.17	435.81
653.51	433.34
653.85	431.13
654.20	428.93
654.54	426.60
654.88	424.24
655.22	422.15
655.56	419.86
655.90	417.60
656.25	415.52
656.59	413.37
656.93	411.35
657.27	409.59
657.61	407.32
657.95	405.40
658.29	403.40
658.64	401.50
658.98	399.48
659.32	397.40
659.66	395.35
660.00	393.40
660.34	391.56
660.68	389.67
661.02	387.73
661.36	385.85
661.70	383.87
662.05	382.11
662.39	380.28
662.73	378.58
663.07	377.25
663.41	375.56
663.75	373.77
664.09	372.04
664.43	370.06
664.77	368.53
665.11	366.75
665.45	365.18
665.79	363.72
666.13	362.14
666.47	360.55
666.81	359.03
667.15	357.32
667.49	355.85
667.83	354.57
668.17	353.14
668.51	351.75
668.85	350.59
669.19	349.60
669.53	348.10
669.87	346.71
670.21	345.26
670.55	344.00
670.89	343.12
671.23	341.80
671.57	340.50
671.91	339.34
672.25	338.12
672.58	337.11
672.92	335.71
673.26	334.64
673.60	333.74
673.94	332.62
674.28	331.72
674.62	330.70
674.96	329.59
675.30	328.62
675.64	327.55
675.97	326.35
676.31	325.03
676.65	324.10
676.99	323.19
677.33	322.13
677.67	321.13
678.01	319.76
678.34	318.88
678.68	318.15
679.02	317.11
679.36	316.24
679.70	315.23
680.04	314.38
680.37	313.48
680.71	312.45
681.05	311.68
681.39	310.79
681.73	309.86
682.06	308.95
682.40	308.22
682.74	307.46
683.08	306.86
683.42	305.93
683.75	305.17
684.09	304.36
684.43	303.59
684.77	302.84
685.10	302.15
685.44	301.42
685.78	300.52
686.12	299.74
686.45	298.98
686.79	298.18
687.13	297.59
687.46	296.82
687.80	296.24
688.14	295.41
688.48	294.72
688.81	293.99
689.15	293.50
689.49	292.61
689.82	292.02
690.16	291.20
690.50	290.71
690.83	289.96
691.17	289.20
691.51	288.56
691.84	287.89
692.18	287.28
692.52	286.66
692.85	286.15
693.19	285.82
693.52	285.22
693.86	284.61
694.20	283.87
694.53	283.41
694.87	282.76
695.21	282.21
695.54	281.73
695.88	281.14
696.21	280.32
696.55	279.89
696.88	279.24
697.22	278.66
697.56	278.09
697.89	277.54
698.23	277.02
698.56	276.40
698.90	276.00
699.23	275.44
699.57	274.91
699.90	274.30
700.24	273.66
700.58	273.19
700.91	272.83
701.25	272.78
701.58	272.61
701.92	272.21
702.25	271.80
702.59	271.27
702.92	270.91
703.26	270.56
703.59	270.13
703.93	270.13
704.26	269.83
704.60	269.46
704.93	269.04
705.26	268.62
705.60	268.42
705.93	267.85
706.27	267.57
706.60	267.30
706.94	267.22
707.27	266.79
707.61	266.49
707.94	266.04
708.27	265.26
708.61	264.43
708.94	263.99
709.28	263.63
709.61	263.21
709.94	262.90
710.28	262.54
710.61	262.17
710.95	261.35
711.28	261.27
711.61	260.92
711.95	260.71
712.28	260.32
712.61	259.84
712.95	259.82
713.28	259.73
713.61	259.34
713.95	258.80
714.28	258.50
714.61	258.09
714.95	257.71
715.28	257.35
715.61	257.14
715.95	256.83
716.28	256.40
716.61	256.19
716.95	255.83
717.28	255.48
717.61	255.16
717.94	254.90
718.28	254.26
718.61	253.96
718.94	253.69
719.27	253.39
719.61	253.20
719.94	252.88
720.27	252.36
720.60	252.09
720.94	251.81
721.27	251.63
721.60	251.45
721.93	251.25
722.27	251.21
722.60	251.03
722.93	250.79
723.26	250.73
723.59	250.42
723.93	250.31
724.26	250.16
724.59	249.92
724.92	249.69
725.25	249.64
725.59	249.48
725.92	249.36
726.25	249.22
726.58	249.09
726.91	248.85
727.24	248.73
727.57	248.55
727.91	248.29
728.24	248.10
728.57	247.91
728.90	247.81
729.23	247.50
729.56	247.55
729.89	247.40
730.22	247.18
730.55	246.95
730.89	246.70
731.22	246.50
731.55	246.40
731.88	246.38
732.21	246.05
732.54	245.71
732.87	245.45
733.20	245.32
733.53	245.12
733.86	244.97
734.19	244.70
734.52	244.59
734.85	244.90
735.18	244.77
735.51	244.78
735.84	244.68
736.17	244.61
736.50	244.24
736.83	244.68
737.16	244.55
737.49	244.48
737.82	244.34
738.15	244.26
738.48	244.10
738.81	243.91
739.14	243.75
739.47	243.60
739.80	243.41
740.13	243.30
740.46	243.04
740.79	242.78
741.12	242.66
741.45	242.37
741.78	241.90
742.11	241.80
742.44	241.52
742.77	241.30
743.10	241.14
743.43	240.95
743.75	240.24
744.08	240.70
744.41	240.53
744.74	240.30
745.07	240.05
745.40	239.98
745.73	240.01
746.06	239.90
746.39	239.88
746.71	239.77
747.04	239.59
747.37	239.51
747.70	239.50
748.03	239.39
748.36	239.45
748.68	239.28
749.01	239.13
749.34	238.98
749.67	238.96
750.00	238.88
750.33	239.12
750.65	239.07
750.98	238.35
751.31	238.29
751.64	238.24
751.97	238.41
752.29	238.24
752.62	237.84
752.95	237.72
753.28	237.54
753.60	237.41
753.93	237.45
754.26	237.35
754.59	237.14
754.91	237.03
755.24	236.85
755.57	236.79
755.90	236.61
756.22	236.43
756.55	236.29
756.88	236.15
757.20	235.78
757.53	235.53
757.86	235.50
758.19	235.50
758.51	235.42
758.84	235.11
759.17	234.99
759.49	235.03
759.82	235.18
760.15	235.16
760.47	235.06
760.80	234.82
761.13	234.81
761.45	234.73
761.78	234.64
762.11	234.60
762.43	234.47
762.76	234.35
763.08	234.37
763.41	234.35
763.74	234.29
764.06	234.20
764.39	234.12
764.71	234.00
765.04	233.74
765.37	233.69
765.69	233.63
766.02	233.61
766.34	233.41
766.67	233.18
767.00	233.21
767.32	233.42
767.65	233.65
767.97	233.52
768.30	233.45
768.62	233.41
768.95	233.20
769.27	233.19
769.60	233.20
769.92	233.04
770.25	232.86
770.57	232.72
770.90	232.56
771.22	232.50
771.55	232.48
771.87	232.48
772.20	232.38
772.52	232.77
772.85	233.27
773.17	233.30
773.50	233.20
773.82	233.03
774.15	232.78
774.47	232.44
774.80	232.37
775.12	232.36
775.45	232.31
775.77	232.35
776.09	232.33
776.42	232.33
776.74	232.53
777.07	232.48
777.39	232.41
777.72	232.37
778.04	232.46
778.36	232.37
778.69	232.38
779.01	232.36
779.33	231.87
779.66	231.23
779.98	231.18
780.31	231.17
780.63	231.41
780.95	231.40
781.28	231.32
781.60	231.20
781.92	231.15
782.25	231.11
782.57	231.07
782.89	230.92
783.22	230.85
783.54	230.68
783.86	230.65
784.19	230.59
784.51	230.71
784.83	230.52
785.16	230.46
785.48	230.38
785.80	230.33
786.12	230.26
786.45	230.19
786.77	230.16
787.09	230.14
787.42	229.93
787.74	229.90
788.06	229.86
788.38	229.89
788.71	229.70
789.03	229.61
789.35	229.63
789.67	229.61
789.99	229.57
790.32	229.45
790.64	229.45
790.96	229.86
791.28	229.67
791.61	229.63
791.93	229.67
792.25	229.66
792.57	230.02
792.89	229.95
793.21	230.02
793.54	229.93
793.86	229.83
794.18	229.83
794.50	229.71
794.82	229.68
795.14	229.70
795.47	229.85
795.79	229.88
796.11	229.69
796.43	229.61
796.75	229.63
797.07	229.54
797.39	229.51
797.71	229.14
798.04	229.13
798.36	229.10
798.68	229.07
799.00	229.06
799.32	228.70
799.64	228.74
799.96	228.72
800.28	228.81
800.60	228.80
800.92	228.83
801.24	228.81
801.56	228.83
801.89	228.77
802.21	228.79
802.53	228.69
802.85	228.80
803.17	229.00
803.49	228.84
803.81	228.90
804.13	228.90
804.45	228.85
804.77	228.89
805.09	228.92
805.41	228.82
805.73	228.72
806.05	228.61
806.37	228.60
806.69	228.52
807.01	228.43
807.33	228.42
807.65	228.20
807.97	228.41
808.28	228.33
808.60	228.32
808.92	228.20
809.24	228.52
809.56	228.41
809.88	228.27
810.20	228.31
810.52	228.43
810.84	228.30
811.16	228.22
811.48	228.13
811.80	228.28
812.12	228.28
812.43	228.32
812.75	228.43
813.07	228.38
813.39	228.43
813.71	228.40
814.03	228.29
814.35	228.33
814.67	228.06
814.98	228.06
815.30	228.04
815.62	227.93
815.94	227.56
816.26	227.80
816.58	227.64
816.89	227.69
817.21	227.55
817.53	227.53
817.85	227.57
818.17	227.52
