SpectraSuite Data File
++++++++++++++++++++++++++++++++++++
Date: Wed Sep 04 17:45:58 EDT 2013
User: lab3
Dark Spectrum Present: Yes
Reference Spectrum Present: No
Number of Sampled Component Spectra: 1
Spectrometers: USB2E7196
Integration Time (usec): 170000 (USB2E7196)
Spectra Averaged: 20 (USB2E7196)
Boxcar Smoothing: 10 (USB2E7196)
Correct for Electrical Dark: No (USB2E7196)
Strobe/Lamp Enabled: No (USB2E7196)
Correct for Detector Non-linearity: No (USB2E7196)
Correct for Stray Light: No (USB2E7196)
Number of Pixels in Processed Spectrum: 2048
>>>>>Begin Processed Spectral Data<<<<<
339.09	0.00
339.48	212.90
339.86	213.50
340.24	216.20
340.63	217.35
341.01	226.40
341.39	219.55
341.78	222.95
342.16	222.95
342.54	223.30
342.93	212.02
343.31	222.62
343.69	223.21
344.07	223.73
344.46	224.21
344.84	224.62
345.22	224.55
345.60	224.79
345.99	224.89
346.37	224.98
346.75	225.04
347.13	225.05
347.52	225.13
347.90	225.40
348.28	225.37
348.66	225.53
349.05	225.37
349.43	225.55
349.81	225.66
350.19	225.76
350.57	225.79
350.96	225.92
351.34	226.09
351.72	226.15
352.10	226.18
352.48	226.15
352.87	226.11
353.25	226.15
353.63	226.19
354.01	226.26
354.39	226.43
354.77	226.55
355.15	226.75
355.54	226.77
355.92	226.66
356.30	226.76
356.68	227.08
357.06	227.13
357.44	227.08
357.82	227.06
358.20	227.51
358.58	227.51
358.97	227.55
359.35	227.70
359.73	227.83
360.11	228.00
360.49	228.13
360.87	228.25
361.25	228.39
361.63	228.60
362.01	228.72
362.39	228.61
362.77	228.68
363.15	228.72
363.53	228.68
363.91	228.71
364.29	228.75
364.67	228.37
365.05	228.43
365.43	228.47
365.81	228.60
366.19	228.54
366.57	228.81
366.95	228.87
367.33	228.78
367.71	228.77
368.09	228.86
368.47	228.86
368.85	228.82
369.23	228.94
369.61	228.84
369.99	228.90
370.37	228.97
370.75	229.15
371.13	229.01
371.51	229.07
371.89	229.07
372.27	229.09
372.65	229.04
373.03	228.98
373.41	228.87
373.78	228.80
374.16	228.47
374.54	228.26
374.92	228.19
375.30	228.17
375.68	228.05
376.06	228.00
376.44	227.89
376.82	227.87
377.19	227.74
377.57	227.66
377.95	227.47
378.33	227.36
378.71	227.05
379.09	227.09
379.47	227.07
379.84	226.94
380.22	226.81
380.60	226.68
380.98	226.62
381.36	226.58
381.73	226.37
382.11	226.40
382.49	226.36
382.87	226.15
383.25	226.09
383.62	226.56
384.00	226.34
384.38	226.25
384.76	226.28
385.13	226.36
385.51	226.29
385.89	226.22
386.27	226.15
386.64	226.20
387.02	226.00
387.40	225.87
387.78	225.89
388.15	225.87
388.53	225.79
388.91	225.67
389.29	225.57
389.66	225.67
390.04	225.54
390.42	225.57
390.79	225.66
391.17	225.60
391.55	225.00
391.92	224.96
392.30	225.02
392.68	224.92
393.05	224.88
393.43	224.89
393.81	224.89
394.18	224.91
394.56	224.87
394.94	225.07
395.31	225.04
395.69	225.18
396.06	225.26
396.44	225.38
396.82	225.49
397.19	225.83
397.57	225.78
397.95	226.00
398.32	225.95
398.70	226.09
399.07	226.26
399.45	226.39
399.82	226.52
400.20	226.54
400.58	226.62
400.95	226.51
401.33	226.70
401.70	227.14
402.08	227.27
402.45	227.42
402.83	227.63
403.20	227.84
403.58	228.01
403.95	228.24
404.33	228.50
404.71	228.74
405.08	229.23
405.46	229.47
405.83	229.62
406.21	229.86
406.58	230.12
406.96	230.35
407.33	230.70
407.70	231.08
408.08	231.87
408.45	232.33
408.83	232.83
409.20	233.20
409.58	233.33
409.95	233.91
410.33	234.51
410.70	234.91
411.08	235.55
411.45	236.11
411.82	236.70
412.20	237.43
412.57	238.39
412.95	238.67
413.32	239.58
413.69	240.40
414.07	241.34
414.44	242.26
414.82	243.30
415.19	244.46
415.56	245.59
415.94	246.59
416.31	248.07
416.68	249.43
417.06	250.99
417.43	252.62
417.81	254.35
418.18	256.02
418.55	257.92
418.93	259.91
419.30	262.01
419.67	264.12
420.04	266.29
420.42	268.47
420.79	271.50
421.16	274.25
421.54	277.34
421.91	280.20
422.28	283.26
422.66	286.65
423.03	290.00
423.40	293.32
423.77	296.78
424.15	300.21
424.52	303.98
424.89	308.14
425.26	312.04
425.64	315.77
426.01	319.86
426.38	324.14
426.75	328.61
427.13	333.08
427.50	337.78
427.87	342.72
428.24	347.54
428.61	351.95
428.99	357.16
429.36	362.44
429.73	367.93
430.10	373.40
430.47	378.86
430.85	384.40
431.22	390.44
431.59	397.10
431.96	403.23
432.33	409.93
432.70	416.46
433.08	424.16
433.45	431.36
433.82	438.55
434.19	446.66
434.56	454.52
434.93	461.94
435.30	469.48
435.68	477.74
436.05	486.03
436.42	494.08
436.79	501.46
437.16	509.49
437.53	518.07
437.90	526.56
438.27	534.92
438.64	543.51
439.01	551.67
439.38	558.79
439.75	565.80
440.13	573.70
440.50	581.00
440.87	586.92
441.24	593.19
441.61	600.08
441.98	604.95
442.35	610.49
442.72	616.24
443.09	621.96
443.46	625.35
443.83	627.74
444.20	629.70
444.57	632.51
444.94	633.60
445.31	634.61
445.68	636.06
446.05	636.14
446.42	634.95
446.79	633.61
447.16	631.82
447.53	630.62
447.90	627.05
448.27	623.49
448.64	618.73
449.01	615.10
449.37	609.10
449.74	603.18
450.11	596.71
450.48	589.28
450.85	581.51
451.22	574.90
451.59	568.32
451.96	562.13
452.33	554.12
452.70	546.98
453.07	538.51
453.43	529.46
453.80	521.25
454.17	513.33
454.54	505.78
454.91	497.89
455.28	490.02
455.65	482.70
456.02	476.06
456.38	469.92
456.75	462.40
457.12	456.05
457.49	449.99
457.86	443.65
458.23	438.66
458.59	433.13
458.96	427.40
459.33	422.43
459.70	417.53
460.07	413.57
460.43	409.07
460.80	405.02
461.17	401.37
461.54	397.58
461.91	393.94
462.27	390.07
462.64	386.95
463.01	383.48
463.38	380.35
463.74	376.43
464.11	373.45
464.48	370.80
464.85	367.94
465.21	365.80
465.58	363.59
465.95	360.72
466.32	358.54
466.68	356.38
467.05	354.24
467.42	352.08
467.78	349.80
468.15	347.70
468.52	346.16
468.88	343.99
469.25	342.06
469.62	340.72
469.98	339.24
470.35	337.70
470.72	336.39
471.08	334.70
471.45	333.46
471.82	332.26
472.18	330.91
472.55	329.94
472.92	328.64
473.28	327.60
473.65	326.65
474.02	325.59
474.38	324.65
474.75	323.92
475.11	323.05
475.48	322.44
475.85	321.89
476.21	321.15
476.58	320.69
476.94	320.37
477.31	319.75
477.67	319.25
478.04	318.95
478.41	318.64
478.77	318.87
479.14	318.53
479.50	318.44
479.87	318.39
480.23	318.41
480.60	318.35
480.96	318.22
481.33	318.48
481.69	318.69
482.06	318.95
482.42	319.12
482.79	319.49
483.15	319.92
483.52	320.48
483.88	320.95
484.25	321.47
484.61	322.09
484.98	322.86
485.34	323.86
485.71	324.72
486.07	325.62
486.44	326.16
486.80	327.24
487.17	328.30
487.53	329.74
487.90	331.19
488.26	332.91
488.62	334.70
488.99	336.30
489.35	338.04
489.72	339.98
490.08	341.92
490.44	343.96
490.81	346.20
491.17	348.35
491.54	350.93
491.90	353.53
492.26	356.13
492.63	358.90
492.99	361.72
493.36	364.81
493.72	368.20
494.08	371.66
494.45	375.37
494.81	379.26
495.17	383.14
495.54	387.18
495.90	391.37
496.26	395.73
496.63	400.44
496.99	405.13
497.35	410.12
497.72	415.35
498.08	420.70
498.44	426.15
498.80	432.02
499.17	437.87
499.53	443.95
499.89	450.62
500.26	457.43
500.62	464.30
500.98	471.52
501.34	478.79
501.71	486.44
502.07	494.16
502.43	502.10
502.79	510.37
503.16	519.13
503.52	528.05
503.88	537.25
504.24	546.74
504.60	556.62
504.97	566.80
505.33	577.14
505.69	588.21
506.05	599.29
506.41	610.39
506.78	621.93
507.14	633.82
507.50	645.90
507.86	658.32
508.22	671.13
508.59	684.06
508.95	697.47
509.31	711.52
509.67	725.57
510.03	739.66
510.39	754.30
510.75	769.01
511.12	783.93
511.48	799.27
511.84	814.81
512.20	830.55
512.56	846.63
512.92	863.28
513.28	879.75
513.64	896.66
514.00	913.90
514.37	931.56
514.73	949.43
515.09	967.40
515.45	985.43
515.81	1003.46
516.17	1021.86
516.53	1040.40
516.89	1058.64
517.25	1077.77
517.61	1097.65
517.97	1117.61
518.33	1137.26
518.69	1157.20
519.05	1177.58
519.41	1197.84
519.77	1218.61
520.13	1239.04
520.49	1259.03
520.85	1280.57
521.21	1301.30
521.57	1322.02
521.93	1342.17
522.29	1363.08
522.65	1383.45
523.01	1404.31
523.37	1424.83
523.73	1445.44
524.09	1465.89
524.45	1486.41
524.81	1506.42
525.17	1526.74
525.53	1546.82
525.89	1567.17
526.25	1587.55
526.61	1607.33
526.97	1627.97
527.33	1648.63
527.68	1669.91
528.04	1691.01
528.40	1710.55
528.76	1731.30
529.12	1751.44
529.48	1772.06
529.84	1791.48
530.20	1812.15
530.56	1832.15
530.91	1852.35
531.27	1872.36
531.63	1891.98
531.99	1912.01
532.35	1931.79
532.71	1951.27
533.07	1971.28
533.42	1990.61
533.78	2009.97
534.14	2029.09
534.50	2047.51
534.86	2066.06
535.21	2083.11
535.57	2100.56
535.93	2117.96
536.29	2134.88
536.65	2152.64
537.00	2169.73
537.36	2187.06
537.72	2202.95
538.08	2219.52
538.44	2235.51
538.79	2251.05
539.15	2266.91
539.51	2282.02
539.87	2296.59
540.22	2310.18
540.58	2323.85
540.94	2336.57
541.29	2348.76
541.65	2361.04
542.01	2373.06
542.37	2382.91
542.72	2393.35
543.08	2403.55
543.44	2414.42
543.79	2423.67
544.15	2433.15
544.51	2442.51
544.87	2451.41
545.22	2459.41
545.58	2466.42
545.94	2473.37
546.29	2479.66
546.65	2485.42
547.01	2490.81
547.36	2496.14
547.72	2501.05
548.07	2504.66
548.43	2509.30
548.79	2513.55
549.14	2517.32
549.50	2520.48
549.86	2524.33
550.21	2527.56
550.57	2530.87
550.92	2531.75
551.28	2533.00
551.64	2534.63
551.99	2535.95
552.35	2536.88
552.70	2538.45
553.06	2539.79
553.41	2540.51
553.77	2541.92
554.13	2543.33
554.48	2544.41
554.84	2545.40
555.19	2546.22
555.55	2547.48
555.90	2546.85
556.26	2545.65
556.61	2543.57
556.97	2541.56
557.32	2540.51
557.68	2538.96
558.03	2537.02
558.39	2535.42
558.74	2534.34
559.10	2530.75
559.45	2526.53
559.81	2522.22
560.16	2516.85
560.52	2512.14
560.87	2507.74
561.23	2502.02
561.58	2495.82
561.94	2488.61
562.29	2480.97
562.64	2474.19
563.00	2465.98
563.35	2459.22
563.71	2452.18
564.06	2445.73
564.42	2438.84
564.77	2431.99
565.12	2424.39
565.48	2416.81
565.83	2408.76
566.19	2400.52
566.54	2392.69
566.89	2385.19
567.25	2377.60
567.60	2370.47
567.96	2362.74
568.31	2354.53
568.66	2345.96
569.02	2337.03
569.37	2328.91
569.72	2321.28
570.08	2311.70
570.43	2302.07
570.78	2293.03
571.14	2284.10
571.49	2274.09
571.84	2264.70
572.20	2253.76
572.55	2243.87
572.90	2232.99
573.26	2223.28
573.61	2212.45
573.96	2201.52
574.31	2189.38
574.67	2177.42
575.02	2165.02
575.37	2152.20
575.72	2139.19
576.08	2127.60
576.43	2115.52
576.78	2102.77
577.13	2089.35
577.49	2076.97
577.84	2065.40
578.19	2053.59
578.54	2040.98
578.90	2029.53
579.25	2017.59
579.60	2005.25
579.95	1992.70
580.30	1979.71
580.66	1966.25
581.01	1953.28
581.36	1939.85
581.71	1927.80
582.06	1915.08
582.42	1903.02
582.77	1890.92
583.12	1879.20
583.47	1867.10
583.82	1855.25
584.17	1843.78
584.53	1832.55
584.88	1820.20
585.23	1807.23
585.58	1793.43
585.93	1780.67
586.28	1767.29
586.63	1753.50
586.98	1740.14
587.34	1727.10
587.69	1714.47
588.04	1702.30
588.39	1690.23
588.74	1678.39
589.09	1666.71
589.44	1654.55
589.79	1642.58
590.14	1631.00
590.49	1619.40
590.84	1607.53
591.19	1595.85
591.54	1583.74
591.89	1571.77
592.25	1561.91
592.60	1550.96
592.95	1539.84
593.30	1528.38
593.65	1516.98
594.00	1505.50
594.35	1495.74
594.70	1484.49
595.05	1473.44
595.40	1461.75
595.75	1450.33
596.10	1439.38
596.45	1428.16
596.80	1417.69
597.15	1406.91
597.50	1395.54
597.85	1384.48
598.19	1373.22
598.54	1362.00
598.89	1351.29
599.24	1341.13
599.59	1329.93
599.94	1319.66
600.29	1309.73
600.64	1299.64
600.99	1289.36
601.34	1280.13
601.69	1269.49
602.04	1259.99
602.39	1250.80
602.74	1242.26
603.08	1233.28
603.43	1224.28
603.78	1215.09
604.13	1205.82
604.48	1196.39
604.83	1187.16
605.18	1177.65
605.53	1168.57
605.87	1159.96
606.22	1151.58
606.57	1142.55
606.92	1133.18
607.27	1124.43
607.62	1116.03
607.96	1108.05
608.31	1100.53
608.66	1092.35
609.01	1083.95
609.36	1075.68
609.70	1067.34
610.05	1058.79
610.40	1050.70
610.75	1042.15
611.10	1034.08
611.44	1025.80
611.79	1017.83
612.14	1010.21
612.49	1002.76
612.83	995.46
613.18	987.84
613.53	980.53
613.88	972.98
614.22	965.80
614.57	958.20
614.92	950.88
615.27	943.65
615.61	936.00
615.96	928.64
616.31	921.48
616.65	914.66
617.00	907.67
617.35	900.70
617.70	893.79
618.04	886.99
618.39	880.05
618.74	873.83
619.08	867.23
619.43	860.65
619.78	853.79
620.12	846.93
620.47	840.16
620.82	833.12
621.16	826.48
621.51	820.27
621.85	814.07
622.20	807.43
622.55	800.84
622.89	794.68
623.24	788.61
623.59	782.53
623.93	776.47
624.28	770.44
624.62	764.98
624.97	759.36
625.32	753.96
625.66	748.24
626.01	742.24
626.35	737.06
626.70	731.48
627.04	726.56
627.39	721.23
627.73	716.15
628.08	711.19
628.43	706.05
628.77	700.69
629.12	695.71
629.46	691.01
629.81	686.45
630.15	681.87
630.50	677.22
630.84	672.63
631.19	667.87
631.53	663.48
631.88	658.46
632.22	653.70
632.57	649.43
632.91	645.28
633.26	641.18
633.60	636.55
633.95	632.22
634.29	627.72
634.64	623.51
634.98	619.07
635.32	615.01
635.67	611.21
636.01	607.34
636.36	603.25
636.70	599.57
637.05	595.58
637.39	591.54
637.73	587.57
638.08	583.82
638.42	579.74
638.77	575.63
639.11	571.54
639.45	567.29
639.80	562.94
640.14	558.93
640.49	555.07
640.83	551.41
641.17	547.88
641.52	544.28
641.86	540.75
642.20	537.69
642.55	534.07
642.89	530.45
643.23	527.06
643.58	524.07
643.92	520.34
644.26	517.12
644.61	514.11
644.95	510.72
645.29	507.25
645.64	504.33
645.98	501.36
646.32	498.51
646.66	495.83
647.01	493.14
647.35	490.49
647.69	487.71
648.04	485.16
648.38	482.46
648.72	479.66
649.06	476.81
649.41	473.76
649.75	470.87
650.09	468.26
650.43	465.49
650.78	462.50
651.12	459.89
651.46	457.06
651.80	454.25
652.14	451.76
652.49	449.36
652.83	446.98
653.17	444.40
653.51	441.78
653.85	439.43
654.20	436.98
654.54	434.36
654.88	431.83
655.22	429.56
655.56	427.18
655.90	424.89
656.25	422.78
656.59	420.70
656.93	418.66
657.27	416.57
657.61	414.33
657.95	412.10
658.29	409.93
658.64	407.90
658.98	405.89
659.32	403.70
659.66	401.58
660.00	399.50
660.34	397.69
660.68	395.76
661.02	393.77
661.36	391.86
661.70	389.95
662.05	388.07
662.39	386.15
662.73	384.48
663.07	382.99
663.41	381.15
663.75	379.30
664.09	377.43
664.43	375.52
664.77	373.84
665.11	372.12
665.45	370.57
665.79	368.98
666.13	367.32
666.47	365.71
666.81	364.14
667.15	362.35
667.49	360.80
667.83	359.46
668.17	357.94
668.51	356.49
668.85	355.24
669.19	354.16
669.53	352.66
669.87	351.08
670.21	349.51
670.55	348.19
670.89	347.04
671.23	345.70
671.57	344.29
671.91	343.01
672.25	341.90
672.58	340.72
672.92	339.35
673.26	338.06
673.60	336.92
673.94	335.80
674.28	334.88
674.62	333.68
674.96	332.46
675.30	331.30
675.64	330.06
675.97	328.80
676.31	327.49
676.65	326.25
676.99	325.35
677.33	324.24
677.67	323.14
678.01	321.95
678.34	321.02
678.68	320.32
679.02	319.30
679.36	318.26
679.70	317.19
680.04	316.33
680.37	315.37
680.71	314.47
681.05	313.58
681.39	312.58
681.73	311.69
682.06	310.80
682.40	309.99
682.74	309.27
683.08	308.60
683.42	307.79
683.75	307.08
684.09	306.15
684.43	305.42
684.77	304.57
685.10	303.76
685.44	302.98
685.78	302.09
686.12	301.36
686.45	300.67
686.79	299.82
687.13	299.24
687.46	298.56
687.80	297.92
688.14	297.10
688.48	296.39
688.81	295.70
689.15	295.08
689.49	294.32
689.82	293.64
690.16	292.76
690.50	292.04
690.83	291.35
691.17	290.64
691.51	290.00
691.84	289.51
692.18	288.84
692.52	288.19
692.85	287.49
693.19	287.05
693.52	286.33
693.86	285.77
694.20	284.96
694.53	284.37
694.87	283.71
695.21	283.04
695.54	282.44
695.88	281.78
696.21	281.00
696.55	280.40
696.88	279.81
697.22	279.29
697.56	278.85
697.89	278.23
698.23	277.65
698.56	277.02
698.90	276.53
699.23	275.97
699.57	275.47
699.90	274.95
700.24	274.30
700.58	273.87
700.91	273.51
701.25	273.39
701.58	273.25
701.92	272.83
702.25	272.47
702.59	272.04
702.92	271.70
703.26	271.33
703.59	270.95
703.93	270.99
704.26	270.63
704.60	270.18
704.93	269.71
705.26	269.31
705.60	268.98
705.93	268.39
706.27	268.15
706.60	267.82
706.94	267.71
707.27	267.25
707.61	266.85
707.94	266.38
708.27	265.72
708.61	264.96
708.94	264.59
709.28	264.23
709.61	263.76
709.94	263.41
710.28	263.04
710.61	262.68
710.95	261.87
711.28	261.75
711.61	261.41
711.95	261.20
712.28	260.81
712.61	260.50
712.95	260.46
713.28	260.35
713.61	259.92
713.95	259.36
714.28	259.10
714.61	258.71
714.95	258.36
715.28	257.93
715.61	257.66
715.95	257.31
716.28	256.95
716.61	256.74
716.95	256.28
717.28	255.96
717.61	255.61
717.94	255.28
718.28	254.73
718.61	254.39
718.94	254.05
719.27	253.86
719.61	253.65
719.94	253.22
720.27	252.68
720.60	252.44
720.94	252.24
721.27	252.08
721.60	252.01
721.93	251.79
722.27	251.78
722.60	251.61
722.93	251.41
723.26	251.22
723.59	250.95
723.93	250.90
724.26	250.75
724.59	250.53
724.92	250.35
725.25	250.23
725.59	249.99
725.92	249.89
726.25	249.63
726.58	249.36
726.91	249.22
727.24	249.11
727.57	248.93
727.91	248.69
728.24	248.48
728.57	248.21
728.90	248.11
729.23	247.74
729.56	247.79
729.89	247.65
730.22	247.48
730.55	247.35
730.89	247.15
731.22	246.90
731.55	246.68
731.88	246.51
732.21	246.28
732.54	246.15
732.87	245.88
733.20	245.75
733.53	245.53
733.86	245.40
734.19	245.13
734.52	244.97
734.85	245.10
735.18	244.87
735.51	244.88
735.84	244.70
736.17	244.74
736.50	244.27
736.83	244.60
737.16	244.46
737.49	244.29
737.82	244.12
738.15	244.08
738.48	243.97
738.81	243.82
739.14	243.58
739.47	243.36
739.80	243.27
740.13	243.14
740.46	243.00
740.79	242.72
741.12	242.57
741.45	242.36
741.78	241.93
742.11	241.95
742.44	241.71
742.77	241.63
743.10	241.34
743.43	241.25
743.75	240.60
744.08	241.08
744.41	240.84
744.74	240.64
745.07	240.33
745.40	240.36
745.73	240.44
746.06	240.34
746.39	240.26
746.71	240.02
747.04	239.80
747.37	239.63
747.70	239.55
748.03	239.46
748.36	239.43
748.68	239.35
749.01	239.04
749.34	238.88
749.67	238.67
750.00	238.65
750.33	238.84
750.65	238.78
750.98	238.01
751.31	237.99
751.64	237.97
751.97	238.20
752.29	237.99
752.62	237.59
752.95	237.41
753.28	237.25
753.60	237.18
753.93	237.26
754.26	237.25
754.59	237.05
754.91	236.87
755.24	236.70
755.57	236.62
755.90	236.54
756.22	236.38
756.55	236.26
756.88	236.07
757.20	235.67
757.53	235.45
757.86	235.35
758.19	235.27
758.51	235.13
758.84	234.86
759.17	234.75
759.49	234.77
759.82	235.07
760.15	235.09
760.47	235.00
760.80	234.73
761.13	234.70
761.45	234.65
761.78	234.63
762.11	234.61
762.43	234.42
762.76	234.35
763.08	234.29
763.41	234.30
763.74	234.20
764.06	234.13
764.39	234.13
764.71	234.08
765.04	233.99
765.37	233.88
765.69	233.74
766.02	233.69
766.34	233.55
766.67	233.19
767.00	233.17
767.32	233.43
767.65	233.71
767.97	233.60
768.30	233.58
768.62	233.50
768.95	233.35
769.27	233.31
769.60	233.25
769.92	233.13
770.25	232.98
770.57	232.87
770.90	232.82
771.22	232.64
771.55	232.62
771.87	232.57
772.20	232.52
772.52	232.90
772.85	233.37
773.17	233.36
773.50	233.30
773.82	233.15
774.15	232.88
774.47	232.49
774.80	232.34
775.12	232.22
775.45	232.18
775.77	232.16
776.09	232.16
776.42	232.12
776.74	232.27
777.07	232.24
777.39	232.22
777.72	232.18
778.04	232.14
778.36	232.04
778.69	231.97
779.01	231.94
779.33	231.49
779.66	230.90
779.98	230.86
780.31	230.79
780.63	230.95
780.95	230.91
781.28	230.91
781.60	230.83
781.92	230.82
782.25	230.72
782.57	230.65
782.89	230.55
783.22	230.53
783.54	230.32
783.86	230.29
784.19	230.19
784.51	230.22
784.83	230.16
785.16	230.14
785.48	230.12
785.80	230.03
786.12	230.02
786.45	229.95
786.77	229.87
787.09	229.86
787.42	229.70
787.74	229.71
788.06	229.67
788.38	229.70
788.71	229.66
789.03	229.65
789.35	229.75
789.67	229.68
789.99	229.64
790.32	229.56
790.64	229.57
790.96	230.04
791.28	229.81
791.61	229.87
791.93	229.86
792.25	229.81
792.57	230.14
792.89	230.04
793.21	230.07
793.54	230.05
793.86	229.96
794.18	229.96
794.50	229.82
794.82	229.83
795.14	229.85
795.47	229.89
795.79	229.80
796.11	229.64
796.43	229.57
796.75	229.58
797.07	229.64
797.39	229.60
797.71	229.12
798.04	229.17
798.36	229.05
798.68	228.99
799.00	228.98
799.32	228.72
799.64	228.72
799.96	228.69
800.28	228.72
800.60	228.68
800.92	228.67
801.24	228.64
801.56	228.65
801.89	228.59
802.21	228.58
802.53	228.60
802.85	228.76
803.17	229.01
803.49	228.90
803.81	228.86
804.13	228.83
804.45	228.79
804.77	228.77
805.09	228.80
805.41	228.74
805.73	228.70
806.05	228.55
806.37	228.53
806.69	228.48
807.01	228.41
807.33	228.46
807.65	228.25
807.97	228.45
808.28	228.38
808.60	228.39
808.92	228.34
809.24	228.63
809.56	228.44
809.88	228.22
810.20	228.29
810.52	228.32
810.84	228.27
811.16	228.20
811.48	228.22
811.80	228.40
812.12	228.34
812.43	228.43
812.75	228.45
813.07	228.44
813.39	228.47
813.71	228.45
814.03	228.38
814.35	228.42
814.67	228.18
814.98	228.13
815.30	228.10
815.62	228.00
815.94	227.69
816.26	227.97
816.58	227.90
816.89	227.80
817.21	227.75
817.53	227.78
817.85	227.86
