SpectraSuite Data File
++++++++++++++++++++++++++++++++++++
Date: Wed Sep 04 17:47:42 EDT 2013
User: lab3
Dark Spectrum Present: Yes
Reference Spectrum Present: No
Number of Sampled Component Spectra: 1
Spectrometers: USB2E7196
Integration Time (usec): 170000 (USB2E7196)
Spectra Averaged: 20 (USB2E7196)
Boxcar Smoothing: 10 (USB2E7196)
Correct for Electrical Dark: No (USB2E7196)
Strobe/Lamp Enabled: No (USB2E7196)
Correct for Detector Non-linearity: No (USB2E7196)
Correct for Stray Light: No (USB2E7196)
Number of Pixels in Processed Spectrum: 2048
>>>>>Begin Processed Spectral Data<<<<<
339.09	0.00
339.48	213.05
339.86	213.05
340.24	216.50
340.63	217.50
341.01	225.45
341.39	220.30
341.78	222.45
342.16	222.85
342.54	222.70
342.93	212.17
343.31	222.88
343.69	223.40
344.07	223.98
344.46	224.43
344.84	224.85
345.22	224.90
345.60	225.17
345.99	225.32
346.37	225.52
346.75	225.64
347.13	225.63
347.52	225.75
347.90	225.94
348.28	225.98
348.66	226.17
349.05	225.98
349.43	226.09
349.81	226.14
350.19	226.10
350.57	226.21
350.96	226.33
351.34	226.41
351.72	226.52
352.10	226.58
352.48	226.65
352.87	226.68
353.25	226.68
353.63	226.70
354.01	226.71
354.39	226.73
354.77	226.80
355.15	226.98
355.54	226.91
355.92	226.83
356.30	226.84
356.68	227.25
357.06	227.35
357.44	227.32
357.82	227.39
358.20	227.90
358.58	228.04
358.97	228.09
359.35	228.23
359.73	228.39
360.11	228.43
360.49	228.47
360.87	228.49
361.25	228.58
361.63	228.84
362.01	228.91
362.39	228.92
362.77	229.00
363.15	229.02
363.53	229.10
363.91	229.10
364.29	229.14
364.67	228.60
365.05	228.62
365.43	228.78
365.81	228.82
366.19	228.63
366.57	228.77
366.95	228.75
367.33	228.66
367.71	228.65
368.09	228.75
368.47	228.77
368.85	228.80
369.23	228.86
369.61	228.65
369.99	228.84
370.37	228.85
370.75	229.07
371.13	228.98
371.51	228.86
371.89	228.94
372.27	228.92
372.65	228.92
373.03	228.92
373.41	228.83
373.78	228.73
374.16	228.52
374.54	228.33
374.92	228.22
375.30	228.12
375.68	228.02
376.06	228.00
376.44	227.89
376.82	227.86
377.19	227.78
377.57	227.69
377.95	227.52
378.33	227.51
378.71	227.23
379.09	227.26
379.47	227.32
379.84	227.20
380.22	227.16
380.60	227.10
380.98	227.05
381.36	226.93
381.73	226.84
382.11	226.81
382.49	226.79
382.87	226.75
383.25	226.80
383.62	227.27
384.00	227.13
384.38	227.13
384.76	227.16
385.13	227.39
385.51	227.44
385.89	227.31
386.27	227.28
386.64	227.28
387.02	227.17
387.40	227.06
387.78	227.08
388.15	227.08
388.53	227.05
388.91	227.05
389.29	227.11
389.66	227.20
390.04	227.17
390.42	227.21
390.79	227.25
391.17	227.21
391.55	226.65
391.92	226.65
392.30	226.69
392.68	226.61
393.05	226.47
393.43	226.48
393.81	226.59
394.18	226.46
394.56	226.50
394.94	226.61
395.31	226.62
395.69	226.84
396.06	226.95
396.44	227.01
396.82	227.08
397.19	227.31
397.57	227.30
397.95	227.47
398.32	227.43
398.70	227.50
399.07	227.66
399.45	227.74
399.82	227.79
400.20	227.80
400.58	227.95
400.95	227.88
401.33	228.04
401.70	228.44
402.08	228.62
402.45	228.75
402.83	229.01
403.20	229.21
403.58	229.19
403.95	229.41
404.33	229.66
404.71	229.78
405.08	230.24
405.46	230.46
405.83	230.70
406.21	230.91
406.58	231.20
406.96	231.46
407.33	231.79
407.70	232.25
408.08	232.95
408.45	233.39
408.83	233.93
409.20	234.25
409.58	234.40
409.95	234.92
410.33	235.31
410.70	235.64
411.08	236.25
411.45	236.86
411.82	237.33
412.20	238.04
412.57	239.05
412.95	239.39
413.32	240.26
413.69	240.96
414.07	241.83
414.44	242.73
414.82	243.71
415.19	244.96
415.56	246.01
415.94	246.97
416.31	248.31
416.68	249.60
417.06	251.22
417.43	252.79
417.81	254.53
418.18	256.34
418.55	258.27
418.93	260.19
419.30	262.30
419.67	264.50
420.04	266.73
420.42	268.95
420.79	271.93
421.16	274.66
421.54	277.77
421.91	280.70
422.28	283.75
422.66	286.99
423.03	290.33
423.40	293.65
423.77	297.03
424.15	300.62
424.52	304.39
424.89	308.62
425.26	312.52
425.64	316.22
426.01	320.40
426.38	324.73
426.75	329.28
427.13	333.80
427.50	338.46
427.87	343.25
428.24	348.15
428.61	352.67
428.99	357.95
429.36	363.24
429.73	368.80
430.10	374.28
430.47	379.75
430.85	385.28
431.22	391.56
431.59	398.40
431.96	404.53
432.33	411.37
432.70	417.87
433.08	425.59
433.45	432.88
433.82	440.26
434.19	448.30
434.56	456.32
434.93	463.91
435.30	471.55
435.68	480.07
436.05	488.45
436.42	496.45
436.79	503.93
437.16	512.19
437.53	520.86
437.90	529.43
438.27	537.99
438.64	546.75
439.01	554.77
439.38	561.80
439.75	568.92
440.13	576.97
440.50	584.35
440.87	590.34
441.24	596.77
441.61	603.53
441.98	608.65
442.35	614.36
442.72	620.35
443.09	626.31
443.46	629.74
443.83	632.02
444.20	634.11
444.57	636.88
444.94	637.93
445.31	638.91
445.68	640.37
446.05	640.70
446.42	639.47
446.79	638.16
447.16	636.59
447.53	635.25
447.90	631.48
448.27	627.87
448.64	623.11
449.01	619.30
449.37	613.36
449.74	607.48
450.11	600.76
450.48	593.22
450.85	585.19
451.22	578.30
451.59	571.77
451.96	565.47
452.33	557.55
452.70	550.35
453.07	541.83
453.43	532.61
453.80	524.23
454.17	516.23
454.54	508.55
454.91	500.46
455.28	492.54
455.65	485.17
456.02	478.44
456.38	472.15
456.75	464.62
457.12	458.11
457.49	451.84
457.86	445.56
458.23	440.45
458.59	434.83
458.96	429.22
459.33	424.19
459.70	419.28
460.07	414.98
460.43	410.31
460.80	406.11
461.17	402.59
461.54	398.65
461.91	394.97
462.27	391.08
462.64	387.85
463.01	384.34
463.38	381.16
463.74	377.06
464.11	374.17
464.48	371.51
464.85	368.64
465.21	366.45
465.58	363.99
465.95	360.98
466.32	358.77
466.68	356.55
467.05	354.24
467.42	352.12
467.78	349.95
468.15	347.90
468.52	346.37
468.88	344.08
469.25	342.13
469.62	340.69
469.98	339.07
470.35	337.64
470.72	336.21
471.08	334.45
471.45	333.28
471.82	332.00
472.18	330.57
472.55	329.59
472.92	328.29
473.28	327.21
473.65	326.25
474.02	325.21
474.38	324.35
474.75	323.58
475.11	322.53
475.48	321.96
475.85	321.34
476.21	320.58
476.58	320.14
476.94	319.81
477.31	319.25
477.67	318.96
478.04	318.68
478.41	318.47
478.77	318.76
479.14	318.48
479.50	318.31
479.87	318.45
480.23	318.46
480.60	318.40
480.96	318.47
481.33	318.71
481.69	318.91
482.06	319.10
482.42	319.48
482.79	319.82
483.15	320.20
483.52	320.84
483.88	321.28
484.25	321.81
484.61	322.44
484.98	323.12
485.34	324.05
485.71	324.96
486.07	325.97
486.44	326.62
486.80	327.69
487.17	328.81
487.53	330.11
487.90	331.61
488.26	333.30
488.62	334.98
488.99	336.52
489.35	338.26
489.72	340.09
490.08	342.02
490.44	344.24
490.81	346.48
491.17	348.68
491.54	351.42
491.90	354.03
492.26	356.71
492.63	359.67
492.99	362.51
493.36	365.55
493.72	368.85
494.08	372.24
494.45	376.04
494.81	380.03
495.17	383.85
495.54	387.87
495.90	392.08
496.26	396.46
496.63	401.13
496.99	405.86
497.35	410.96
497.72	416.25
498.08	421.59
498.44	427.21
498.80	433.15
499.17	439.06
499.53	445.25
499.89	451.88
500.26	458.58
500.62	465.52
500.98	472.93
501.34	480.40
501.71	488.15
502.07	495.97
502.43	504.04
502.79	512.51
503.16	521.20
503.52	530.13
503.88	539.24
504.24	548.84
504.60	558.80
504.97	569.10
505.33	579.36
505.69	590.44
506.05	601.32
506.41	612.50
506.78	624.06
507.14	636.09
507.50	648.28
507.86	660.86
508.22	673.84
508.59	686.68
508.95	700.11
509.31	714.14
509.67	728.22
510.03	742.34
510.39	756.97
510.75	771.75
511.12	786.65
511.48	802.32
511.84	817.90
512.20	833.82
512.56	849.72
512.92	866.46
513.28	883.09
513.64	900.17
514.00	917.36
514.37	934.73
514.73	952.46
515.09	970.40
515.45	988.42
515.81	1006.55
516.17	1025.36
516.53	1043.70
516.89	1062.10
517.25	1081.15
517.61	1101.11
517.97	1120.96
518.33	1140.85
518.69	1161.28
519.05	1181.46
519.41	1201.86
519.77	1222.42
520.13	1243.03
520.49	1263.38
520.85	1285.43
521.21	1306.17
521.57	1327.21
521.93	1347.93
522.29	1368.92
522.65	1389.46
523.01	1410.23
523.37	1430.51
523.73	1451.13
524.09	1471.56
524.45	1491.46
524.81	1512.04
525.17	1532.44
525.53	1552.90
525.89	1573.57
526.25	1593.79
526.61	1613.72
526.97	1634.35
527.33	1655.29
527.68	1676.71
528.04	1697.66
528.40	1716.75
528.76	1737.78
529.12	1758.01
529.48	1778.50
529.84	1798.23
530.20	1818.87
530.56	1839.35
530.91	1860.08
531.27	1879.90
531.63	1900.28
531.99	1921.16
532.35	1940.93
532.71	1960.59
533.07	1980.75
533.42	2000.33
533.78	2019.76
534.14	2039.26
534.50	2057.93
534.86	2076.95
535.21	2094.38
535.57	2112.53
535.93	2130.10
536.29	2147.40
536.65	2165.16
537.00	2182.68
537.36	2199.82
537.72	2215.94
538.08	2232.32
538.44	2248.67
538.79	2264.54
539.15	2280.62
539.51	2296.15
539.87	2310.89
540.22	2324.57
540.58	2338.19
540.94	2351.19
541.29	2363.72
541.65	2376.05
542.01	2388.24
542.37	2398.11
542.72	2408.69
543.08	2418.74
543.44	2429.63
543.79	2439.12
544.15	2448.53
544.51	2457.80
544.87	2467.11
545.22	2475.83
545.58	2483.65
545.94	2490.48
546.29	2497.10
546.65	2502.91
547.01	2507.99
547.36	2513.50
547.72	2518.71
548.07	2522.52
548.43	2527.44
548.79	2531.73
549.14	2535.60
549.50	2539.32
549.86	2543.00
550.21	2546.27
550.57	2549.49
550.92	2550.73
551.28	2551.94
551.64	2554.18
551.99	2555.55
552.35	2556.96
552.70	2558.55
553.06	2559.74
553.41	2560.96
553.77	2562.50
554.13	2563.74
554.48	2565.31
554.84	2565.72
555.19	2566.69
555.55	2568.09
555.90	2566.99
556.26	2566.01
556.61	2564.12
556.97	2561.86
557.32	2561.16
557.68	2560.01
558.03	2558.47
558.39	2556.92
558.74	2555.83
559.10	2552.22
559.45	2548.70
559.81	2543.99
560.16	2538.45
560.52	2533.24
560.87	2528.54
561.23	2523.08
561.58	2517.12
561.94	2510.11
562.29	2503.28
562.64	2496.02
563.00	2487.84
563.35	2481.18
563.71	2474.41
564.06	2468.41
564.42	2461.68
564.77	2454.62
565.12	2447.03
565.48	2438.90
565.83	2431.06
566.19	2423.08
566.54	2415.26
566.89	2407.59
567.25	2400.02
567.60	2393.15
567.96	2385.90
568.31	2377.64
568.66	2368.79
569.02	2359.92
569.37	2351.73
569.72	2344.20
570.08	2334.96
570.43	2325.40
570.78	2316.54
571.14	2307.20
571.49	2296.75
571.84	2286.95
572.20	2276.48
572.55	2266.11
572.90	2255.65
573.26	2245.46
573.61	2234.09
573.96	2223.34
574.31	2211.02
574.67	2199.25
575.02	2186.84
575.37	2174.20
575.72	2161.37
576.08	2149.49
576.43	2137.01
576.78	2123.92
577.13	2110.28
577.49	2097.96
577.84	2086.39
578.19	2074.45
578.54	2061.90
578.90	2050.25
579.25	2038.38
579.60	2025.78
579.95	2013.27
580.30	2000.31
580.66	1986.95
581.01	1973.99
581.36	1960.20
581.71	1948.01
582.06	1935.44
582.42	1923.03
582.77	1910.55
583.12	1898.71
583.47	1886.49
583.82	1874.99
584.17	1863.31
584.53	1851.75
584.88	1838.97
585.23	1826.19
585.58	1812.20
585.93	1799.19
586.28	1786.32
586.63	1772.72
586.98	1758.82
587.34	1745.72
587.69	1732.85
588.04	1720.56
588.39	1708.71
588.74	1696.50
589.09	1684.55
589.44	1671.79
589.79	1659.79
590.14	1648.18
590.49	1636.36
590.84	1624.51
591.19	1612.50
591.54	1600.46
591.89	1588.41
592.25	1578.55
592.60	1567.30
592.95	1556.07
593.30	1544.42
593.65	1532.44
594.00	1520.55
594.35	1511.00
594.70	1499.37
595.05	1488.13
595.40	1476.58
595.75	1465.12
596.10	1454.37
596.45	1443.11
596.80	1432.94
597.15	1421.77
597.50	1410.23
597.85	1399.05
598.19	1387.72
598.54	1376.39
598.89	1365.47
599.24	1355.09
599.59	1343.71
599.94	1333.02
600.29	1322.95
600.64	1313.10
600.99	1302.81
601.34	1293.71
601.69	1282.75
602.04	1273.54
602.39	1264.00
602.74	1254.81
603.08	1245.37
603.43	1236.09
603.78	1226.70
604.13	1216.88
604.48	1207.61
604.83	1198.27
605.18	1188.77
605.53	1179.50
605.87	1170.72
606.22	1162.29
606.57	1153.37
606.92	1144.15
607.27	1135.42
607.62	1126.82
607.96	1118.48
608.31	1110.78
608.66	1102.23
609.01	1093.89
609.36	1085.53
609.70	1077.27
610.05	1069.00
610.40	1061.00
610.75	1052.67
611.10	1044.57
611.44	1036.46
611.79	1028.22
612.14	1020.49
612.49	1012.74
612.83	1005.48
613.18	997.77
613.53	990.10
613.88	982.28
614.22	974.65
614.57	966.98
614.92	959.20
615.27	951.83
615.61	944.07
615.96	936.67
616.31	929.43
616.65	922.40
617.00	915.26
617.35	908.15
617.70	901.09
618.04	893.94
618.39	887.13
618.74	880.88
619.08	874.34
619.43	867.59
619.78	860.64
620.12	853.48
620.47	846.76
620.82	840.01
621.16	833.42
621.51	827.47
621.85	821.34
622.20	815.00
622.55	808.38
622.89	802.26
623.24	796.10
623.59	789.98
623.93	783.83
624.28	777.82
624.62	772.56
624.97	766.81
625.32	761.30
625.66	755.39
626.01	749.44
626.35	743.98
626.70	738.46
627.04	733.51
627.39	728.38
627.73	723.30
628.08	718.21
628.43	712.88
628.77	707.49
629.12	702.26
629.46	697.58
629.81	693.07
630.15	688.43
630.50	683.68
630.84	678.94
631.19	674.13
631.53	669.64
631.88	664.19
632.22	659.42
632.57	655.12
632.91	650.71
633.26	646.36
633.60	641.81
633.95	637.39
634.29	632.72
634.64	628.39
634.98	623.80
635.32	619.46
635.67	615.57
636.01	611.51
636.36	607.41
636.70	603.38
637.05	599.12
637.39	595.11
637.73	591.14
638.08	587.24
638.42	583.19
638.77	579.00
639.11	574.92
639.45	570.76
639.80	566.37
640.14	562.35
640.49	558.56
640.83	554.85
641.17	551.18
641.52	547.45
641.86	543.77
642.20	540.58
642.55	537.04
642.89	533.46
643.23	530.06
643.58	526.98
643.92	523.39
644.26	520.17
644.61	516.91
644.95	513.69
645.29	510.36
645.64	507.47
645.98	504.51
646.32	501.87
646.66	498.85
647.01	495.96
647.35	493.30
647.69	490.47
648.04	487.65
648.38	484.84
648.72	482.20
649.06	479.34
649.41	476.32
649.75	473.39
650.09	470.72
650.43	467.89
650.78	464.90
651.12	462.19
651.46	459.42
651.80	456.76
652.14	454.14
652.49	451.70
652.83	449.10
653.17	446.66
653.51	443.83
653.85	441.47
654.20	439.06
654.54	436.50
654.88	433.93
655.22	431.76
655.56	429.44
655.90	427.02
656.25	424.86
656.59	422.66
656.93	420.60
657.27	418.50
657.61	416.15
657.95	414.05
658.29	411.90
658.64	409.91
658.98	407.64
659.32	405.37
659.66	403.15
660.00	401.02
660.34	398.84
660.68	396.92
661.02	395.04
661.36	393.17
661.70	391.07
662.05	389.15
662.39	387.20
662.73	385.46
663.07	384.00
663.41	382.23
663.75	380.28
664.09	378.47
664.43	376.62
664.77	374.98
665.11	373.21
665.45	371.55
665.79	369.99
666.13	368.36
666.47	366.79
666.81	365.21
667.15	363.55
667.49	362.09
667.83	360.76
668.17	359.21
668.51	357.79
668.85	356.58
669.19	355.49
669.53	353.97
669.87	352.51
670.21	350.92
670.55	349.51
670.89	348.50
671.23	347.17
671.57	345.72
671.91	344.44
672.25	343.22
672.58	342.15
672.92	340.68
673.26	339.38
673.60	338.27
673.94	337.14
674.28	336.06
674.62	334.98
674.96	333.73
675.30	332.63
675.64	331.36
675.97	330.16
676.31	328.74
676.65	327.48
676.99	326.55
677.33	325.44
677.67	324.43
678.01	323.15
678.34	322.15
678.68	321.32
679.02	320.26
679.36	319.23
679.70	318.14
680.04	317.25
680.37	316.46
680.71	315.42
681.05	314.64
681.39	313.68
681.73	312.68
682.06	311.84
682.40	310.92
682.74	310.11
683.08	309.41
683.42	308.65
683.75	307.97
684.09	306.99
684.43	306.15
684.77	305.30
685.10	304.46
685.44	303.67
685.78	302.74
686.12	302.01
686.45	301.23
686.79	300.42
687.13	299.64
687.46	298.87
687.80	298.28
688.14	297.47
688.48	296.80
688.81	296.10
689.15	295.45
689.49	294.75
689.82	294.07
690.16	293.18
690.50	292.41
690.83	291.73
691.17	290.95
691.51	290.32
691.84	289.73
692.18	289.01
692.52	288.32
692.85	287.78
693.19	287.31
693.52	286.74
693.86	286.11
694.20	285.45
694.53	284.90
694.87	284.19
695.21	283.55
695.54	282.90
695.88	282.25
696.21	281.43
696.55	280.79
696.88	280.20
697.22	279.72
697.56	279.30
697.89	278.66
698.23	278.17
698.56	277.59
698.90	277.05
699.23	276.58
699.57	276.10
699.90	275.38
700.24	274.73
700.58	274.18
700.91	273.77
701.25	273.77
701.58	273.65
701.92	273.32
702.25	272.81
702.59	272.35
702.92	271.92
703.26	271.62
703.59	271.24
703.93	271.25
704.26	270.81
704.60	270.25
704.93	269.90
705.26	269.40
705.60	269.01
705.93	268.48
706.27	268.20
706.60	267.94
706.94	267.95
707.27	267.54
707.61	267.20
707.94	266.80
708.27	266.04
708.61	265.23
708.94	264.76
709.28	264.44
709.61	264.00
709.94	263.68
710.28	263.28
710.61	262.92
710.95	262.06
711.28	262.05
711.61	261.76
711.95	261.48
712.28	261.13
712.61	260.80
712.95	260.76
713.28	260.65
713.61	260.21
713.95	259.65
714.28	259.39
714.61	259.01
714.95	258.72
715.28	258.33
715.61	258.08
715.95	257.77
716.28	257.40
716.61	257.19
716.95	256.84
717.28	256.59
717.61	256.29
717.94	256.09
718.28	255.43
718.61	255.09
718.94	254.75
719.27	254.54
719.61	254.33
719.94	253.85
720.27	253.32
720.60	253.01
720.94	252.86
721.27	252.68
721.60	252.56
721.93	252.34
722.27	252.35
722.60	252.11
722.93	251.84
723.26	251.69
723.59	251.45
723.93	251.32
724.26	251.05
724.59	250.81
724.92	250.60
725.25	250.51
725.59	250.37
725.92	250.26
726.25	250.05
726.58	249.88
726.91	249.72
727.24	249.56
727.57	249.40
727.91	249.04
728.24	248.84
728.57	248.60
728.90	248.50
729.23	248.05
729.56	248.12
729.89	248.02
730.22	247.86
730.55	247.65
730.89	247.41
731.22	247.22
731.55	247.06
731.88	246.91
732.21	246.66
732.54	246.39
732.87	246.16
733.20	245.99
733.53	245.85
733.86	245.77
734.19	245.56
734.52	245.43
734.85	245.58
735.18	245.34
735.51	245.26
735.84	245.08
736.17	245.04
736.50	244.62
736.83	244.97
737.16	244.76
737.49	244.60
737.82	244.39
738.15	244.36
738.48	244.16
738.81	243.97
739.14	243.77
739.47	243.59
739.80	243.46
740.13	243.40
740.46	243.15
740.79	242.88
741.12	242.71
741.45	242.49
741.78	242.14
742.11	242.16
742.44	241.89
742.77	241.82
743.10	241.60
743.43	241.51
743.75	240.93
744.08	241.42
744.41	241.25
744.74	241.17
745.07	240.86
745.40	240.83
745.73	240.90
746.06	240.82
746.39	240.72
746.71	240.56
747.04	240.33
747.37	240.22
747.70	240.14
748.03	240.10
748.36	240.10
748.68	239.92
749.01	239.62
749.34	239.57
749.67	239.38
750.00	239.33
750.33	239.55
750.65	239.42
750.98	238.69
751.31	238.61
751.64	238.51
751.97	238.62
752.29	238.49
752.62	238.09
752.95	237.88
753.28	237.79
753.60	237.64
753.93	237.69
754.26	237.58
754.59	237.36
754.91	237.15
755.24	237.01
755.57	236.94
755.90	236.79
756.22	236.58
756.55	236.45
756.88	236.24
757.20	235.84
757.53	235.57
757.86	235.47
758.19	235.40
758.51	235.24
758.84	234.95
759.17	234.83
759.49	234.81
759.82	235.05
760.15	234.97
760.47	234.85
760.80	234.61
761.13	234.56
761.45	234.54
761.78	234.52
762.11	234.37
762.43	234.31
762.76	234.26
763.08	234.25
763.41	234.21
763.74	234.20
764.06	234.10
764.39	234.08
764.71	234.00
765.04	233.92
765.37	233.83
765.69	233.70
766.02	233.58
766.34	233.43
766.67	233.17
767.00	233.14
767.32	233.39
767.65	233.58
767.97	233.56
768.30	233.48
768.62	233.39
768.95	233.34
769.27	233.21
769.60	233.16
769.92	233.02
770.25	232.78
770.57	232.67
770.90	232.50
771.22	232.41
771.55	232.34
771.87	232.29
772.20	232.20
772.52	232.65
772.85	233.17
773.17	233.25
773.50	233.17
773.82	233.09
774.15	232.77
774.47	232.39
774.80	232.25
775.12	232.19
775.45	232.18
775.77	232.19
776.09	232.19
776.42	232.18
776.74	232.30
777.07	232.27
777.39	232.22
777.72	232.26
778.04	232.29
778.36	232.23
778.69	232.19
779.01	232.20
779.33	231.79
779.66	231.24
779.98	231.10
780.31	231.12
780.63	231.28
780.95	231.29
781.28	231.33
781.60	231.26
781.92	231.29
782.25	231.25
782.57	231.14
782.89	231.07
783.22	231.02
783.54	230.84
783.86	230.85
784.19	230.80
784.51	230.90
784.83	230.77
785.16	230.74
785.48	230.67
785.80	230.70
786.12	230.64
786.45	230.59
786.77	230.55
787.09	230.39
787.42	230.21
787.74	230.23
788.06	230.23
788.38	230.19
788.71	230.07
789.03	230.01
789.35	230.01
789.67	229.88
789.99	229.88
790.32	229.85
790.64	229.88
790.96	230.29
791.28	230.06
791.61	230.05
791.93	230.00
792.25	230.05
792.57	230.36
792.89	230.28
793.21	230.26
793.54	230.20
793.86	230.19
794.18	230.13
794.50	229.98
794.82	229.97
795.14	229.99
795.47	230.05
795.79	230.06
796.11	229.94
796.43	229.93
796.75	229.85
797.07	229.85
797.39	229.81
797.71	229.39
798.04	229.42
798.36	229.43
798.68	229.40
799.00	229.34
799.32	229.14
799.64	229.19
799.96	229.21
800.28	229.32
800.60	229.32
800.92	229.35
801.24	229.32
801.56	229.28
801.89	229.21
802.21	229.20
802.53	229.10
802.85	229.22
803.17	229.42
803.49	229.30
803.81	229.33
804.13	229.29
804.45	229.22
804.77	229.21
805.09	229.16
805.41	229.18
805.73	229.09
806.05	228.86
806.37	228.82
806.69	228.74
807.01	228.67
807.33	228.69
807.65	228.48
807.97	228.69
808.28	228.63
808.60	228.68
808.92	228.57
809.24	228.85
809.56	228.80
809.88	228.64
810.20	228.69
810.52	228.69
810.84	228.62
811.16	228.62
811.48	228.55
811.80	228.71
812.12	228.66
812.43	228.77
812.75	228.77
813.07	228.78
813.39	228.80
813.71	228.77
814.03	228.61
814.35	228.65
814.67	228.45
814.98	228.35
815.30	228.38
815.62	228.34
815.94	227.96
816.26	228.13
816.58	228.06
816.89	228.13
817.21	228.00
817.53	228.03
817.85	228.04
