SpectraSuite Data File
++++++++++++++++++++++++++++++++++++
Date: Wed Sep 04 17:46:25 EDT 2013
User: lab3
Dark Spectrum Present: Yes
Reference Spectrum Present: No
Number of Sampled Component Spectra: 1
Spectrometers: USB2E7196
Integration Time (usec): 170000 (USB2E7196)
Spectra Averaged: 20 (USB2E7196)
Boxcar Smoothing: 10 (USB2E7196)
Correct for Electrical Dark: No (USB2E7196)
Strobe/Lamp Enabled: No (USB2E7196)
Correct for Detector Non-linearity: No (USB2E7196)
Correct for Stray Light: No (USB2E7196)
Number of Pixels in Processed Spectrum: 2048
>>>>>Begin Processed Spectral Data<<<<<
339.09	0.00
339.48	212.35
339.86	214.80
340.24	215.90
340.63	215.05
341.01	225.35
341.39	220.40
341.78	221.80
342.16	223.75
342.54	222.65
342.93	212.11
343.31	222.70
343.69	223.25
344.07	223.72
344.46	224.23
344.84	224.70
345.22	224.68
345.60	224.93
345.99	225.20
346.37	225.25
346.75	225.36
347.13	225.37
347.52	225.47
347.90	225.65
348.28	225.68
348.66	225.76
349.05	225.60
349.43	225.73
349.81	225.83
350.19	225.88
350.57	225.90
350.96	225.90
351.34	226.13
351.72	226.19
352.10	226.27
352.48	226.33
352.87	226.43
353.25	226.48
353.63	226.47
354.01	226.45
354.39	226.60
354.77	226.65
355.15	226.94
355.54	226.93
355.92	226.84
356.30	226.90
356.68	227.32
357.06	227.42
357.44	227.36
357.82	227.35
358.20	227.82
358.58	227.84
358.97	227.93
359.35	228.05
359.73	228.28
360.11	228.29
360.49	228.27
360.87	228.30
361.25	228.42
361.63	228.72
362.01	228.74
362.39	228.68
362.77	228.82
363.15	228.80
363.53	228.88
363.91	228.95
364.29	229.01
364.67	228.57
365.05	228.61
365.43	228.68
365.81	228.85
366.19	228.70
366.57	228.90
366.95	228.90
367.33	228.79
367.71	228.77
368.09	228.91
368.47	228.96
368.85	228.92
369.23	229.01
369.61	228.75
369.99	228.93
370.37	229.03
370.75	229.21
371.13	229.07
371.51	228.96
371.89	228.97
372.27	229.05
372.65	229.03
373.03	229.03
373.41	228.99
373.78	228.88
374.16	228.62
374.54	228.40
374.92	228.36
375.30	228.31
375.68	228.14
376.06	228.14
376.44	228.02
376.82	228.01
377.19	227.98
377.57	227.95
377.95	227.67
378.33	227.54
378.71	227.24
379.09	227.19
379.47	227.24
379.84	227.07
380.22	226.84
380.60	226.70
380.98	226.61
381.36	226.49
381.73	226.40
382.11	226.40
382.49	226.40
382.87	226.22
383.25	226.10
383.62	226.66
384.00	226.43
384.38	226.39
384.76	226.35
385.13	226.38
385.51	226.33
385.89	226.31
386.27	226.33
386.64	226.35
387.02	226.28
387.40	226.11
387.78	226.19
388.15	226.24
388.53	226.15
388.91	226.09
389.29	226.11
389.66	226.15
390.04	226.00
390.42	226.06
390.79	226.15
391.17	226.29
391.55	225.71
391.92	225.74
392.30	225.77
392.68	225.74
393.05	225.74
393.43	225.73
393.81	225.79
394.18	225.69
394.56	225.72
394.94	225.87
395.31	225.92
395.69	226.10
396.06	226.18
396.44	226.35
396.82	226.43
397.19	226.65
397.57	226.66
397.95	226.89
398.32	226.74
398.70	226.79
399.07	226.85
399.45	226.88
399.82	226.96
400.20	227.05
400.58	227.19
400.95	227.03
401.33	227.33
401.70	227.77
402.08	227.91
402.45	228.01
402.83	228.24
403.20	228.39
403.58	228.40
403.95	228.67
404.33	228.86
404.71	229.04
405.08	229.46
405.46	229.76
405.83	230.00
406.21	230.36
406.58	230.66
406.96	230.99
407.33	231.33
407.70	231.72
408.08	232.45
408.45	232.86
408.83	233.41
409.20	233.72
409.58	233.88
409.95	234.42
410.33	234.94
410.70	235.36
411.08	235.98
411.45	236.67
411.82	237.17
412.20	237.90
412.57	238.90
412.95	239.28
413.32	240.03
413.69	240.86
414.07	241.74
414.44	242.70
414.82	243.69
415.19	244.90
415.56	246.12
415.94	247.07
416.31	248.50
416.68	249.90
417.06	251.41
417.43	253.07
417.81	254.85
418.18	256.60
418.55	258.45
418.93	260.52
419.30	262.60
419.67	264.78
420.04	267.08
420.42	269.37
420.79	272.41
421.16	275.17
421.54	278.20
421.91	281.10
422.28	284.07
422.66	287.29
423.03	290.73
423.40	293.97
423.77	297.40
424.15	300.95
424.52	304.72
424.89	308.86
425.26	312.72
425.64	316.38
426.01	320.49
426.38	324.85
426.75	329.31
427.13	333.79
427.50	338.49
427.87	343.17
428.24	348.00
428.61	352.38
428.99	357.59
429.36	362.92
429.73	368.46
430.10	373.96
430.47	379.57
430.85	384.91
431.22	391.04
431.59	397.78
431.96	403.90
432.33	410.64
432.70	417.20
433.08	424.88
433.45	432.21
433.82	439.58
434.19	447.60
434.56	455.56
434.93	463.12
435.30	470.77
435.68	479.24
436.05	487.40
436.42	495.58
436.79	503.17
437.16	511.46
437.53	520.03
437.90	528.57
438.27	536.90
438.64	545.68
439.01	553.74
439.38	560.79
439.75	567.74
440.13	575.62
440.50	582.94
440.87	588.76
441.24	595.10
441.61	601.90
441.98	606.86
442.35	612.43
442.72	618.21
443.09	623.85
443.46	627.20
443.83	629.50
444.20	631.48
444.57	634.03
444.94	635.05
445.31	636.00
445.68	637.42
446.05	637.64
446.42	636.49
446.79	635.18
447.16	633.65
447.53	632.33
447.90	628.70
448.27	625.17
448.64	620.63
449.01	616.90
449.37	610.90
449.74	605.14
450.11	598.60
450.48	591.12
450.85	583.26
451.22	576.58
451.59	570.13
451.96	563.99
452.33	556.14
452.70	548.88
453.07	540.49
453.43	531.46
453.80	523.24
454.17	515.30
454.54	507.65
454.91	499.51
455.28	491.84
455.65	484.56
456.02	477.82
456.38	471.52
456.75	463.92
457.12	457.45
457.49	451.10
457.86	444.68
458.23	439.62
458.59	434.07
458.96	428.40
459.33	423.36
459.70	418.25
460.07	414.17
460.43	409.56
460.80	405.36
461.17	401.71
461.54	397.77
461.91	394.05
462.27	390.38
462.64	387.24
463.01	383.68
463.38	380.41
463.74	376.54
464.11	373.48
464.48	370.89
464.85	368.10
465.21	366.03
465.58	363.85
465.95	361.00
466.32	358.81
466.68	356.55
467.05	354.39
467.42	352.35
467.78	350.08
468.15	347.96
468.52	346.35
468.88	344.20
469.25	342.33
469.62	340.84
469.98	339.12
470.35	337.51
470.72	336.16
471.08	334.41
471.45	333.16
471.82	332.04
472.18	330.66
472.55	329.62
472.92	328.35
473.28	327.18
473.65	326.05
474.02	325.07
474.38	324.24
474.75	323.55
475.11	322.55
475.48	321.89
475.85	321.30
476.21	320.72
476.58	320.22
476.94	319.89
477.31	319.47
477.67	319.05
478.04	318.79
478.41	318.55
478.77	318.91
479.14	318.52
479.50	318.35
479.87	318.40
480.23	318.45
480.60	318.34
480.96	318.38
481.33	318.89
481.69	319.04
482.06	319.35
482.42	319.56
482.79	320.00
483.15	320.53
483.52	321.13
483.88	321.60
484.25	322.09
484.61	322.64
484.98	323.20
485.34	324.17
485.71	325.16
486.07	326.15
486.44	326.80
486.80	327.91
487.17	329.09
487.53	330.45
487.90	331.83
488.26	333.57
488.62	335.21
488.99	336.65
489.35	338.40
489.72	340.23
490.08	342.23
490.44	344.18
490.81	346.28
491.17	348.43
491.54	350.90
491.90	353.48
492.26	356.22
492.63	359.17
492.99	361.97
493.36	364.95
493.72	368.28
494.08	371.56
494.45	375.25
494.81	379.06
495.17	382.89
495.54	387.05
495.90	391.26
496.26	395.66
496.63	400.27
496.99	405.00
497.35	410.03
497.72	415.29
498.08	420.77
498.44	426.48
498.80	432.48
499.17	438.39
499.53	444.61
499.89	451.05
500.26	457.73
500.62	464.74
500.98	472.03
501.34	479.27
501.71	487.05
502.07	494.85
502.43	502.91
502.79	511.14
503.16	519.77
503.52	528.61
503.88	537.88
504.24	547.47
504.60	557.37
504.97	567.46
505.33	577.73
505.69	588.80
506.05	599.88
506.41	610.85
506.78	622.50
507.14	634.40
507.50	646.70
507.86	659.12
508.22	671.95
508.59	685.01
508.95	698.48
509.31	712.49
509.67	726.66
510.03	740.75
510.39	755.36
510.75	770.02
511.12	785.07
511.48	800.32
511.84	816.07
512.20	831.74
512.56	847.75
512.92	864.40
513.28	880.72
513.64	897.52
514.00	914.89
514.37	932.24
514.73	950.16
515.09	968.15
515.45	986.29
515.81	1004.32
516.17	1022.66
516.53	1041.20
516.89	1059.56
517.25	1078.65
517.61	1098.59
517.97	1118.49
518.33	1138.52
518.69	1158.35
519.05	1178.66
519.41	1198.78
519.77	1219.79
520.13	1240.20
520.49	1260.47
520.85	1282.60
521.21	1303.56
521.57	1324.53
521.93	1344.91
522.29	1365.61
522.65	1385.71
523.01	1406.35
523.37	1426.62
523.73	1447.27
524.09	1467.42
524.45	1487.73
524.81	1508.25
525.17	1528.34
525.53	1548.37
525.89	1568.58
526.25	1589.19
526.61	1609.17
526.97	1629.97
527.33	1650.49
527.68	1672.03
528.04	1692.67
528.40	1711.91
528.76	1732.45
529.12	1752.39
529.48	1772.99
529.84	1792.87
530.20	1813.57
530.56	1833.67
530.91	1854.45
531.27	1874.63
531.63	1894.50
531.99	1914.50
532.35	1933.77
532.71	1953.44
533.07	1973.63
533.42	1993.21
533.78	2012.53
534.14	2032.12
534.50	2050.29
534.86	2068.93
535.21	2085.98
535.57	2104.33
535.93	2121.70
536.29	2138.83
536.65	2156.37
537.00	2173.37
537.36	2190.51
537.72	2206.51
538.08	2223.38
538.44	2239.23
538.79	2254.96
539.15	2271.27
539.51	2286.61
539.87	2301.38
540.22	2315.14
540.58	2329.14
540.94	2341.76
541.29	2353.95
541.65	2365.79
542.01	2377.84
542.37	2387.88
542.72	2398.53
543.08	2408.46
543.44	2419.17
543.79	2428.74
544.15	2438.14
544.51	2448.01
544.87	2456.84
545.22	2465.16
545.58	2472.30
545.94	2479.27
546.29	2485.31
546.65	2490.72
547.01	2496.18
547.36	2501.51
547.72	2506.60
548.07	2509.95
548.43	2514.54
548.79	2518.83
549.14	2522.90
549.50	2526.59
549.86	2530.26
550.21	2533.54
550.57	2536.31
550.92	2537.63
551.28	2538.44
551.64	2540.38
551.99	2541.09
552.35	2542.29
552.70	2543.82
553.06	2545.39
553.41	2545.91
553.77	2547.29
554.13	2548.87
554.48	2550.01
554.84	2550.82
555.19	2551.58
555.55	2553.04
555.90	2552.37
556.26	2551.25
556.61	2549.07
556.97	2546.65
557.32	2545.75
557.68	2544.17
558.03	2542.70
558.39	2541.03
558.74	2540.25
559.10	2537.10
559.45	2533.93
559.81	2529.45
560.16	2524.36
560.52	2519.07
560.87	2514.81
561.23	2509.16
561.58	2502.99
561.94	2496.11
562.29	2488.63
562.64	2481.71
563.00	2473.28
563.35	2466.70
563.71	2460.08
564.06	2453.70
564.42	2447.05
564.77	2439.98
565.12	2432.47
565.48	2424.64
565.83	2416.56
566.19	2408.43
566.54	2400.32
566.89	2392.09
567.25	2384.44
567.60	2377.21
567.96	2369.76
568.31	2361.83
568.66	2353.21
569.02	2344.27
569.37	2335.81
569.72	2328.45
570.08	2318.94
570.43	2309.58
570.78	2300.63
571.14	2291.15
571.49	2280.94
571.84	2271.28
572.20	2260.62
572.55	2250.64
572.90	2239.85
573.26	2229.86
573.61	2218.77
573.96	2207.75
574.31	2195.84
574.67	2184.27
575.02	2171.61
575.37	2159.04
575.72	2146.19
576.08	2134.36
576.43	2122.25
576.78	2109.55
577.13	2096.12
577.49	2083.65
577.84	2072.20
578.19	2060.31
578.54	2047.96
578.90	2036.55
579.25	2024.74
579.60	2012.49
579.95	1999.64
580.30	1986.93
580.66	1973.59
581.01	1960.54
581.36	1946.85
581.71	1934.54
582.06	1921.68
582.42	1909.96
582.77	1897.57
583.12	1885.70
583.47	1873.82
583.82	1862.14
584.17	1850.60
584.53	1839.16
584.88	1826.52
585.23	1813.56
585.58	1799.72
585.93	1786.67
586.28	1773.82
586.63	1760.14
586.98	1746.27
587.34	1733.52
587.69	1720.77
588.04	1708.59
588.39	1696.69
588.74	1685.10
589.09	1673.32
589.44	1661.11
589.79	1648.97
590.14	1637.46
590.49	1625.53
590.84	1613.72
591.19	1602.11
591.54	1590.00
591.89	1577.90
592.25	1568.24
592.60	1557.14
592.95	1546.10
593.30	1534.52
593.65	1522.72
594.00	1510.83
594.35	1501.41
594.70	1489.77
595.05	1478.55
595.40	1466.80
595.75	1455.30
596.10	1444.33
596.45	1433.27
596.80	1422.66
597.15	1411.54
597.50	1400.09
597.85	1389.47
598.19	1378.20
598.54	1366.74
598.89	1356.09
599.24	1346.01
599.59	1334.71
599.94	1324.33
600.29	1314.09
600.64	1304.11
600.99	1293.76
601.34	1284.72
601.69	1273.73
602.04	1264.28
602.39	1254.84
602.74	1245.98
603.08	1236.70
603.43	1227.71
603.78	1218.41
604.13	1209.02
604.48	1199.89
604.83	1190.65
605.18	1180.56
605.53	1171.11
605.87	1162.18
606.22	1153.78
606.57	1144.77
606.92	1135.50
607.27	1126.68
607.62	1118.18
607.96	1109.93
608.31	1102.07
608.66	1093.99
609.01	1085.85
609.36	1077.60
609.70	1069.44
610.05	1060.94
610.40	1052.89
610.75	1044.42
611.10	1036.42
611.44	1028.18
611.79	1020.13
612.14	1012.61
612.49	1005.24
612.83	998.20
613.18	990.86
613.53	983.10
613.88	975.42
614.22	968.09
614.57	960.50
614.92	953.04
615.27	945.76
615.61	938.31
615.96	930.85
616.31	923.56
616.65	916.74
617.00	909.60
617.35	902.67
617.70	895.62
618.04	888.85
618.39	881.90
618.74	875.60
619.08	869.03
619.43	862.06
619.78	855.42
620.12	848.60
620.47	841.88
620.82	835.13
621.16	828.59
621.51	822.61
621.85	816.47
622.20	809.91
622.55	803.64
622.89	797.49
623.24	791.39
623.59	785.34
623.93	779.35
624.28	773.38
624.62	768.09
624.97	762.65
625.32	757.00
625.66	751.32
626.01	745.53
626.35	740.24
626.70	734.74
627.04	729.62
627.39	724.18
627.73	719.08
628.08	714.13
628.43	708.76
628.77	703.21
629.12	698.30
629.46	693.85
629.81	689.25
630.15	684.67
630.50	679.99
630.84	675.21
631.19	670.48
631.53	666.18
631.88	661.00
632.22	656.26
632.57	651.94
632.91	647.62
633.26	643.36
633.60	638.68
633.95	634.33
634.29	629.73
634.64	625.52
634.98	620.81
635.32	616.59
635.67	612.85
636.01	609.04
636.36	604.73
636.70	600.81
637.05	596.71
637.39	592.73
637.73	588.87
638.08	585.24
638.42	581.35
638.77	577.12
639.11	573.10
639.45	568.91
639.80	564.45
640.14	560.46
640.49	556.72
640.83	553.13
641.17	549.52
641.52	545.92
641.86	542.51
642.20	539.47
642.55	535.94
642.89	532.40
643.23	528.76
643.58	525.82
643.92	522.25
644.26	519.00
644.61	515.85
644.95	512.44
645.29	508.93
645.64	505.70
645.98	502.71
646.32	499.97
646.66	497.01
647.01	494.50
647.35	491.89
647.69	488.89
648.04	486.01
648.38	483.41
648.72	480.68
649.06	477.63
649.41	474.72
649.75	471.89
650.09	469.13
650.43	466.46
650.78	463.34
651.12	460.54
651.46	457.83
651.80	455.01
652.14	452.44
652.49	450.11
652.83	447.58
653.17	445.03
653.51	442.25
653.85	440.06
654.20	437.48
654.54	434.80
654.88	432.34
655.22	430.26
655.56	427.76
655.90	425.46
656.25	423.20
656.59	420.98
656.93	418.73
657.27	416.75
657.61	414.43
657.95	412.35
658.29	410.28
658.64	408.21
658.98	406.13
659.32	403.95
659.66	401.77
660.00	399.89
660.34	397.95
660.68	396.15
661.02	394.04
661.36	392.12
661.70	390.25
662.05	388.34
662.39	386.44
662.73	384.84
663.07	383.24
663.41	381.52
663.75	379.65
664.09	377.88
664.43	375.94
664.77	374.45
665.11	372.73
665.45	371.04
665.79	369.37
666.13	367.57
666.47	365.92
666.81	364.28
667.15	362.45
667.49	361.05
667.83	359.66
668.17	358.21
668.51	356.78
668.85	355.52
669.19	354.34
669.53	352.82
669.87	351.26
670.21	349.72
670.55	348.34
670.89	347.29
671.23	346.02
671.57	344.61
671.91	343.27
672.25	342.02
672.58	340.99
672.92	339.67
673.26	338.55
673.60	337.46
673.94	336.36
674.28	335.41
674.62	334.22
674.96	332.93
675.30	331.76
675.64	330.64
675.97	329.38
676.31	328.09
676.65	326.88
676.99	325.94
677.33	324.74
677.67	323.65
678.01	322.34
678.34	321.34
678.68	320.50
679.02	319.45
679.36	318.45
679.70	317.35
680.04	316.46
680.37	315.55
680.71	314.61
681.05	313.72
681.39	312.77
681.73	311.84
682.06	310.88
682.40	310.11
682.74	309.33
683.08	308.65
683.42	307.80
683.75	307.14
684.09	306.16
684.43	305.49
684.77	304.81
685.10	304.09
685.44	303.33
685.78	302.42
686.12	301.66
686.45	300.88
686.79	300.10
687.13	299.46
687.46	298.74
687.80	298.09
688.14	297.28
688.48	296.58
688.81	295.76
689.15	295.27
689.49	294.50
689.82	293.88
690.16	292.98
690.50	292.33
690.83	291.50
691.17	290.91
691.51	290.27
691.84	289.61
692.18	288.86
692.52	288.16
692.85	287.62
693.19	287.27
693.52	286.60
693.86	285.98
694.20	285.27
694.53	284.69
694.87	284.05
695.21	283.41
695.54	282.82
695.88	282.20
696.21	281.49
696.55	280.95
696.88	280.27
697.22	279.68
697.56	279.26
697.89	278.73
698.23	278.10
698.56	277.49
698.90	276.96
699.23	276.47
699.57	275.97
699.90	275.35
700.24	274.61
700.58	274.28
700.91	273.92
701.25	273.81
701.58	273.59
701.92	273.19
702.25	272.88
702.59	272.41
702.92	272.07
703.26	271.72
703.59	271.25
703.93	271.24
704.26	270.93
704.60	270.46
704.93	270.05
705.26	269.56
705.60	269.17
705.93	268.77
706.27	268.51
706.60	268.23
706.94	268.07
707.27	267.66
707.61	267.22
707.94	266.74
708.27	266.05
708.61	265.38
708.94	265.00
709.28	264.70
709.61	264.22
709.94	263.91
710.28	263.51
710.61	263.21
710.95	262.42
711.28	262.32
711.61	261.87
711.95	261.65
712.28	261.34
712.61	261.11
712.95	261.00
713.28	260.85
713.61	260.45
713.95	259.99
714.28	259.74
714.61	259.40
714.95	259.00
715.28	258.56
715.61	258.21
715.95	257.82
716.28	257.38
716.61	257.19
716.95	256.77
717.28	256.45
717.61	256.09
717.94	255.75
718.28	255.10
718.61	254.83
718.94	254.47
719.27	254.18
719.61	253.87
719.94	253.48
720.27	252.90
720.60	252.59
720.94	252.30
721.27	252.01
721.60	251.91
721.93	251.67
722.27	251.63
722.60	251.42
722.93	251.17
723.26	250.94
723.59	250.56
723.93	250.37
724.26	250.15
724.59	249.82
724.92	249.70
725.25	249.62
725.59	249.41
725.92	249.27
726.25	249.11
726.58	248.93
726.91	248.69
727.24	248.57
727.57	248.35
727.91	248.08
728.24	247.92
728.57	247.60
728.90	247.49
729.23	247.18
729.56	247.25
729.89	247.13
730.22	246.95
730.55	246.77
730.89	246.68
731.22	246.46
731.55	246.35
731.88	246.14
732.21	245.91
732.54	245.70
732.87	245.46
733.20	245.33
733.53	245.20
733.86	245.14
734.19	245.01
734.52	244.97
734.85	245.16
735.18	244.95
735.51	245.02
735.84	244.87
736.17	244.84
736.50	244.44
736.83	244.81
737.16	244.74
737.49	244.70
737.82	244.48
738.15	244.42
738.48	244.33
738.81	244.22
739.14	244.01
739.47	243.96
739.80	243.81
740.13	243.72
740.46	243.47
740.79	243.20
741.12	243.01
741.45	242.82
741.78	242.43
742.11	242.42
742.44	242.11
742.77	242.04
743.10	241.86
743.43	241.72
743.75	241.06
744.08	241.52
744.41	241.38
744.74	241.22
745.07	240.98
745.40	240.99
745.73	241.08
746.06	240.99
746.39	240.92
746.71	240.77
747.04	240.61
747.37	240.45
747.70	240.43
748.03	240.35
748.36	240.31
748.68	240.20
749.01	239.93
749.34	239.86
749.67	239.74
750.00	239.64
750.33	239.90
750.65	239.88
750.98	239.08
751.31	238.94
751.64	238.88
751.97	238.99
752.29	238.80
752.62	238.40
752.95	238.26
753.28	238.06
753.60	238.01
753.93	238.01
754.26	238.01
754.59	237.75
754.91	237.59
755.24	237.38
755.57	237.32
755.90	237.28
756.22	237.11
756.55	236.94
756.88	236.71
757.20	236.30
757.53	235.97
757.86	235.94
758.19	235.93
758.51	235.90
758.84	235.60
759.17	235.48
759.49	235.47
759.82	235.70
760.15	235.58
760.47	235.40
760.80	235.19
761.13	235.15
761.45	235.05
761.78	234.94
762.11	234.95
762.43	234.77
762.76	234.64
763.08	234.64
763.41	234.57
763.74	234.54
764.06	234.43
764.39	234.46
764.71	234.37
765.04	234.20
765.37	234.02
765.69	233.99
766.02	233.82
766.34	233.64
766.67	233.32
767.00	233.44
767.32	233.63
767.65	233.84
767.97	233.67
768.30	233.70
768.62	233.72
768.95	233.63
769.27	233.59
769.60	233.59
769.92	233.46
770.25	233.36
770.57	233.25
770.90	233.20
771.22	233.05
771.55	233.00
771.87	232.96
772.20	232.86
772.52	233.19
772.85	233.76
773.17	233.78
773.50	233.73
773.82	233.52
774.15	233.27
774.47	232.88
774.80	232.83
775.12	232.78
775.45	232.70
775.77	232.61
776.09	232.59
776.42	232.51
776.74	232.66
777.07	232.62
777.39	232.63
777.72	232.53
778.04	232.63
778.36	232.58
778.69	232.57
779.01	232.59
779.33	232.17
779.66	231.60
779.98	231.50
780.31	231.49
780.63	231.74
780.95	231.70
781.28	231.71
781.60	231.61
781.92	231.54
782.25	231.48
782.57	231.42
782.89	231.28
783.22	231.24
783.54	231.08
783.86	231.06
784.19	230.96
784.51	231.02
784.83	230.85
785.16	230.81
785.48	230.75
785.80	230.68
786.12	230.62
786.45	230.56
786.77	230.56
787.09	230.46
787.42	230.21
787.74	230.24
788.06	230.23
788.38	230.25
788.71	230.22
789.03	230.20
789.35	230.29
789.67	230.22
789.99	230.31
790.32	230.17
790.64	230.22
790.96	230.51
791.28	230.44
791.61	230.41
791.93	230.37
792.25	230.34
792.57	230.71
792.89	230.58
793.21	230.63
793.54	230.60
793.86	230.55
794.18	230.53
794.50	230.42
794.82	230.40
795.14	230.37
795.47	230.40
795.79	230.41
796.11	230.21
796.43	230.18
796.75	230.09
797.07	230.08
797.39	230.03
797.71	229.72
798.04	229.70
798.36	229.65
798.68	229.66
799.00	229.67
799.32	229.31
799.64	229.40
799.96	229.35
800.28	229.44
800.60	229.37
800.92	229.34
801.24	229.24
801.56	229.18
801.89	229.09
802.21	228.99
802.53	228.85
802.85	228.91
803.17	229.13
803.49	229.05
803.81	229.00
804.13	228.85
804.45	228.73
804.77	228.67
805.09	228.60
805.41	228.49
805.73	228.42
806.05	228.35
806.37	228.25
806.69	228.11
807.01	228.04
807.33	228.03
807.65	227.95
807.97	228.21
808.28	228.11
808.60	228.08
808.92	228.10
809.24	228.28
809.56	228.20
809.88	228.03
810.20	227.95
810.52	228.06
810.84	228.01
811.16	227.99
811.48	227.95
811.80	228.17
812.12	228.21
812.43	228.29
812.75	228.23
813.07	228.24
813.39	228.32
813.71	228.20
814.03	228.09
814.35	228.09
814.67	227.78
814.98	227.77
815.30	227.79
815.62	227.73
815.94	227.43
816.26	227.65
816.58	227.57
816.89	227.64
817.21	227.48
817.53	227.57
817.85	227.48
