SpectraSuite Data File
++++++++++++++++++++++++++++++++++++
Date: Wed Sep 04 17:50:39 EDT 2013
User: lab3
Dark Spectrum Present: Yes
Reference Spectrum Present: No
Number of Sampled Component Spectra: 1
Spectrometers: USB2E7196
Integration Time (usec): 170000 (USB2E7196)
Spectra Averaged: 20 (USB2E7196)
Boxcar Smoothing: 10 (USB2E7196)
Correct for Electrical Dark: No (USB2E7196)
Strobe/Lamp Enabled: No (USB2E7196)
Correct for Detector Non-linearity: No (USB2E7196)
Correct for Stray Light: No (USB2E7196)
Number of Pixels in Processed Spectrum: 2048
>>>>>Begin Processed Spectral Data<<<<<
339.09	0.00
339.48	212.80
339.86	214.15
340.24	214.90
340.63	217.30
341.01	226.00
341.39	219.65
341.78	221.50
342.16	223.55
342.54	223.20
342.93	212.06
343.31	222.71
343.69	223.29
344.07	223.81
344.46	224.39
344.84	224.77
345.22	224.69
345.60	225.02
345.99	225.20
346.37	225.27
346.75	225.39
347.13	225.44
347.52	225.52
347.90	225.71
348.28	225.73
348.66	225.90
349.05	225.73
349.43	225.85
349.81	225.90
350.19	225.97
350.57	226.04
350.96	226.08
351.34	226.29
351.72	226.42
352.10	226.48
352.48	226.46
352.87	226.55
353.25	226.60
353.63	226.57
354.01	226.67
354.39	226.73
354.77	226.80
355.15	226.95
355.54	226.94
355.92	226.85
356.30	227.00
356.68	227.31
357.06	227.38
357.44	227.36
357.82	227.45
358.20	227.90
358.58	227.94
358.97	228.04
359.35	228.06
359.73	228.11
360.11	228.14
360.49	228.18
360.87	228.17
361.25	228.40
361.63	228.69
362.01	228.76
362.39	228.76
362.77	228.74
363.15	228.78
363.53	228.85
363.91	228.85
364.29	228.85
364.67	228.47
365.05	228.51
365.43	228.61
365.81	228.65
366.19	228.48
366.57	228.68
366.95	228.73
367.33	228.74
367.71	228.75
368.09	228.82
368.47	228.89
368.85	228.90
369.23	228.95
369.61	228.64
369.99	228.80
370.37	228.93
370.75	229.23
371.13	229.16
371.51	229.10
371.89	229.15
372.27	229.19
372.65	229.19
373.03	229.21
373.41	229.13
373.78	229.06
374.16	228.77
374.54	228.61
374.92	228.48
375.30	228.43
375.68	228.32
376.06	228.34
376.44	228.22
376.82	228.21
377.19	228.07
377.57	228.05
377.95	227.77
378.33	227.61
378.71	227.28
379.09	227.21
379.47	227.12
379.84	226.99
380.22	226.83
380.60	226.70
380.98	226.58
381.36	226.54
381.73	226.48
382.11	226.49
382.49	226.38
382.87	226.25
383.25	226.16
383.62	226.62
384.00	226.46
384.38	226.39
384.76	226.42
385.13	226.54
385.51	226.51
385.89	226.40
386.27	226.35
386.64	226.30
387.02	226.26
387.40	226.21
387.78	226.28
388.15	226.27
388.53	226.19
388.91	226.15
389.29	226.04
389.66	226.05
390.04	225.98
390.42	226.06
390.79	226.13
391.17	226.15
391.55	225.60
391.92	225.56
392.30	225.61
392.68	225.55
393.05	225.48
393.43	225.50
393.81	225.63
394.18	225.67
394.56	225.72
394.94	225.82
395.31	225.83
395.69	225.96
396.06	226.03
396.44	226.14
396.82	226.16
397.19	226.48
397.57	226.49
397.95	226.61
398.32	226.53
398.70	226.65
399.07	226.76
399.45	226.82
399.82	226.98
400.20	227.02
400.58	227.15
400.95	227.10
401.33	227.30
401.70	227.70
402.08	227.79
402.45	227.90
402.83	228.19
403.20	228.42
403.58	228.47
403.95	228.76
404.33	229.09
404.71	229.33
405.08	229.75
405.46	230.02
405.83	230.30
406.21	230.61
406.58	230.84
406.96	231.07
407.33	231.45
407.70	231.83
408.08	232.55
408.45	232.99
408.83	233.56
409.20	233.97
409.58	234.14
409.95	234.66
410.33	235.27
410.70	235.65
411.08	236.29
411.45	236.96
411.82	237.46
412.20	238.16
412.57	239.18
412.95	239.55
413.32	240.44
413.69	241.19
414.07	242.11
414.44	243.08
414.82	244.15
415.19	245.32
415.56	246.46
415.94	247.49
416.31	248.84
416.68	250.18
417.06	251.76
417.43	253.33
417.81	255.14
418.18	256.89
418.55	258.78
418.93	260.72
419.30	262.82
419.67	265.07
420.04	267.35
420.42	269.55
420.79	272.58
421.16	275.35
421.54	278.41
421.91	281.36
422.28	284.48
422.66	287.72
423.03	291.13
423.40	294.38
423.77	297.91
424.15	301.44
424.52	305.18
424.89	309.35
425.26	313.35
425.64	317.06
426.01	321.21
426.38	325.61
426.75	330.14
427.13	334.62
427.50	339.27
427.87	344.03
428.24	348.88
428.61	353.37
428.99	358.49
429.36	363.88
429.73	369.27
430.10	374.78
430.47	380.39
430.85	385.98
431.22	392.20
431.59	398.94
431.96	405.16
432.33	412.00
432.70	418.49
433.08	426.30
433.45	433.80
433.82	441.17
434.19	449.31
434.56	457.28
434.93	464.80
435.30	472.60
435.68	481.26
436.05	489.57
436.42	497.79
436.79	505.48
437.16	513.88
437.53	522.77
437.90	531.39
438.27	539.97
438.64	548.88
439.01	557.04
439.38	564.15
439.75	571.38
440.13	579.41
440.50	586.96
440.87	592.96
441.24	599.18
441.61	606.03
441.98	611.04
442.35	616.80
442.72	622.85
443.09	628.67
443.46	631.89
443.83	634.26
444.20	636.20
444.57	639.01
444.94	640.01
445.31	640.92
445.68	642.34
446.05	642.50
446.42	641.15
446.79	639.75
447.16	638.14
447.53	636.85
447.90	633.07
448.27	629.48
448.64	624.66
449.01	621.10
449.37	615.12
449.74	609.10
450.11	602.29
450.48	594.60
450.85	586.59
451.22	579.90
451.59	573.41
451.96	567.19
452.33	558.96
452.70	551.75
453.07	543.25
453.43	534.19
453.80	525.82
454.17	517.86
454.54	510.34
454.91	502.16
455.28	494.17
455.65	486.91
456.02	480.02
456.38	473.70
456.75	465.99
457.12	459.43
457.49	453.32
457.86	447.03
458.23	441.91
458.59	436.21
458.96	430.51
459.33	425.32
459.70	420.29
460.07	416.25
460.43	411.46
460.80	407.20
461.17	403.44
461.54	399.53
461.91	395.71
462.27	391.76
462.64	388.56
463.01	385.09
463.38	381.80
463.74	377.84
464.11	374.86
464.48	372.20
464.85	369.30
465.21	367.13
465.58	364.89
465.95	362.06
466.32	359.94
466.68	357.60
467.05	355.52
467.42	353.30
467.78	351.05
468.15	348.97
468.52	347.37
468.88	345.16
469.25	343.19
469.62	341.72
469.98	340.11
470.35	338.60
470.72	337.03
471.08	335.30
471.45	334.07
471.82	332.89
472.18	331.33
472.55	330.41
472.92	329.02
473.28	327.85
473.65	326.77
474.02	325.67
474.38	324.87
474.75	324.14
475.11	323.25
475.48	322.59
475.85	321.97
476.21	321.30
476.58	320.80
476.94	320.48
477.31	320.04
477.67	319.58
478.04	319.37
478.41	319.26
478.77	319.50
479.14	319.22
479.50	319.02
479.87	319.11
480.23	319.13
480.60	319.11
480.96	319.22
481.33	319.68
481.69	319.92
482.06	320.05
482.42	320.27
482.79	320.66
483.15	321.11
483.52	321.68
483.88	322.20
484.25	322.77
484.61	323.35
484.98	324.12
485.34	325.15
485.71	325.95
486.07	326.85
486.44	327.49
486.80	328.65
487.17	329.79
487.53	331.21
487.90	332.57
488.26	334.26
488.62	335.88
488.99	337.36
489.35	339.06
489.72	340.99
490.08	343.00
490.44	345.07
490.81	347.41
491.17	349.63
491.54	352.15
491.90	354.75
492.26	357.39
492.63	360.17
492.99	363.00
493.36	366.17
493.72	369.50
494.08	372.94
494.45	376.58
494.81	380.50
495.17	384.37
495.54	388.56
495.90	392.76
496.26	397.26
496.63	401.87
496.99	406.68
497.35	411.76
497.72	417.03
498.08	422.51
498.44	428.09
498.80	434.15
499.17	440.15
499.53	446.35
499.89	453.14
500.26	459.82
500.62	466.80
500.98	474.09
501.34	481.55
501.71	489.32
502.07	497.11
502.43	505.20
502.79	513.58
503.16	522.17
503.52	531.14
503.88	540.29
504.24	549.96
504.60	560.05
504.97	570.15
505.33	580.54
505.69	591.58
506.05	602.51
506.41	613.69
506.78	625.33
507.14	637.38
507.50	649.51
507.86	662.14
508.22	674.94
508.59	687.89
508.95	701.37
509.31	715.50
509.67	729.87
510.03	744.00
510.39	758.55
510.75	773.56
511.12	788.70
511.48	804.29
511.84	819.91
512.20	835.55
512.56	851.82
512.92	868.54
513.28	885.24
513.64	902.65
514.00	919.95
514.37	937.64
514.73	955.69
515.09	973.75
515.45	991.97
515.81	1010.23
516.17	1028.83
516.53	1047.37
516.89	1065.65
517.25	1084.68
517.61	1104.96
517.97	1125.03
518.33	1144.95
518.69	1165.20
519.05	1185.72
519.41	1206.25
519.77	1227.14
520.13	1247.78
520.49	1268.12
520.85	1290.34
521.21	1310.98
521.57	1332.30
521.93	1352.99
522.29	1374.08
522.65	1394.68
523.01	1415.49
523.37	1436.09
523.73	1456.98
524.09	1477.47
524.45	1498.33
524.81	1519.14
525.17	1539.44
525.53	1559.89
525.89	1580.55
526.25	1601.26
526.61	1621.39
526.97	1642.25
527.33	1663.29
527.68	1684.86
528.04	1706.11
528.40	1725.60
528.76	1746.66
529.12	1766.89
529.48	1787.45
529.84	1807.50
530.20	1828.48
530.56	1849.19
530.91	1870.19
531.27	1890.56
531.63	1911.15
531.99	1931.55
532.35	1951.40
532.71	1971.60
533.07	1992.18
533.42	2011.72
533.78	2031.23
534.14	2051.22
534.50	2069.95
534.86	2088.98
535.21	2106.08
535.57	2124.63
535.93	2141.90
536.29	2159.50
536.65	2177.39
537.00	2194.74
537.36	2211.73
537.72	2228.15
538.08	2244.75
538.44	2261.02
538.79	2277.53
539.15	2293.65
539.51	2309.39
539.87	2324.41
540.22	2338.17
540.58	2352.19
540.94	2365.40
541.29	2378.10
541.65	2390.07
542.01	2402.49
542.37	2412.89
542.72	2424.15
543.08	2434.25
543.44	2445.91
543.79	2455.67
544.15	2465.54
544.51	2475.69
544.87	2485.48
545.22	2493.91
545.58	2501.57
545.94	2508.82
546.29	2515.06
546.65	2520.90
547.01	2526.37
547.36	2531.74
547.72	2537.00
548.07	2540.58
548.43	2545.90
548.79	2550.00
549.14	2553.61
549.50	2557.12
549.86	2561.08
550.21	2564.81
550.57	2568.17
550.92	2569.24
551.28	2570.48
551.64	2572.53
551.99	2573.93
552.35	2575.12
552.70	2576.90
553.06	2578.50
553.41	2579.46
553.77	2581.15
554.13	2583.01
554.48	2584.64
554.84	2585.96
555.19	2586.95
555.55	2588.80
555.90	2587.80
556.26	2587.15
556.61	2585.94
556.97	2584.15
557.32	2583.67
557.68	2582.20
558.03	2580.52
558.39	2579.30
558.74	2578.16
559.10	2574.66
559.45	2571.16
559.81	2566.93
560.16	2561.86
560.52	2557.33
560.87	2552.96
561.23	2547.36
561.58	2541.31
561.94	2534.25
562.29	2526.99
562.64	2520.35
563.00	2511.75
563.35	2505.31
563.71	2498.70
564.06	2492.50
564.42	2485.72
564.77	2478.39
565.12	2470.72
565.48	2462.94
565.83	2454.72
566.19	2446.93
566.54	2439.47
566.89	2431.18
567.25	2423.21
567.60	2415.84
567.96	2408.06
568.31	2400.08
568.66	2391.40
569.02	2382.05
569.37	2373.89
569.72	2366.38
570.08	2356.98
570.43	2347.56
570.78	2338.32
571.14	2328.93
571.49	2318.52
571.84	2309.05
572.20	2298.44
572.55	2288.42
572.90	2277.80
573.26	2267.71
573.61	2256.44
573.96	2245.37
574.31	2233.59
574.67	2222.28
575.02	2209.87
575.37	2196.98
575.72	2183.82
576.08	2171.73
576.43	2159.66
576.78	2146.71
577.13	2132.98
577.49	2120.15
577.84	2108.40
578.19	2096.45
578.54	2084.10
578.90	2072.59
579.25	2060.17
579.60	2047.63
579.95	2034.80
580.30	2021.55
580.66	2008.06
581.01	1994.69
581.36	1980.69
581.71	1968.20
582.06	1955.26
582.42	1942.86
582.77	1930.45
583.12	1918.81
583.47	1906.67
583.82	1894.82
584.17	1882.71
584.53	1870.82
584.88	1858.09
585.23	1845.32
585.58	1831.22
585.93	1817.70
586.28	1804.38
586.63	1790.56
586.98	1776.52
587.34	1763.39
587.69	1750.43
588.04	1738.45
588.39	1726.53
588.74	1714.54
589.09	1702.51
589.44	1689.66
589.79	1677.78
590.14	1666.12
590.49	1653.89
590.84	1641.97
591.19	1629.97
591.54	1617.91
591.89	1606.01
592.25	1595.89
592.60	1584.53
592.95	1573.24
593.30	1561.79
593.65	1549.72
594.00	1537.98
594.35	1528.14
594.70	1516.58
595.05	1505.22
595.40	1492.99
595.75	1481.24
596.10	1469.96
596.45	1458.62
596.80	1447.86
597.15	1436.38
597.50	1424.61
597.85	1413.58
598.19	1402.07
598.54	1390.54
598.89	1379.24
599.24	1368.61
599.59	1357.14
599.94	1346.27
600.29	1336.21
600.64	1325.93
600.99	1315.47
601.34	1305.93
601.69	1294.88
602.04	1285.16
602.39	1275.74
602.74	1266.80
603.08	1257.46
603.43	1248.39
603.78	1238.71
604.13	1229.26
604.48	1219.82
604.83	1210.18
605.18	1200.38
605.53	1190.86
605.87	1181.87
606.22	1173.59
606.57	1164.52
606.92	1155.22
607.27	1146.65
607.62	1137.91
607.96	1129.63
608.31	1121.87
608.66	1113.72
609.01	1105.62
609.36	1097.25
609.70	1088.63
610.05	1079.99
610.40	1071.74
610.75	1062.95
611.10	1054.72
611.44	1046.19
611.79	1038.05
612.14	1030.33
612.49	1022.42
612.83	1015.16
613.18	1007.55
613.53	999.88
613.88	991.94
614.22	984.35
614.57	976.48
614.92	968.70
615.27	961.18
615.61	953.74
615.96	946.12
616.31	938.37
616.65	931.44
617.00	924.34
617.35	917.14
617.70	909.98
618.04	903.05
618.39	896.22
618.74	889.94
619.08	883.13
619.43	876.28
619.78	869.41
620.12	862.18
620.47	855.28
620.82	848.24
621.16	841.59
621.51	835.29
621.85	829.04
622.20	822.47
622.55	815.64
622.89	808.90
623.24	802.45
623.59	796.29
623.93	790.02
624.28	784.02
624.62	778.45
624.97	772.71
625.32	766.96
625.66	761.17
626.01	755.00
626.35	749.53
626.70	743.97
627.04	738.79
627.39	733.24
627.73	728.06
628.08	722.82
628.43	717.50
628.77	712.04
629.12	706.78
629.46	702.18
629.81	697.74
630.15	693.06
630.50	688.42
630.84	683.72
631.19	678.81
631.53	674.24
631.88	669.00
632.22	664.04
632.57	659.61
632.91	655.00
633.26	650.83
633.60	646.22
633.95	641.73
634.29	636.92
634.64	632.59
634.98	627.80
635.32	623.58
635.67	619.60
636.01	615.63
636.36	611.45
636.70	607.42
637.05	603.06
637.39	599.09
637.73	595.01
638.08	591.12
638.42	586.98
638.77	582.67
639.11	578.44
639.45	574.40
639.80	570.16
640.14	566.06
640.49	561.95
640.83	558.13
641.17	554.55
641.52	551.00
641.86	547.48
642.20	544.42
642.55	540.71
642.89	537.09
643.23	533.59
643.58	530.28
643.92	526.55
644.26	523.26
644.61	520.07
644.95	516.81
645.29	513.45
645.64	510.36
645.98	507.29
646.32	504.47
646.66	501.42
647.01	498.44
647.35	495.82
647.69	492.87
648.04	490.05
648.38	487.20
648.72	484.40
649.06	481.49
649.41	478.36
649.75	475.56
650.09	472.69
650.43	469.75
650.78	466.87
651.12	464.12
651.46	461.28
651.80	458.55
652.14	455.88
652.49	453.29
652.83	450.76
653.17	448.12
653.51	445.40
653.85	443.05
654.20	440.70
654.54	438.16
654.88	435.70
655.22	433.60
655.56	431.15
655.90	428.79
656.25	426.47
656.59	424.31
656.93	422.05
657.27	420.04
657.61	417.60
657.95	415.45
658.29	413.25
658.64	411.26
658.98	409.01
659.32	406.74
659.66	404.59
660.00	402.45
660.34	400.45
660.68	398.59
661.02	396.51
661.36	394.45
661.70	392.45
662.05	390.48
662.39	388.42
662.73	386.70
663.07	385.01
663.41	383.23
663.75	381.24
664.09	379.46
664.43	377.47
664.77	375.91
665.11	374.13
665.45	372.50
665.79	370.79
666.13	369.07
666.47	367.42
666.81	365.80
667.15	364.05
667.49	362.54
667.83	361.19
668.17	359.68
668.51	358.28
668.85	356.90
669.19	355.72
669.53	354.22
669.87	352.68
670.21	351.07
670.55	349.74
670.89	348.67
671.23	347.36
671.57	346.06
671.91	344.87
672.25	343.74
672.58	342.58
672.92	341.13
673.26	339.95
673.60	338.90
673.94	337.80
674.28	336.84
674.62	335.71
674.96	334.36
675.30	333.26
675.64	332.05
675.97	330.83
676.31	329.57
676.65	328.35
676.99	327.41
677.33	326.32
677.67	325.18
678.01	323.97
678.34	322.95
678.68	322.00
679.02	320.91
679.36	319.81
679.70	318.80
680.04	318.02
680.37	317.07
680.71	315.98
681.05	315.07
681.39	314.15
681.73	313.26
682.06	312.41
682.40	311.48
682.74	310.68
683.08	310.03
683.42	309.22
683.75	308.58
684.09	307.65
684.43	306.98
684.77	306.21
685.10	305.42
685.44	304.59
685.78	303.77
686.12	303.02
686.45	302.25
686.79	301.32
687.13	300.55
687.46	299.73
687.80	299.14
688.14	298.26
688.48	297.55
688.81	296.83
689.15	296.21
689.49	295.49
689.82	294.76
690.16	293.86
690.50	293.23
690.83	292.43
691.17	291.61
691.51	290.96
691.84	290.36
692.18	289.62
692.52	288.97
692.85	288.34
693.19	287.94
693.52	287.32
693.86	286.84
694.20	286.18
694.53	285.66
694.87	284.99
695.21	284.37
695.54	283.76
695.88	283.11
696.21	282.41
696.55	281.82
696.88	281.20
697.22	280.55
697.56	279.93
697.89	279.32
698.23	278.96
698.56	278.29
698.90	277.80
699.23	277.25
699.57	276.80
699.90	276.25
700.24	275.50
700.58	274.97
700.91	274.48
701.25	274.34
701.58	274.16
701.92	273.78
702.25	273.36
702.59	272.78
702.92	272.37
703.26	271.87
703.59	271.49
703.93	271.49
704.26	271.17
704.60	270.74
704.93	270.39
705.26	269.83
705.60	269.43
705.93	268.93
706.27	268.77
706.60	268.45
706.94	268.27
707.27	267.85
707.61	267.49
707.94	267.12
708.27	266.42
708.61	265.68
708.94	265.21
709.28	264.75
709.61	264.44
709.94	264.00
710.28	263.68
710.61	263.33
710.95	262.47
711.28	262.38
711.61	261.99
711.95	261.67
712.28	261.27
712.61	260.98
712.95	260.83
713.28	260.59
713.61	260.19
713.95	259.65
714.28	259.46
714.61	259.09
714.95	258.74
715.28	258.27
715.61	257.94
715.95	257.60
716.28	257.35
716.61	257.16
716.95	256.86
717.28	256.55
717.61	256.23
717.94	255.97
718.28	255.37
718.61	255.12
718.94	254.73
719.27	254.46
719.61	254.15
719.94	253.80
720.27	253.20
720.60	252.88
720.94	252.63
721.27	252.24
721.60	252.02
721.93	251.74
722.27	251.76
722.60	251.67
722.93	251.47
723.26	251.36
723.59	251.00
723.93	250.82
724.26	250.67
724.59	250.43
724.92	250.35
725.25	250.20
725.59	249.94
725.92	249.81
726.25	249.69
726.58	249.53
726.91	249.33
727.24	249.27
727.57	249.07
727.91	248.87
728.24	248.80
728.57	248.56
728.90	248.43
729.23	248.09
729.56	248.06
729.89	247.85
730.22	247.52
730.55	247.29
730.89	247.16
731.22	246.98
731.55	246.77
731.88	246.52
732.21	246.27
732.54	246.14
732.87	245.99
733.20	245.77
733.53	245.61
733.86	245.44
734.19	245.24
734.52	245.23
734.85	245.33
735.18	245.14
735.51	245.22
735.84	245.08
736.17	245.04
736.50	244.61
736.83	245.06
737.16	245.00
737.49	245.04
737.82	244.85
738.15	244.77
738.48	244.64
738.81	244.58
739.14	244.45
739.47	244.34
739.80	244.14
740.13	244.07
740.46	243.89
740.79	243.65
741.12	243.48
741.45	243.25
741.78	242.92
742.11	242.81
742.44	242.55
742.77	242.52
743.10	242.35
743.43	242.29
743.75	241.56
744.08	242.07
744.41	241.83
744.74	241.67
745.07	241.42
745.40	241.36
745.73	241.40
746.06	241.26
746.39	241.10
746.71	241.00
747.04	240.75
747.37	240.56
747.70	240.56
748.03	240.49
748.36	240.36
748.68	240.16
749.01	239.93
749.34	239.80
749.67	239.62
750.00	239.68
750.33	239.91
750.65	239.82
750.98	239.03
751.31	238.90
751.64	238.83
751.97	238.95
752.29	238.78
752.62	238.41
752.95	238.32
753.28	238.20
753.60	237.97
753.93	238.19
754.26	238.12
754.59	237.88
754.91	237.75
755.24	237.67
755.57	237.55
755.90	237.43
756.22	237.29
756.55	237.11
756.88	236.70
757.20	236.22
757.53	236.04
757.86	235.90
758.19	235.86
758.51	235.75
758.84	235.42
759.17	235.36
759.49	235.27
759.82	235.37
760.15	235.30
760.47	235.26
760.80	234.86
761.13	234.85
761.45	234.72
761.78	234.61
762.11	234.52
762.43	234.44
762.76	234.31
763.08	234.26
763.41	234.31
763.74	234.35
764.06	234.34
764.39	234.28
764.71	234.29
765.04	234.14
765.37	234.06
765.69	233.97
766.02	233.88
766.34	233.80
766.67	233.53
767.00	233.59
767.32	233.81
767.65	234.06
767.97	233.93
768.30	233.91
768.62	233.81
768.95	233.67
769.27	233.61
769.60	233.71
769.92	233.51
770.25	233.34
770.57	233.11
770.90	233.01
771.22	232.94
771.55	232.85
771.87	232.80
772.20	232.73
772.52	233.09
772.85	233.61
773.17	233.54
773.50	233.47
773.82	233.33
774.15	233.04
774.47	232.65
774.80	232.55
775.12	232.49
775.45	232.43
775.77	232.40
776.09	232.35
776.42	232.25
776.74	232.40
777.07	232.31
777.39	232.36
777.72	232.21
778.04	232.21
778.36	232.10
778.69	232.11
779.01	232.01
779.33	231.55
779.66	230.96
779.98	230.95
780.31	230.94
780.63	231.10
780.95	231.15
781.28	231.13
781.60	231.10
781.92	231.02
782.25	231.04
782.57	231.00
782.89	230.96
783.22	230.90
783.54	230.74
783.86	230.73
784.19	230.58
784.51	230.70
784.83	230.56
785.16	230.52
785.48	230.48
785.80	230.50
786.12	230.55
786.45	230.49
786.77	230.41
787.09	230.39
787.42	230.15
787.74	230.06
788.06	230.01
788.38	229.94
788.71	229.91
789.03	229.85
789.35	229.87
789.67	229.72
789.99	229.72
790.32	229.66
790.64	229.72
790.96	230.14
791.28	229.99
791.61	230.02
791.93	230.04
792.25	229.93
792.57	230.25
792.89	230.11
793.21	230.08
793.54	230.05
793.86	229.89
794.18	229.88
794.50	229.86
794.82	229.91
795.14	229.96
795.47	230.06
795.79	230.07
796.11	229.93
796.43	229.92
796.75	229.80
797.07	229.70
797.39	229.58
797.71	229.27
798.04	229.24
798.36	229.25
798.68	229.17
799.00	229.30
799.32	228.94
799.64	228.96
799.96	229.00
800.28	229.10
800.60	229.12
800.92	229.10
801.24	229.05
801.56	229.08
801.89	229.05
802.21	229.04
802.53	229.01
802.85	229.08
803.17	229.31
803.49	229.32
803.81	229.36
804.13	229.32
804.45	229.23
804.77	229.27
805.09	229.26
805.41	229.21
805.73	229.05
806.05	228.99
806.37	228.93
806.69	228.81
807.01	228.75
807.33	228.66
807.65	228.58
807.97	228.76
808.28	228.66
808.60	228.66
808.92	228.53
809.24	228.74
809.56	228.68
809.88	228.53
810.20	228.52
810.52	228.57
810.84	228.54
811.16	228.49
811.48	228.49
811.80	228.60
812.12	228.62
812.43	228.65
812.75	228.62
813.07	228.59
813.39	228.64
813.71	228.55
814.03	228.56
814.35	228.52
814.67	228.31
814.98	228.26
815.30	228.19
815.62	228.11
815.94	227.83
816.26	228.12
816.58	228.00
816.89	228.03
817.21	227.93
817.53	227.98
817.85	228.00
