SpectraSuite Data File
++++++++++++++++++++++++++++++++++++
Date: Wed Sep 04 18:00:45 EDT 2013
User: lab3
Dark Spectrum Present: Yes
Reference Spectrum Present: No
Number of Sampled Component Spectra: 1
Spectrometers: USB2E7196
Integration Time (usec): 170000 (USB2E7196)
Spectra Averaged: 20 (USB2E7196)
Boxcar Smoothing: 10 (USB2E7196)
Correct for Electrical Dark: No (USB2E7196)
Strobe/Lamp Enabled: No (USB2E7196)
Correct for Detector Non-linearity: No (USB2E7196)
Correct for Stray Light: No (USB2E7196)
Number of Pixels in Processed Spectrum: 2048
>>>>>Begin Processed Spectral Data<<<<<
339.09	0.00
339.48	211.65
339.86	215.45
340.24	216.30
340.63	218.05
341.01	226.45
341.39	220.05
341.78	222.20
342.16	225.10
342.54	223.95
342.93	212.70
343.31	223.42
343.69	224.02
344.07	224.45
344.46	224.96
344.84	225.37
345.22	225.32
345.60	225.60
345.99	225.79
346.37	225.88
346.75	225.95
347.13	226.05
347.52	226.18
347.90	226.30
348.28	226.35
348.66	226.42
349.05	226.34
349.43	226.50
349.81	226.55
350.19	226.48
350.57	226.44
350.96	226.55
351.34	226.66
351.72	226.77
352.10	226.82
352.48	226.84
352.87	226.80
353.25	226.90
353.63	226.90
354.01	226.96
354.39	227.03
354.77	227.11
355.15	227.27
355.54	227.23
355.92	227.13
356.30	227.17
356.68	227.62
357.06	227.68
357.44	227.59
357.82	227.65
358.20	228.22
358.58	228.35
358.97	228.35
359.35	228.49
359.73	228.66
360.11	228.75
360.49	228.82
360.87	228.89
361.25	228.97
361.63	229.23
362.01	229.36
362.39	229.36
362.77	229.38
363.15	229.41
363.53	229.44
363.91	229.54
364.29	229.61
364.67	229.17
365.05	229.21
365.43	229.32
365.81	229.40
366.19	229.22
366.57	229.39
366.95	229.51
367.33	229.35
367.71	229.29
368.09	229.42
368.47	229.46
368.85	229.50
369.23	229.50
369.61	229.30
369.99	229.36
370.37	229.36
370.75	229.65
371.13	229.60
371.51	229.54
371.89	229.56
372.27	229.51
372.65	229.45
373.03	229.43
373.41	229.35
373.78	229.29
374.16	228.98
374.54	228.82
374.92	228.62
375.30	228.64
375.68	228.54
376.06	228.42
376.44	228.26
376.82	228.32
377.19	228.33
377.57	228.32
377.95	228.05
378.33	228.01
378.71	227.59
379.09	227.53
379.47	227.51
379.84	227.28
380.22	227.21
380.60	227.09
380.98	226.99
381.36	226.89
381.73	226.77
382.11	226.80
382.49	226.69
382.87	226.55
383.25	226.52
383.62	227.02
384.00	226.87
384.38	226.79
384.76	226.68
385.13	226.76
385.51	226.63
385.89	226.50
386.27	226.41
386.64	226.47
387.02	226.38
387.40	226.28
387.78	226.33
388.15	226.28
388.53	226.22
388.91	226.13
389.29	226.08
389.66	226.12
390.04	226.04
390.42	226.12
390.79	226.14
391.17	226.09
391.55	225.52
391.92	225.54
392.30	225.60
392.68	225.58
393.05	225.51
393.43	225.58
393.81	225.69
394.18	225.65
394.56	225.67
394.94	225.78
395.31	225.82
395.69	226.00
396.06	226.16
396.44	226.23
396.82	226.33
397.19	226.61
397.57	226.55
397.95	226.70
398.32	226.64
398.70	226.80
399.07	227.02
399.45	227.06
399.82	227.15
400.20	227.19
400.58	227.27
400.95	227.15
401.33	227.38
401.70	227.80
402.08	227.99
402.45	228.12
402.83	228.33
403.20	228.48
403.58	228.63
403.95	228.80
404.33	229.08
404.71	229.32
405.08	229.81
405.46	230.13
405.83	230.39
406.21	230.63
406.58	230.91
406.96	231.15
407.33	231.54
407.70	231.94
408.08	232.73
408.45	233.17
408.83	233.73
409.20	234.02
409.58	234.20
409.95	234.72
410.33	235.30
410.70	235.72
411.08	236.35
411.45	236.95
411.82	237.55
412.20	238.33
412.57	239.30
412.95	239.66
413.32	240.50
413.69	241.35
414.07	242.34
414.44	243.37
414.82	244.32
415.19	245.57
415.56	246.77
415.94	247.77
416.31	249.23
416.68	250.66
417.06	252.36
417.43	254.03
417.81	255.82
418.18	257.60
418.55	259.56
418.93	261.60
419.30	263.77
419.67	266.05
420.04	268.30
420.42	270.58
420.79	273.63
421.16	276.48
421.54	279.55
421.91	282.58
422.28	285.64
422.66	289.01
423.03	292.44
423.40	295.82
423.77	299.37
424.15	302.98
424.52	306.81
424.89	311.03
425.26	315.07
425.64	318.84
426.01	323.05
426.38	327.45
426.75	331.93
427.13	336.44
427.50	341.15
427.87	345.97
428.24	350.96
428.61	355.54
428.99	360.87
429.36	366.26
429.73	371.76
430.10	377.40
430.47	383.15
430.85	388.80
431.22	395.02
431.59	401.88
431.96	408.09
432.33	415.02
432.70	421.64
433.08	429.45
433.45	436.98
433.82	444.46
434.19	452.65
434.56	460.87
434.93	468.59
435.30	476.46
435.68	485.29
436.05	493.92
436.42	502.26
436.79	510.06
437.16	518.66
437.53	527.51
437.90	536.34
438.27	544.92
438.64	553.98
439.01	562.40
439.38	569.65
439.75	576.98
440.13	585.13
440.50	592.78
440.87	599.01
441.24	605.45
441.61	612.53
441.98	617.73
442.35	623.37
442.72	629.42
443.09	635.31
443.46	638.68
443.83	640.90
444.20	642.79
444.57	645.42
444.94	646.44
445.31	647.55
445.68	648.85
446.05	649.10
446.42	647.69
446.79	646.09
447.16	644.48
447.53	643.13
447.90	639.43
448.27	635.69
448.64	630.71
449.01	626.79
449.37	620.60
449.74	614.41
450.11	607.76
450.48	599.88
450.85	591.78
451.22	584.78
451.59	578.12
451.96	571.83
452.33	563.58
452.70	556.05
453.07	547.42
453.43	538.07
453.80	529.46
454.17	521.46
454.54	513.75
454.91	505.39
455.28	497.44
455.65	489.85
456.02	482.93
456.38	476.60
456.75	468.94
457.12	462.25
457.49	456.02
457.86	449.50
458.23	444.41
458.59	438.55
458.96	432.86
459.33	427.63
459.70	422.56
460.07	418.42
460.43	413.79
460.80	409.46
461.17	405.86
461.54	401.93
461.91	398.02
462.27	394.18
462.64	391.00
463.01	387.26
463.38	383.95
463.74	379.89
464.11	376.84
464.48	374.20
464.85	371.37
465.21	369.16
465.58	366.88
465.95	364.10
466.32	361.85
466.68	359.49
467.05	357.27
467.42	355.06
467.78	352.82
468.15	350.66
468.52	349.01
468.88	346.72
469.25	344.78
469.62	343.32
469.98	341.66
470.35	340.13
470.72	338.72
471.08	337.05
471.45	335.89
471.82	334.65
472.18	333.16
472.55	332.12
472.92	330.78
473.28	329.70
473.65	328.52
474.02	327.60
474.38	326.85
474.75	326.07
475.11	325.18
475.48	324.60
475.85	324.00
476.21	323.34
476.58	322.86
476.94	322.60
477.31	322.15
477.67	321.77
478.04	321.39
478.41	321.23
478.77	321.47
479.14	321.19
479.50	321.05
479.87	321.15
480.23	321.21
480.60	321.22
480.96	321.29
481.33	321.70
481.69	321.83
482.06	322.05
482.42	322.41
482.79	322.74
483.15	323.10
483.52	323.64
483.88	324.15
484.25	324.60
484.61	325.16
484.98	325.85
485.34	326.88
485.71	327.93
486.07	328.90
486.44	329.47
486.80	330.55
487.17	331.62
487.53	332.95
487.90	334.39
488.26	336.05
488.62	337.70
488.99	339.25
489.35	341.05
489.72	342.91
490.08	344.88
490.44	347.01
490.81	349.23
491.17	351.50
491.54	353.95
491.90	356.66
492.26	359.35
492.63	362.19
492.99	364.88
493.36	367.96
493.72	371.24
494.08	374.76
494.45	378.43
494.81	382.28
495.17	386.15
495.54	390.16
495.90	394.36
496.26	398.86
496.63	403.52
496.99	408.31
497.35	413.40
497.72	418.66
498.08	424.03
498.44	429.71
498.80	435.85
499.17	441.87
499.53	448.23
499.89	454.90
500.26	461.64
500.62	468.73
500.98	476.12
501.34	483.54
501.71	491.20
502.07	499.05
502.43	507.34
502.79	515.80
503.16	524.65
503.52	533.62
503.88	542.81
504.24	552.33
504.60	562.30
504.97	572.55
505.33	583.17
505.69	594.39
506.05	605.54
506.41	616.71
506.78	628.43
507.14	640.52
507.50	652.87
507.86	665.55
508.22	678.64
508.59	691.70
508.95	705.47
509.31	719.70
509.67	734.21
510.03	748.59
510.39	763.52
510.75	778.58
511.12	793.91
511.48	809.60
511.84	825.51
512.20	841.49
512.56	857.85
512.92	874.51
513.28	891.26
513.64	908.57
514.00	926.30
514.37	944.05
514.73	962.19
515.09	980.25
515.45	998.89
515.81	1017.34
516.17	1036.11
516.53	1054.76
516.89	1073.52
517.25	1092.78
517.61	1113.04
517.97	1133.27
518.33	1153.31
518.69	1173.78
519.05	1194.56
519.41	1215.35
519.77	1236.70
520.13	1257.53
520.49	1278.43
520.85	1300.82
521.21	1322.08
521.57	1343.65
521.93	1364.41
522.29	1385.69
522.65	1406.60
523.01	1427.65
523.37	1448.25
523.73	1469.58
524.09	1490.31
524.45	1511.35
524.81	1532.25
525.17	1552.91
525.53	1573.66
525.89	1594.95
526.25	1615.81
526.61	1636.23
526.97	1657.07
527.33	1678.58
527.68	1700.74
528.04	1722.06
528.40	1741.80
528.76	1762.80
529.12	1782.70
529.48	1803.99
529.84	1824.12
530.20	1845.36
530.56	1866.05
530.91	1887.45
531.27	1908.00
531.63	1929.04
531.99	1949.72
532.35	1969.99
532.71	1990.38
533.07	2010.76
533.42	2030.72
533.78	2050.82
534.14	2070.83
534.50	2090.16
534.86	2108.95
535.21	2126.45
535.57	2144.86
535.93	2162.79
536.29	2180.79
536.65	2199.29
537.00	2216.73
537.36	2234.47
537.72	2251.33
538.08	2268.58
538.44	2285.15
538.79	2301.30
539.15	2317.78
539.51	2333.54
539.87	2349.11
540.22	2363.49
540.58	2378.08
540.94	2391.64
541.29	2404.47
541.65	2417.44
542.01	2430.23
542.37	2440.98
542.72	2452.38
543.08	2463.64
543.44	2475.42
543.79	2485.37
544.15	2495.39
544.51	2505.58
544.87	2515.41
545.22	2524.39
545.58	2532.35
545.94	2539.67
546.29	2546.64
546.65	2552.93
547.01	2558.60
547.36	2564.17
547.72	2569.42
548.07	2573.37
548.43	2578.65
548.79	2583.12
549.14	2586.97
549.50	2590.76
549.86	2594.88
550.21	2598.50
550.57	2601.56
550.92	2602.89
551.28	2604.34
551.64	2606.39
551.99	2608.39
552.35	2609.68
552.70	2611.47
553.06	2612.90
553.41	2614.08
553.77	2615.55
554.13	2617.14
554.48	2618.86
554.84	2620.11
555.19	2621.52
555.55	2623.36
555.90	2622.18
556.26	2621.67
556.61	2620.29
556.97	2618.42
557.32	2617.94
557.68	2616.57
558.03	2615.15
558.39	2614.04
558.74	2613.21
559.10	2610.55
559.45	2607.29
559.81	2602.88
560.16	2597.98
560.52	2593.50
560.87	2589.13
561.23	2583.73
561.58	2577.63
561.94	2570.48
562.29	2563.05
562.64	2556.34
563.00	2548.15
563.35	2541.93
563.71	2535.13
564.06	2528.84
564.42	2522.15
564.77	2515.26
565.12	2507.66
565.48	2499.85
565.83	2491.75
566.19	2484.07
566.54	2476.18
566.89	2467.70
567.25	2460.13
567.60	2452.84
567.96	2444.93
568.31	2436.91
568.66	2428.38
569.02	2419.53
569.37	2411.73
569.72	2404.16
570.08	2394.30
570.43	2384.85
570.78	2375.62
571.14	2366.47
571.49	2356.26
571.84	2346.50
572.20	2335.50
572.55	2325.65
572.90	2314.50
573.26	2304.26
573.61	2292.97
573.96	2281.75
574.31	2269.99
574.67	2258.13
575.02	2245.22
575.37	2232.54
575.72	2219.57
576.08	2207.48
576.43	2194.91
576.78	2181.56
577.13	2167.83
577.49	2155.35
577.84	2143.19
578.19	2130.88
578.54	2117.85
578.90	2105.88
579.25	2093.56
579.60	2081.23
579.95	2067.95
580.30	2055.22
580.66	2041.88
581.01	2028.05
581.36	2013.65
581.71	2000.87
582.06	1988.01
582.42	1975.58
582.77	1962.81
583.12	1950.62
583.47	1938.31
583.82	1926.33
584.17	1914.62
584.53	1902.85
584.88	1889.83
585.23	1876.65
585.58	1862.31
585.93	1849.17
586.28	1835.60
586.63	1821.62
586.98	1807.30
587.34	1794.17
587.69	1780.48
588.04	1767.84
588.39	1755.98
588.74	1744.05
589.09	1731.57
589.44	1718.68
589.79	1706.18
590.14	1694.36
590.49	1682.11
590.84	1669.68
591.19	1657.44
591.54	1644.65
591.89	1632.47
592.25	1621.85
592.60	1610.49
592.95	1599.35
593.30	1587.26
593.65	1575.25
594.00	1563.06
594.35	1553.41
594.70	1541.47
595.05	1530.34
595.40	1518.08
595.75	1505.77
596.10	1494.40
596.45	1482.94
596.80	1471.95
597.15	1460.91
597.50	1448.87
597.85	1437.35
598.19	1425.85
598.54	1414.14
598.89	1402.91
599.24	1392.15
599.59	1380.60
599.94	1369.90
600.29	1359.23
600.64	1348.80
600.99	1337.96
601.34	1328.68
601.69	1316.97
602.04	1307.08
602.39	1297.29
602.74	1288.17
603.08	1278.84
603.43	1269.51
603.78	1260.05
604.13	1250.42
604.48	1240.48
604.83	1230.70
605.18	1221.15
605.53	1211.55
605.87	1202.23
606.22	1193.94
606.57	1184.46
606.92	1174.97
607.27	1165.78
607.62	1157.02
607.96	1148.49
608.31	1140.72
608.66	1132.04
609.01	1123.60
609.36	1114.91
609.70	1106.21
610.05	1097.15
610.40	1088.52
610.75	1079.71
611.10	1070.97
611.44	1062.18
611.79	1053.88
612.14	1046.28
612.49	1038.10
612.83	1030.54
613.18	1023.09
613.53	1015.01
613.88	1006.75
614.22	999.18
614.57	991.22
614.92	983.41
615.27	975.72
615.61	967.92
615.96	960.21
616.31	952.54
616.65	945.54
617.00	938.01
617.35	930.90
617.70	923.54
618.04	916.44
618.39	909.63
618.74	903.31
619.08	896.40
619.43	889.27
619.78	882.13
620.12	874.90
620.47	867.73
620.82	860.63
621.16	854.09
621.51	847.60
621.85	841.00
622.20	834.28
622.55	827.70
622.89	821.12
623.24	814.73
623.59	808.25
623.93	801.78
624.28	795.66
624.62	790.05
624.97	784.37
625.32	778.47
625.66	772.32
626.01	766.22
626.35	760.57
626.70	754.76
627.04	749.70
627.39	743.98
627.73	738.66
628.08	733.22
628.43	727.60
628.77	722.03
629.12	716.90
629.46	712.05
629.81	707.15
630.15	702.25
630.50	697.31
630.84	692.53
631.19	687.77
631.53	683.27
631.88	677.77
632.22	672.96
632.57	668.47
632.91	663.93
633.26	659.46
633.60	654.77
633.95	650.22
634.29	645.22
634.64	640.80
634.98	636.04
635.32	631.80
635.67	627.66
636.01	623.43
636.36	618.91
636.70	614.76
637.05	610.55
637.39	606.35
637.73	602.34
638.08	598.27
638.42	593.98
638.77	589.57
639.11	585.32
639.45	580.92
639.80	576.45
640.14	572.28
640.49	568.17
640.83	564.35
641.17	560.77
641.52	557.13
641.86	553.62
642.20	550.33
642.55	546.56
642.89	543.12
643.23	539.58
643.58	536.48
643.92	532.80
644.26	529.41
644.61	526.13
644.95	522.61
645.29	519.20
645.64	516.05
645.98	513.00
646.32	510.14
646.66	507.05
647.01	504.04
647.35	501.33
647.69	498.34
648.04	495.52
648.38	492.52
648.72	489.59
649.06	486.50
649.41	483.47
649.75	480.59
650.09	477.76
650.43	474.82
650.78	471.85
651.12	469.08
651.46	466.26
651.80	463.43
652.14	460.77
652.49	458.17
652.83	455.49
653.17	452.81
653.51	450.04
653.85	447.57
654.20	445.10
654.54	442.37
654.88	439.84
655.22	437.54
655.56	435.15
655.90	432.80
656.25	430.57
656.59	428.32
656.93	426.00
657.27	423.82
657.61	421.47
657.95	419.23
658.29	417.08
658.64	414.90
658.98	412.68
659.32	410.49
659.66	408.32
660.00	406.25
660.34	404.22
660.68	402.20
661.02	400.08
661.36	398.07
661.70	396.06
662.05	394.07
662.39	391.96
662.73	390.05
663.07	388.41
663.41	386.54
663.75	384.54
664.09	382.68
664.43	380.68
664.77	379.01
665.11	377.26
665.45	375.59
665.79	373.95
666.13	372.24
666.47	370.45
666.81	368.73
667.15	366.92
667.49	365.31
667.83	363.93
668.17	362.42
668.51	360.99
668.85	359.63
669.19	358.45
669.53	356.95
669.87	355.31
670.21	353.60
670.55	352.25
670.89	351.13
671.23	349.84
671.57	348.45
671.91	347.12
672.25	345.81
672.58	344.57
672.92	343.05
673.26	341.79
673.60	340.54
673.94	339.40
674.28	338.35
674.62	337.26
674.96	335.88
675.30	334.75
675.64	333.58
675.97	332.32
676.31	330.95
676.65	329.65
676.99	328.81
677.33	327.75
677.67	326.64
678.01	325.29
678.34	324.23
678.68	323.29
679.02	322.16
679.36	321.09
679.70	320.01
680.04	319.20
680.37	318.25
680.71	317.34
681.05	316.43
681.39	315.48
681.73	314.44
682.06	313.60
682.40	312.78
682.74	311.95
683.08	311.29
683.42	310.46
683.75	309.76
684.09	308.78
684.43	307.96
684.77	307.15
685.10	306.40
685.44	305.63
685.78	304.76
686.12	304.01
686.45	303.19
686.79	302.34
687.13	301.62
687.46	300.87
687.80	300.20
688.14	299.40
688.48	298.62
688.81	297.85
689.15	297.23
689.49	296.42
689.82	295.73
690.16	294.74
690.50	294.00
690.83	293.27
691.17	292.57
691.51	291.82
691.84	291.17
692.18	290.44
692.52	289.68
692.85	289.11
693.19	288.81
693.52	288.26
693.86	287.58
694.20	286.95
694.53	286.29
694.87	285.68
695.21	285.04
695.54	284.61
695.88	284.02
696.21	283.19
696.55	282.67
696.88	282.04
697.22	281.52
697.56	281.08
697.89	280.44
698.23	279.86
698.56	279.33
698.90	278.85
699.23	278.24
699.57	277.79
699.90	277.14
700.24	276.35
700.58	275.81
700.91	275.43
701.25	275.26
701.58	275.15
701.92	274.72
702.25	274.32
702.59	273.79
702.92	273.35
703.26	273.03
703.59	272.54
703.93	272.41
704.26	272.04
704.60	271.49
704.93	271.07
705.26	270.65
705.60	270.30
705.93	269.66
706.27	269.44
706.60	269.08
706.94	268.92
707.27	268.47
707.61	268.16
707.94	267.65
708.27	266.90
708.61	266.14
708.94	265.69
709.28	265.32
709.61	264.77
709.94	264.42
710.28	263.97
710.61	263.61
710.95	262.81
711.28	262.76
711.61	262.45
711.95	262.15
712.28	261.76
712.61	261.34
712.95	261.36
713.28	261.17
713.61	260.67
713.95	260.13
714.28	259.89
714.61	259.43
714.95	259.10
715.28	258.65
715.61	258.33
715.95	258.08
716.28	257.62
716.61	257.42
716.95	257.04
717.28	256.75
717.61	256.46
717.94	256.20
718.28	255.44
718.61	255.14
718.94	254.79
719.27	254.55
719.61	254.30
719.94	253.83
720.27	253.31
720.60	253.03
720.94	252.77
721.27	252.57
721.60	252.41
721.93	252.22
722.27	252.24
722.60	252.10
722.93	251.83
723.26	251.69
723.59	251.47
723.93	251.33
724.26	251.18
724.59	250.86
724.92	250.76
725.25	250.78
725.59	250.50
725.92	250.40
726.25	250.26
726.58	250.13
726.91	249.97
727.24	249.88
727.57	249.78
727.91	249.56
728.24	249.41
728.57	249.18
728.90	249.07
729.23	248.72
729.56	248.76
729.89	248.55
730.22	248.34
730.55	248.09
730.89	247.90
731.22	247.72
731.55	247.60
731.88	247.37
732.21	247.11
732.54	246.99
732.87	246.86
733.20	246.70
733.53	246.51
733.86	246.39
734.19	246.16
734.52	246.10
734.85	246.35
735.18	246.08
735.51	246.08
735.84	245.89
736.17	245.84
736.50	245.43
736.83	245.83
737.16	245.66
737.49	245.59
737.82	245.47
738.15	245.40
738.48	245.28
738.81	245.13
739.14	245.04
739.47	244.78
739.80	244.60
740.13	244.46
740.46	244.29
740.79	244.07
741.12	243.93
741.45	243.67
741.78	243.24
742.11	243.24
742.44	242.96
742.77	242.85
743.10	242.61
743.43	242.52
743.75	241.89
744.08	242.33
744.41	242.19
744.74	242.02
745.07	241.76
745.40	241.68
745.73	241.76
746.06	241.62
746.39	241.60
746.71	241.43
747.04	241.22
747.37	241.02
747.70	240.95
748.03	240.90
748.36	240.85
748.68	240.74
749.01	240.52
749.34	240.50
749.67	240.39
750.00	240.36
750.33	240.50
750.65	240.44
750.98	239.81
751.31	239.72
751.64	239.59
751.97	239.77
752.29	239.61
752.62	239.26
752.95	239.07
753.28	238.94
753.60	238.77
753.93	238.83
754.26	238.76
754.59	238.57
754.91	238.42
755.24	238.38
755.57	238.24
755.90	238.09
756.22	237.90
756.55	237.73
756.88	237.58
757.20	237.20
757.53	236.94
757.86	236.78
758.19	236.66
758.51	236.60
758.84	236.22
759.17	236.07
759.49	236.01
759.82	236.14
760.15	236.08
760.47	236.03
760.80	235.80
761.13	235.82
761.45	235.70
761.78	235.60
762.11	235.44
762.43	235.24
762.76	235.14
763.08	235.06
763.41	235.02
763.74	234.95
764.06	234.82
764.39	234.76
764.71	234.63
765.04	234.52
765.37	234.37
765.69	234.32
766.02	234.32
766.34	234.25
766.67	234.00
767.00	234.02
767.32	234.15
767.65	234.33
767.97	234.20
768.30	234.24
768.62	234.07
768.95	234.03
769.27	234.03
769.60	234.02
769.92	233.89
770.25	233.72
770.57	233.55
770.90	233.45
771.22	233.39
771.55	233.46
771.87	233.43
772.20	233.35
772.52	233.68
772.85	234.15
773.17	234.09
773.50	234.03
773.82	233.89
774.15	233.64
774.47	233.28
774.80	233.15
775.12	233.02
775.45	233.02
775.77	232.91
776.09	232.92
776.42	232.87
776.74	233.01
777.07	233.00
777.39	233.05
777.72	232.99
778.04	233.02
778.36	232.88
778.69	232.83
779.01	232.90
779.33	232.47
779.66	231.92
779.98	231.82
780.31	231.76
780.63	231.96
780.95	231.98
781.28	231.98
781.60	231.92
781.92	231.90
782.25	231.87
782.57	231.82
782.89	231.74
783.22	231.70
783.54	231.54
783.86	231.50
784.19	231.40
784.51	231.46
784.83	231.31
785.16	231.25
785.48	231.15
785.80	231.03
786.12	231.05
786.45	230.94
786.77	230.93
787.09	230.87
787.42	230.67
787.74	230.68
788.06	230.67
788.38	230.62
788.71	230.54
789.03	230.49
789.35	230.55
789.67	230.44
789.99	230.44
790.32	230.32
790.64	230.38
790.96	230.71
791.28	230.59
791.61	230.59
791.93	230.58
792.25	230.59
792.57	230.89
792.89	230.76
793.21	230.74
793.54	230.72
793.86	230.67
794.18	230.64
794.50	230.45
794.82	230.43
795.14	230.46
795.47	230.56
795.79	230.54
796.11	230.40
796.43	230.37
796.75	230.35
797.07	230.39
797.39	230.32
797.71	229.97
798.04	229.92
798.36	229.86
798.68	229.88
799.00	229.87
799.32	229.61
799.64	229.65
799.96	229.64
800.28	229.66
800.60	229.65
800.92	229.67
801.24	229.69
801.56	229.69
801.89	229.65
802.21	229.64
802.53	229.63
802.85	229.74
803.17	229.95
803.49	229.80
803.81	229.78
804.13	229.73
804.45	229.67
804.77	229.70
805.09	229.74
805.41	229.67
805.73	229.62
806.05	229.53
806.37	229.43
806.69	229.34
807.01	229.33
807.33	229.30
807.65	229.15
807.97	229.38
808.28	229.33
808.60	229.21
808.92	229.08
809.24	229.33
809.56	229.23
809.88	229.04
810.20	229.13
810.52	229.23
810.84	229.18
811.16	229.13
811.48	229.11
811.80	229.30
812.12	229.28
812.43	229.34
812.75	229.32
813.07	229.37
813.39	229.43
813.71	229.32
814.03	229.30
814.35	229.29
814.67	229.07
814.98	229.00
815.30	229.09
815.62	229.07
815.94	228.73
816.26	228.91
816.58	228.83
816.89	228.78
817.21	228.66
817.53	228.72
817.85	228.69
