SpectraSuite Data File
++++++++++++++++++++++++++++++++++++
Date: Wed Sep 04 17:58:26 EDT 2013
User: lab3
Dark Spectrum Present: Yes
Reference Spectrum Present: No
Number of Sampled Component Spectra: 1
Spectrometers: USB2E7196
Integration Time (usec): 170000 (USB2E7196)
Spectra Averaged: 20 (USB2E7196)
Boxcar Smoothing: 10 (USB2E7196)
Correct for Electrical Dark: No (USB2E7196)
Strobe/Lamp Enabled: No (USB2E7196)
Correct for Detector Non-linearity: No (USB2E7196)
Correct for Stray Light: No (USB2E7196)
Number of Pixels in Processed Spectrum: 2048
>>>>>Begin Processed Spectral Data<<<<<
339.09	0.00
339.48	213.45
339.86	215.95
340.24	216.40
340.63	217.45
341.01	226.05
341.39	220.20
341.78	222.40
342.16	223.70
342.54	223.65
342.93	212.53
343.31	223.25
343.69	223.76
344.07	224.22
344.46	224.71
344.84	225.20
345.22	225.15
345.60	225.47
345.99	225.63
346.37	225.72
346.75	225.86
347.13	225.90
347.52	225.98
347.90	226.28
348.28	226.30
348.66	226.41
349.05	226.30
349.43	226.43
349.81	226.40
350.19	226.51
350.57	226.55
350.96	226.66
351.34	226.76
351.72	226.90
352.10	226.95
352.48	226.93
352.87	226.90
353.25	227.03
353.63	227.05
354.01	227.10
354.39	227.25
354.77	227.30
355.15	227.48
355.54	227.55
355.92	227.45
356.30	227.51
356.68	227.90
357.06	228.10
357.44	228.10
357.82	228.12
358.20	228.55
358.58	228.56
358.97	228.57
359.35	228.74
359.73	228.90
360.11	229.00
360.49	229.11
360.87	229.19
361.25	229.30
361.63	229.53
362.01	229.66
362.39	229.67
362.77	229.73
363.15	229.82
363.53	229.85
363.91	229.86
364.29	229.91
364.67	229.50
365.05	229.47
365.43	229.56
365.81	229.71
366.19	229.54
366.57	229.79
366.95	229.79
367.33	229.68
367.71	229.60
368.09	229.73
368.47	229.73
368.85	229.70
369.23	229.80
369.61	229.56
369.99	229.71
370.37	229.73
370.75	229.99
371.13	229.79
371.51	229.73
371.89	229.83
372.27	229.86
372.65	229.85
373.03	229.80
373.41	229.72
373.78	229.69
374.16	229.40
374.54	229.22
374.92	229.21
375.30	229.16
375.68	229.05
376.06	228.97
376.44	228.85
376.82	228.83
377.19	228.70
377.57	228.65
377.95	228.40
378.33	228.26
378.71	227.87
379.09	227.92
379.47	227.86
379.84	227.68
380.22	227.54
380.60	227.36
380.98	227.26
381.36	227.18
381.73	227.01
382.11	227.08
382.49	227.02
382.87	226.86
383.25	226.73
383.62	227.22
384.00	227.05
384.38	227.05
384.76	227.06
385.13	227.15
385.51	227.06
385.89	226.92
386.27	226.92
386.64	226.92
387.02	226.82
387.40	226.78
387.78	226.76
388.15	226.68
388.53	226.64
388.91	226.57
389.29	226.51
389.66	226.53
390.04	226.43
390.42	226.38
390.79	226.36
391.17	226.39
391.55	225.84
391.92	225.79
392.30	225.76
392.68	225.65
393.05	225.58
393.43	225.61
393.81	225.72
394.18	225.67
394.56	225.72
394.94	225.83
395.31	225.78
395.69	225.90
396.06	226.00
396.44	226.09
396.82	226.15
397.19	226.41
397.57	226.41
397.95	226.53
398.32	226.51
398.70	226.65
399.07	226.82
399.45	226.97
399.82	227.07
400.20	227.16
400.58	227.30
400.95	227.26
401.33	227.52
401.70	227.90
402.08	228.04
402.45	228.12
402.83	228.39
403.20	228.57
403.58	228.67
403.95	229.01
404.33	229.26
404.71	229.50
405.08	229.91
405.46	230.14
405.83	230.37
406.21	230.69
406.58	230.99
406.96	231.26
407.33	231.52
407.70	231.92
408.08	232.67
408.45	233.01
408.83	233.56
409.20	233.87
409.58	234.15
409.95	234.73
410.33	235.32
410.70	235.65
411.08	236.29
411.45	236.94
411.82	237.49
412.20	238.24
412.57	239.25
412.95	239.70
413.32	240.63
413.69	241.48
414.07	242.35
414.44	243.38
414.82	244.37
415.19	245.62
415.56	246.74
415.94	247.75
416.31	249.25
416.68	250.55
417.06	252.24
417.43	253.84
417.81	255.61
418.18	257.42
418.55	259.41
418.93	261.45
419.30	263.61
419.67	265.80
420.04	267.99
420.42	270.24
420.79	273.34
421.16	276.19
421.54	279.28
421.91	282.33
422.28	285.37
422.66	288.76
423.03	292.30
423.40	295.65
423.77	299.11
424.15	302.84
424.52	306.74
424.89	311.01
425.26	314.95
425.64	318.74
426.01	322.98
426.38	327.45
426.75	332.04
427.13	336.64
427.50	341.46
427.87	346.49
428.24	351.53
428.61	355.95
428.99	361.35
429.36	366.87
429.73	372.42
430.10	378.02
430.47	383.64
430.85	389.21
431.22	395.60
431.59	402.50
431.96	408.79
432.33	415.74
432.70	422.25
433.08	430.22
433.45	437.73
433.82	445.09
434.19	453.29
434.56	461.45
434.93	469.12
435.30	477.03
435.68	485.73
436.05	494.15
436.42	502.64
436.79	510.22
437.16	518.52
437.53	527.31
437.90	536.02
438.27	544.71
438.64	553.67
439.01	561.82
439.38	569.17
439.75	576.28
440.13	584.48
440.50	592.13
440.87	598.15
441.24	604.51
441.61	611.56
441.98	616.64
442.35	622.51
442.72	628.59
443.09	634.39
443.46	637.83
443.83	640.04
444.20	642.07
444.57	644.86
444.94	645.85
445.31	647.10
445.68	648.60
446.05	648.68
446.42	647.39
446.79	645.99
447.16	644.23
447.53	642.79
447.90	639.01
448.27	635.35
448.64	630.46
449.01	626.76
449.37	620.50
449.74	614.38
450.11	607.43
450.48	599.52
450.85	591.40
451.22	584.40
451.59	577.86
451.96	571.33
452.33	563.14
452.70	555.86
453.07	547.01
453.43	537.69
453.80	529.25
454.17	521.02
454.54	513.30
454.91	505.07
455.28	497.05
455.65	489.55
456.02	482.55
456.38	476.13
456.75	468.23
457.12	461.75
457.49	455.45
457.86	448.96
458.23	443.78
458.59	438.05
458.96	432.39
459.33	427.29
459.70	422.31
460.07	418.11
460.43	413.42
460.80	409.14
461.17	405.39
461.54	401.46
461.91	397.71
462.27	393.78
462.64	390.49
463.01	386.96
463.38	383.53
463.74	379.59
464.11	376.50
464.48	373.99
464.85	371.09
465.21	368.92
465.58	366.66
465.95	363.78
466.32	361.51
466.68	359.17
467.05	356.90
467.42	354.60
467.78	352.27
468.15	350.11
468.52	348.46
468.88	346.21
469.25	344.21
469.62	342.81
469.98	341.20
470.35	339.74
470.72	338.23
471.08	336.51
471.45	335.32
471.82	334.16
472.18	332.70
472.55	331.67
472.92	330.36
473.28	329.15
473.65	328.19
474.02	327.10
474.38	326.20
474.75	325.44
475.11	324.53
475.48	323.99
475.85	323.38
476.21	322.81
476.58	322.41
476.94	322.05
477.31	321.57
477.67	321.20
478.04	320.87
478.41	320.75
478.77	321.07
479.14	320.65
479.50	320.56
479.87	320.68
480.23	320.67
480.60	320.69
480.96	320.78
481.33	321.14
481.69	321.47
482.06	321.64
482.42	321.89
482.79	322.27
483.15	322.62
483.52	323.23
483.88	323.70
484.25	324.22
484.61	324.83
484.98	325.43
485.34	326.40
485.71	327.32
486.07	328.28
486.44	328.92
486.80	330.10
487.17	331.25
487.53	332.55
487.90	334.00
488.26	335.60
488.62	337.37
488.99	338.85
489.35	340.53
489.72	342.43
490.08	344.37
490.44	346.43
490.81	348.72
491.17	350.94
491.54	353.44
491.90	355.99
492.26	358.71
492.63	361.58
492.99	364.39
493.36	367.49
493.72	370.79
494.08	374.16
494.45	377.90
494.81	381.85
495.17	385.61
495.54	389.77
495.90	394.02
496.26	398.44
496.63	403.22
496.99	408.09
497.35	413.18
497.72	418.44
498.08	423.80
498.44	429.38
498.80	435.47
499.17	441.50
499.53	447.79
499.89	454.45
500.26	461.28
500.62	468.31
500.98	475.73
501.34	483.24
501.71	491.06
502.07	498.71
502.43	506.70
502.79	515.11
503.16	523.74
503.52	532.68
503.88	541.84
504.24	551.50
504.60	561.48
504.97	571.85
505.33	582.23
505.69	593.53
506.05	604.65
506.41	615.77
506.78	627.55
507.14	639.69
507.50	651.81
507.86	664.39
508.22	677.36
508.59	690.37
508.95	704.08
509.31	718.26
509.67	732.69
510.03	747.08
510.39	761.90
510.75	777.19
511.12	792.59
511.48	808.31
511.84	823.98
512.20	839.85
512.56	856.01
512.92	872.88
513.28	889.71
513.64	907.04
514.00	924.60
514.37	942.36
514.73	960.62
515.09	979.04
515.45	997.47
515.81	1015.96
516.17	1034.76
516.53	1053.17
516.89	1071.71
517.25	1091.34
517.61	1111.64
517.97	1131.97
518.33	1151.77
518.69	1171.85
519.05	1192.53
519.41	1213.29
519.77	1234.43
520.13	1255.45
520.49	1276.21
520.85	1297.54
521.21	1318.89
521.57	1340.28
521.93	1361.23
522.29	1382.40
522.65	1403.18
523.01	1424.26
523.37	1445.18
523.73	1466.57
524.09	1487.31
524.45	1508.27
524.81	1529.10
525.17	1549.63
525.53	1570.50
525.89	1591.65
526.25	1613.05
526.61	1633.40
526.97	1654.64
527.33	1675.85
527.68	1697.55
528.04	1719.14
528.40	1740.12
528.76	1760.91
529.12	1781.29
529.48	1801.85
529.84	1821.97
530.20	1843.25
530.56	1864.20
530.91	1885.28
531.27	1905.82
531.63	1926.73
531.99	1947.65
532.35	1967.97
532.71	1988.49
533.07	2009.07
533.42	2029.17
533.78	2048.97
534.14	2069.24
534.50	2087.96
534.86	2107.74
535.21	2125.60
535.57	2144.10
535.93	2161.85
536.29	2179.61
536.65	2198.12
537.00	2216.12
537.36	2233.96
537.72	2250.37
538.08	2267.62
538.44	2284.10
538.79	2300.45
539.15	2317.15
539.51	2332.97
539.87	2347.74
540.22	2361.94
540.58	2376.28
540.94	2389.49
541.29	2402.10
541.65	2414.54
542.01	2427.58
542.37	2437.84
542.72	2448.95
543.08	2459.58
543.44	2471.00
543.79	2481.14
544.15	2491.02
544.51	2501.26
544.87	2510.91
545.22	2519.76
545.58	2527.50
545.94	2535.10
546.29	2541.73
546.65	2548.13
547.01	2553.90
547.36	2560.06
547.72	2565.36
548.07	2569.12
548.43	2574.46
548.79	2579.20
549.14	2582.89
549.50	2586.41
549.86	2590.53
550.21	2594.56
550.57	2598.11
550.92	2599.64
551.28	2601.30
551.64	2603.95
551.99	2605.45
552.35	2607.15
552.70	2609.55
553.06	2611.43
553.41	2612.44
553.77	2614.24
554.13	2615.62
554.48	2617.22
554.84	2618.55
555.19	2620.11
555.55	2622.34
555.90	2621.78
556.26	2621.07
556.61	2619.95
556.97	2618.07
557.32	2617.19
557.68	2615.80
558.03	2613.99
558.39	2612.71
558.74	2611.68
559.10	2608.23
559.45	2604.53
559.81	2600.09
560.16	2594.78
560.52	2589.53
560.87	2585.02
561.23	2579.42
561.58	2573.70
561.94	2566.79
562.29	2559.44
562.64	2552.56
563.00	2543.98
563.35	2537.38
563.71	2530.73
564.06	2524.75
564.42	2518.67
564.77	2511.88
565.12	2504.25
565.48	2496.76
565.83	2488.61
566.19	2480.82
566.54	2472.76
566.89	2464.90
567.25	2457.12
567.60	2450.03
567.96	2442.91
568.31	2435.17
568.66	2426.70
569.02	2417.59
569.37	2409.24
569.72	2401.38
570.08	2391.66
570.43	2382.40
570.78	2373.46
571.14	2364.07
571.49	2353.79
571.84	2343.74
572.20	2332.94
572.55	2322.88
572.90	2311.76
573.26	2301.70
573.61	2290.33
573.96	2279.30
574.31	2267.41
574.67	2255.55
575.02	2242.71
575.37	2229.62
575.72	2216.31
576.08	2204.02
576.43	2191.22
576.78	2178.08
577.13	2164.39
577.49	2151.61
577.84	2139.48
578.19	2127.15
578.54	2114.46
578.90	2102.45
579.25	2089.89
579.60	2077.16
579.95	2064.26
580.30	2051.46
580.66	2037.99
581.01	2024.43
581.36	2010.38
581.71	1997.96
582.06	1984.85
582.42	1972.10
582.77	1959.47
583.12	1947.57
583.47	1935.28
583.82	1923.57
584.17	1911.51
584.53	1899.63
584.88	1886.61
585.23	1873.39
585.58	1859.35
585.93	1846.00
586.28	1832.50
586.63	1818.77
586.98	1804.68
587.34	1791.29
587.69	1778.00
588.04	1765.27
588.39	1753.32
588.74	1741.07
589.09	1728.79
589.44	1716.25
589.79	1704.55
590.14	1692.73
590.49	1680.42
590.84	1668.23
591.19	1656.17
591.54	1644.30
591.89	1631.96
592.25	1621.94
592.60	1610.48
592.95	1598.78
593.30	1586.78
593.65	1574.68
594.00	1562.54
594.35	1552.66
594.70	1540.70
595.05	1529.22
595.40	1517.07
595.75	1504.91
596.10	1493.75
596.45	1482.06
596.80	1470.97
597.15	1459.16
597.50	1447.16
597.85	1435.69
598.19	1423.94
598.54	1411.98
598.89	1400.40
599.24	1389.86
599.59	1378.02
599.94	1367.11
600.29	1356.76
600.64	1346.40
600.99	1335.72
601.34	1326.12
601.69	1314.91
602.04	1304.92
602.39	1294.90
602.74	1285.88
603.08	1276.46
603.43	1267.07
603.78	1257.26
604.13	1247.59
604.48	1237.96
604.83	1228.34
605.18	1218.36
605.53	1208.69
605.87	1199.56
606.22	1190.96
606.57	1181.61
606.92	1172.27
607.27	1163.33
607.62	1154.45
607.96	1145.95
608.31	1137.79
608.66	1129.24
609.01	1120.64
609.36	1112.15
609.70	1103.74
610.05	1094.83
610.40	1086.35
610.75	1077.51
611.10	1069.20
611.44	1060.50
611.79	1052.15
612.14	1044.34
612.49	1036.65
612.83	1029.23
613.18	1021.32
613.53	1013.39
613.88	1005.33
614.22	997.41
614.57	989.35
614.92	981.45
615.27	973.94
615.61	966.35
615.96	958.75
616.31	951.29
616.65	944.15
617.00	936.75
617.35	929.47
617.70	922.31
618.04	915.22
618.39	908.19
618.74	901.83
619.08	895.07
619.43	887.63
619.78	880.46
620.12	873.40
620.47	866.56
620.82	859.35
621.16	852.63
621.51	846.33
621.85	840.20
622.20	833.52
622.55	826.77
622.89	820.45
623.24	813.99
623.59	807.58
623.93	801.22
624.28	795.18
624.62	789.60
624.97	783.76
625.32	777.98
625.66	772.10
626.01	765.82
626.35	760.16
626.70	754.85
627.04	749.71
627.39	744.05
627.73	738.57
628.08	733.49
628.43	728.09
628.77	722.61
629.12	717.21
629.46	712.43
629.81	707.64
630.15	702.65
630.50	697.74
630.84	692.76
631.19	687.95
631.53	683.28
631.88	677.89
632.22	672.95
632.57	668.30
632.91	663.70
633.26	659.30
633.60	654.60
633.95	649.83
634.29	644.92
634.64	640.37
634.98	635.75
635.32	631.21
635.67	627.30
636.01	623.17
636.36	618.68
636.70	614.38
637.05	610.17
637.39	606.12
637.73	601.95
638.08	597.92
638.42	593.66
638.77	589.29
639.11	585.07
639.45	580.74
639.80	576.28
640.14	572.02
640.49	567.86
640.83	564.01
641.17	560.30
641.52	556.45
641.86	552.95
642.20	549.74
642.55	546.12
642.89	542.37
643.23	538.71
643.58	535.55
643.92	531.85
644.26	528.36
644.61	524.93
644.95	521.66
645.29	518.19
645.64	515.17
645.98	511.98
646.32	508.93
646.66	505.91
647.01	503.01
647.35	500.25
647.69	497.47
648.04	494.66
648.38	491.79
648.72	489.05
649.06	485.97
649.41	482.87
649.75	479.89
650.09	476.88
650.43	474.04
650.78	471.05
651.12	468.38
651.46	465.55
651.80	462.79
652.14	460.01
652.49	457.64
652.83	454.98
653.17	452.36
653.51	449.57
653.85	447.12
654.20	444.74
654.54	442.07
654.88	439.49
655.22	437.21
655.56	434.76
655.90	432.33
656.25	430.11
656.59	427.90
656.93	425.70
657.27	423.62
657.61	421.21
657.95	419.04
658.29	416.82
658.64	414.72
658.98	412.40
659.32	410.28
659.66	407.99
660.00	405.75
660.34	403.75
660.68	401.88
661.02	399.83
661.36	397.79
661.70	395.83
662.05	393.92
662.39	391.94
662.73	390.21
663.07	388.59
663.41	386.64
663.75	384.68
664.09	382.79
664.43	380.78
664.77	379.12
665.11	377.32
665.45	375.67
665.79	373.99
666.13	372.24
666.47	370.49
666.81	368.87
667.15	367.24
667.49	365.60
667.83	364.21
668.17	362.77
668.51	361.24
668.85	359.87
669.19	358.77
669.53	357.11
669.87	355.58
670.21	353.99
670.55	352.79
670.89	351.65
671.23	350.30
671.57	348.96
671.91	347.65
672.25	346.33
672.58	345.15
672.92	343.76
673.26	342.63
673.60	341.40
673.94	340.18
674.28	339.07
674.62	337.94
674.96	336.52
675.30	335.22
675.64	333.98
675.97	332.72
676.31	331.20
676.65	330.00
676.99	329.11
677.33	327.89
677.67	326.68
678.01	325.32
678.34	324.24
678.68	323.33
679.02	322.26
679.36	321.24
679.70	320.13
680.04	319.23
680.37	318.17
680.71	317.27
681.05	316.38
681.39	315.39
681.73	314.48
682.06	313.68
682.40	312.82
682.74	312.02
683.08	311.30
683.42	310.43
683.75	309.62
684.09	308.61
684.43	307.85
684.77	306.99
685.10	306.26
685.44	305.51
685.78	304.60
686.12	303.79
686.45	303.04
686.79	302.20
687.13	301.47
687.46	300.76
687.80	300.05
688.14	299.23
688.48	298.54
688.81	297.77
689.15	297.16
689.49	296.39
689.82	295.76
690.16	294.88
690.50	294.22
690.83	293.59
691.17	292.74
691.51	292.09
691.84	291.47
692.18	290.70
692.52	289.92
692.85	289.41
693.19	288.96
693.52	288.33
693.86	287.68
694.20	287.02
694.53	286.45
694.87	285.77
695.21	285.11
695.54	284.46
695.88	283.86
696.21	283.01
696.55	282.50
696.88	281.86
697.22	281.30
697.56	280.68
697.89	280.04
698.23	279.54
698.56	279.01
698.90	278.54
699.23	277.99
699.57	277.53
699.90	276.97
700.24	276.26
700.58	275.77
700.91	275.39
701.25	275.30
701.58	275.08
701.92	274.77
702.25	274.30
702.59	273.79
702.92	273.31
703.26	273.03
703.59	272.52
703.93	272.52
704.26	272.09
704.60	271.76
704.93	271.32
705.26	270.83
705.60	270.39
705.93	269.77
706.27	269.48
706.60	269.12
706.94	268.88
707.27	268.44
707.61	268.06
707.94	267.64
708.27	266.83
708.61	266.03
708.94	265.59
709.28	265.24
709.61	264.92
709.94	264.50
710.28	264.08
710.61	263.74
710.95	262.85
711.28	262.86
711.61	262.46
711.95	262.21
712.28	261.90
712.61	261.51
712.95	261.47
713.28	261.41
713.61	261.02
713.95	260.48
714.28	260.23
714.61	259.83
714.95	259.42
715.28	259.07
715.61	258.86
715.95	258.54
716.28	258.20
716.61	257.94
716.95	257.65
717.28	257.31
717.61	257.00
717.94	256.72
718.28	256.04
718.61	255.64
718.94	255.31
719.27	255.00
719.61	254.80
719.94	254.40
720.27	253.92
720.60	253.72
720.94	253.47
721.27	253.27
721.60	253.10
721.93	252.96
722.27	252.90
722.60	252.75
722.93	252.41
723.26	252.28
723.59	252.03
723.93	251.94
724.26	251.78
724.59	251.46
724.92	251.28
725.25	251.26
725.59	251.14
725.92	251.00
726.25	250.89
726.58	250.72
726.91	250.53
727.24	250.40
727.57	250.23
727.91	250.03
728.24	249.92
728.57	249.73
728.90	249.43
729.23	249.14
729.56	249.16
729.89	249.07
730.22	248.82
730.55	248.65
730.89	248.45
731.22	248.20
731.55	248.09
731.88	247.95
732.21	247.63
732.54	247.42
732.87	247.20
733.20	247.00
733.53	246.81
733.86	246.65
734.19	246.36
734.52	246.26
734.85	246.40
735.18	246.05
735.51	246.08
735.84	246.01
736.17	245.92
736.50	245.43
736.83	245.82
737.16	245.72
737.49	245.57
737.82	245.38
738.15	245.30
738.48	245.14
738.81	244.99
739.14	244.80
739.47	244.65
739.80	244.46
740.13	244.43
740.46	244.14
740.79	243.93
741.12	243.82
741.45	243.53
741.78	243.11
742.11	243.15
742.44	242.80
742.77	242.70
743.10	242.43
743.43	242.34
743.75	241.61
744.08	242.02
744.41	241.79
744.74	241.64
745.07	241.46
745.40	241.51
745.73	241.51
746.06	241.50
746.39	241.41
746.71	241.30
747.04	241.03
747.37	240.93
747.70	240.94
748.03	240.81
748.36	240.80
748.68	240.65
749.01	240.38
749.34	240.30
749.67	240.24
750.00	240.25
750.33	240.50
750.65	240.50
750.98	239.80
751.31	239.72
751.64	239.55
751.97	239.76
752.29	239.62
752.62	239.34
752.95	239.13
753.28	238.96
753.60	238.85
753.93	238.89
754.26	238.86
754.59	238.65
754.91	238.46
755.24	238.35
755.57	238.32
755.90	238.21
756.22	238.09
756.55	237.90
756.88	237.70
757.20	237.20
757.53	236.98
757.86	236.80
758.19	236.77
758.51	236.68
758.84	236.26
759.17	236.01
759.49	235.96
759.82	236.12
760.15	236.02
760.47	235.89
760.80	235.64
761.13	235.60
761.45	235.44
761.78	235.37
762.11	235.21
762.43	235.05
762.76	234.97
763.08	234.95
763.41	234.86
763.74	234.74
764.06	234.68
764.39	234.55
764.71	234.58
765.04	234.43
765.37	234.38
765.69	234.34
766.02	234.33
766.34	234.19
766.67	233.89
767.00	233.93
767.32	234.18
767.65	234.41
767.97	234.33
768.30	234.26
768.62	234.13
768.95	234.03
769.27	233.91
769.60	233.92
769.92	233.72
770.25	233.60
770.57	233.47
770.90	233.43
771.22	233.39
771.55	233.27
771.87	233.20
772.20	233.10
772.52	233.42
772.85	233.85
773.17	233.82
773.50	233.73
773.82	233.61
774.15	233.34
774.47	233.02
774.80	232.88
775.12	232.89
775.45	232.91
775.77	232.96
776.09	232.95
776.42	232.85
776.74	232.93
777.07	232.87
777.39	232.87
777.72	232.82
778.04	232.79
778.36	232.67
778.69	232.60
779.01	232.60
779.33	232.15
779.66	231.59
779.98	231.54
780.31	231.54
780.63	231.69
780.95	231.62
781.28	231.53
781.60	231.41
781.92	231.38
782.25	231.38
782.57	231.25
782.89	231.24
783.22	231.19
783.54	231.05
783.86	231.06
784.19	230.97
784.51	231.03
784.83	230.97
785.16	230.92
785.48	230.93
785.80	230.85
786.12	230.83
786.45	230.79
786.77	230.74
787.09	230.70
787.42	230.51
787.74	230.52
788.06	230.50
788.38	230.54
788.71	230.40
789.03	230.31
789.35	230.32
789.67	230.25
789.99	230.27
790.32	230.30
790.64	230.26
790.96	230.60
791.28	230.44
791.61	230.40
791.93	230.42
792.25	230.37
792.57	230.77
792.89	230.66
793.21	230.69
793.54	230.59
793.86	230.49
794.18	230.45
794.50	230.33
794.82	230.35
795.14	230.41
795.47	230.53
795.79	230.48
796.11	230.37
796.43	230.32
796.75	230.27
797.07	230.16
797.39	230.15
797.71	229.79
798.04	229.84
798.36	229.79
798.68	229.81
799.00	229.85
799.32	229.60
799.64	229.69
799.96	229.69
800.28	229.81
800.60	229.78
800.92	229.78
801.24	229.84
801.56	229.87
801.89	229.80
802.21	229.76
802.53	229.74
802.85	229.82
803.17	230.01
803.49	229.97
803.81	229.94
804.13	229.87
804.45	229.85
804.77	229.90
805.09	229.89
805.41	229.82
805.73	229.73
806.05	229.57
806.37	229.58
806.69	229.50
807.01	229.45
807.33	229.47
807.65	229.33
807.97	229.48
808.28	229.39
808.60	229.30
808.92	229.27
809.24	229.58
809.56	229.57
809.88	229.35
810.20	229.36
810.52	229.47
810.84	229.35
811.16	229.32
811.48	229.19
811.80	229.41
812.12	229.37
812.43	229.43
812.75	229.34
813.07	229.28
813.39	229.31
813.71	229.18
814.03	229.11
814.35	229.14
814.67	228.91
814.98	228.83
815.30	228.85
815.62	228.74
815.94	228.32
816.26	228.47
816.58	228.47
816.89	228.44
817.21	228.32
817.53	228.38
817.85	228.40
