SpectraSuite Data File
++++++++++++++++++++++++++++++++++++
Date: Wed Sep 04 17:56:31 EDT 2013
User: lab3
Dark Spectrum Present: Yes
Reference Spectrum Present: No
Number of Sampled Component Spectra: 1
Spectrometers: USB2E7196
Integration Time (usec): 170000 (USB2E7196)
Spectra Averaged: 20 (USB2E7196)
Boxcar Smoothing: 10 (USB2E7196)
Correct for Electrical Dark: No (USB2E7196)
Strobe/Lamp Enabled: No (USB2E7196)
Correct for Detector Non-linearity: No (USB2E7196)
Correct for Stray Light: No (USB2E7196)
Number of Pixels in Processed Spectrum: 2048
>>>>>Begin Processed Spectral Data<<<<<
339.09	0.00
339.48	211.65
339.86	215.35
340.24	215.35
340.63	216.55
341.01	225.30
341.39	220.10
341.78	221.30
342.16	224.35
342.54	223.90
342.93	212.28
343.31	222.99
343.69	223.55
344.07	224.01
344.46	224.52
344.84	224.97
345.22	224.98
345.60	225.31
345.99	225.58
346.37	225.69
346.75	225.77
347.13	225.80
347.52	225.86
347.90	226.11
348.28	226.12
348.66	226.23
349.05	226.11
349.43	226.17
349.81	226.22
350.19	226.23
350.57	226.37
350.96	226.43
351.34	226.51
351.72	226.70
352.10	226.80
352.48	226.83
352.87	226.89
353.25	226.96
353.63	226.97
354.01	226.92
354.39	226.96
354.77	227.01
355.15	227.25
355.54	227.23
355.92	227.10
356.30	227.17
356.68	227.53
357.06	227.61
357.44	227.61
357.82	227.69
358.20	228.14
358.58	228.21
358.97	228.27
359.35	228.43
359.73	228.54
360.11	228.57
360.49	228.69
360.87	228.76
361.25	228.82
361.63	229.02
362.01	229.13
362.39	229.19
362.77	229.32
363.15	229.30
363.53	229.36
363.91	229.47
364.29	229.55
364.67	229.11
365.05	229.14
365.43	229.26
365.81	229.28
366.19	229.19
366.57	229.38
366.95	229.40
367.33	229.31
367.71	229.32
368.09	229.39
368.47	229.37
368.85	229.34
369.23	229.46
369.61	229.33
369.99	229.49
370.37	229.53
370.75	229.73
371.13	229.65
371.51	229.67
371.89	229.69
372.27	229.68
372.65	229.80
373.03	229.86
373.41	229.79
373.78	229.72
374.16	229.36
374.54	229.14
374.92	229.06
375.30	229.02
375.68	228.92
376.06	228.85
376.44	228.76
376.82	228.71
377.19	228.62
377.57	228.52
377.95	228.30
378.33	228.21
378.71	227.86
379.09	227.82
379.47	227.74
379.84	227.66
380.22	227.54
380.60	227.35
380.98	227.19
381.36	227.12
381.73	227.07
382.11	227.17
382.49	227.13
382.87	227.00
383.25	226.95
383.62	227.51
384.00	227.43
384.38	227.38
384.76	227.50
385.13	227.66
385.51	227.63
385.89	227.48
386.27	227.39
386.64	227.37
387.02	227.30
387.40	227.15
387.78	227.05
388.15	227.05
388.53	226.97
388.91	226.94
389.29	226.87
389.66	226.89
390.04	226.69
390.42	226.76
390.79	226.77
391.17	226.72
391.55	226.11
391.92	226.10
392.30	226.15
392.68	225.95
393.05	225.85
393.43	225.86
393.81	225.96
394.18	225.92
394.56	225.98
394.94	226.11
395.31	226.14
395.69	226.29
396.06	226.36
396.44	226.47
396.82	226.46
397.19	226.79
397.57	226.77
397.95	226.96
398.32	226.74
398.70	226.85
399.07	227.03
399.45	227.06
399.82	227.20
400.20	227.26
400.58	227.34
400.95	227.24
401.33	227.43
401.70	227.87
402.08	228.02
402.45	228.12
402.83	228.33
403.20	228.54
403.58	228.63
403.95	228.85
404.33	229.05
404.71	229.32
405.08	229.77
405.46	230.05
405.83	230.32
406.21	230.73
406.58	231.10
406.96	231.35
407.33	231.67
407.70	231.97
408.08	232.72
408.45	233.22
408.83	233.75
409.20	234.08
409.58	234.26
409.95	234.82
410.33	235.46
410.70	235.86
411.08	236.49
411.45	237.14
411.82	237.76
412.20	238.55
412.57	239.54
412.95	239.87
413.32	240.75
413.69	241.56
414.07	242.48
414.44	243.33
414.82	244.43
415.19	245.67
415.56	246.87
415.94	247.80
416.31	249.23
416.68	250.64
417.06	252.35
417.43	253.95
417.81	255.72
418.18	257.48
418.55	259.34
418.93	261.37
419.30	263.52
419.67	265.75
420.04	268.06
420.42	270.27
420.79	273.34
421.16	276.09
421.54	279.18
421.91	282.12
422.28	285.33
422.66	288.60
423.03	292.04
423.40	295.38
423.77	298.96
424.15	302.46
424.52	306.32
424.89	310.45
425.26	314.43
425.64	318.21
426.01	322.37
426.38	326.91
426.75	331.41
427.13	335.78
427.50	340.54
427.87	345.40
428.24	350.41
428.61	354.90
428.99	360.24
429.36	365.74
429.73	371.35
430.10	376.84
430.47	382.47
430.85	388.10
431.22	394.30
431.59	401.10
431.96	407.35
432.33	414.18
432.70	420.97
433.08	428.86
433.45	436.23
433.82	443.66
434.19	451.87
434.56	460.03
434.93	467.94
435.30	475.65
435.68	484.34
436.05	492.76
436.42	501.16
436.79	508.87
437.16	517.23
437.53	526.06
437.90	534.70
438.27	543.27
438.64	552.20
439.01	560.55
439.38	567.87
439.75	575.28
440.13	583.35
440.50	590.75
440.87	596.88
441.24	603.22
441.61	610.23
441.98	615.18
442.35	621.00
442.72	626.92
443.09	632.88
443.46	636.22
443.83	638.57
444.20	640.43
444.57	643.25
444.94	644.28
445.31	645.40
445.68	646.74
446.05	646.92
446.42	645.65
446.79	644.11
447.16	642.34
447.53	640.79
447.90	637.08
448.27	633.46
448.64	628.62
449.01	624.90
449.37	618.56
449.74	612.59
450.11	605.64
450.48	597.90
450.85	589.77
451.22	582.95
451.59	576.36
451.96	570.15
452.33	561.91
452.70	554.52
453.07	545.71
453.43	536.62
453.80	528.26
454.17	520.11
454.54	512.51
454.91	504.34
455.28	496.38
455.65	489.05
456.02	482.10
456.38	475.69
456.75	468.02
457.12	461.56
457.49	455.30
457.86	448.96
458.23	443.81
458.59	438.13
458.96	432.32
459.33	427.17
459.70	422.06
460.07	417.98
460.43	413.35
460.80	409.11
461.17	405.39
461.54	401.23
461.91	397.53
462.27	393.66
462.64	390.36
463.01	386.83
463.38	383.44
463.74	379.53
464.11	376.44
464.48	373.85
464.85	371.10
465.21	368.90
465.58	366.64
465.95	363.65
466.32	361.41
466.68	359.17
467.05	356.91
467.42	354.64
467.78	352.28
468.15	350.08
468.52	348.48
468.88	346.33
469.25	344.53
469.62	342.95
469.98	341.27
470.35	339.84
470.72	338.33
471.08	336.63
471.45	335.28
471.82	334.05
472.18	332.59
472.55	331.42
472.92	330.19
473.28	329.06
473.65	328.18
474.02	327.05
474.38	326.17
474.75	325.46
475.11	324.59
475.48	323.95
475.85	323.38
476.21	322.70
476.58	322.14
476.94	321.72
477.31	321.19
477.67	320.73
478.04	320.33
478.41	320.17
478.77	320.47
479.14	320.23
479.50	320.15
479.87	320.16
480.23	320.34
480.60	320.31
480.96	320.29
481.33	320.61
481.69	320.86
482.06	321.07
482.42	321.40
482.79	321.74
483.15	322.22
483.52	322.80
483.88	323.25
484.25	323.80
484.61	324.39
484.98	325.11
485.34	326.12
485.71	327.05
486.07	328.10
486.44	328.70
486.80	329.80
487.17	330.85
487.53	332.20
487.90	333.47
488.26	335.02
488.62	336.78
488.99	338.31
489.35	340.15
489.72	342.01
490.08	343.91
490.44	345.98
490.81	348.15
491.17	350.38
491.54	352.87
491.90	355.48
492.26	358.31
492.63	361.10
492.99	363.92
493.36	367.05
493.72	370.32
494.08	373.78
494.45	377.47
494.81	381.55
495.17	385.51
495.54	389.77
495.90	394.09
496.26	398.38
496.63	402.99
496.99	407.70
497.35	412.77
497.72	417.99
498.08	423.46
498.44	429.15
498.80	435.21
499.17	441.34
499.53	447.74
499.89	454.34
500.26	461.33
500.62	468.35
500.98	475.76
501.34	483.15
501.71	490.81
502.07	498.60
502.43	506.65
502.79	515.06
503.16	523.68
503.52	532.59
503.88	541.94
504.24	551.54
504.60	561.48
504.97	571.87
505.33	582.38
505.69	593.55
506.05	604.56
506.41	615.79
506.78	627.57
507.14	639.62
507.50	651.95
507.86	664.44
508.22	677.44
508.59	690.30
508.95	704.06
509.31	718.32
509.67	732.56
510.03	746.81
510.39	761.47
510.75	776.59
511.12	791.80
511.48	807.56
511.84	823.23
512.20	839.33
512.56	855.36
512.92	872.08
513.28	888.95
513.64	906.30
514.00	923.70
514.37	941.24
514.73	959.36
515.09	977.67
515.45	996.19
515.81	1014.61
516.17	1033.74
516.53	1052.29
516.89	1070.81
517.25	1090.35
517.61	1110.38
517.97	1130.65
518.33	1150.88
518.69	1171.27
519.05	1191.87
519.41	1212.72
519.77	1233.75
520.13	1254.71
520.49	1275.37
520.85	1297.67
521.21	1318.75
521.57	1340.17
521.93	1360.70
522.29	1381.93
522.65	1402.38
523.01	1423.23
523.37	1443.93
523.73	1464.75
524.09	1485.40
524.45	1506.27
524.81	1526.87
525.17	1547.78
525.53	1568.50
525.89	1589.14
526.25	1609.99
526.61	1630.18
526.97	1651.21
527.33	1672.32
527.68	1694.10
528.04	1715.37
528.40	1735.00
528.76	1756.20
529.12	1776.81
529.48	1798.19
529.84	1818.33
530.20	1839.64
530.56	1860.47
530.91	1881.44
531.27	1901.91
531.63	1922.53
531.99	1943.13
532.35	1963.47
532.71	1983.44
533.07	2004.02
533.42	2024.10
533.78	2044.20
534.14	2064.13
534.50	2083.42
534.86	2102.71
535.21	2120.20
535.57	2138.71
535.93	2156.35
536.29	2174.12
536.65	2192.35
537.00	2209.94
537.36	2227.33
537.72	2243.50
538.08	2260.52
538.44	2276.99
538.79	2293.42
539.15	2310.39
539.51	2326.40
539.87	2341.34
540.22	2355.82
540.58	2370.31
540.94	2383.72
541.29	2396.28
541.65	2409.11
542.01	2421.64
542.37	2432.09
542.72	2443.22
543.08	2453.62
543.44	2465.59
543.79	2475.69
544.15	2485.46
544.51	2495.41
544.87	2505.22
545.22	2514.28
545.58	2522.05
545.94	2529.51
546.29	2536.25
546.65	2541.96
547.01	2547.77
547.36	2553.45
547.72	2558.55
548.07	2562.30
548.43	2567.58
548.79	2572.51
549.14	2576.49
549.50	2579.95
549.86	2583.98
550.21	2587.89
550.57	2591.73
550.92	2592.77
551.28	2593.87
551.64	2596.17
551.99	2597.93
552.35	2599.23
552.70	2601.53
553.06	2603.39
553.41	2604.51
553.77	2605.89
554.13	2607.45
554.48	2608.75
554.84	2610.19
555.19	2611.67
555.55	2613.45
555.90	2612.57
556.26	2611.63
556.61	2609.93
556.97	2608.03
557.32	2607.36
557.68	2605.94
558.03	2604.50
558.39	2603.10
558.74	2602.22
559.10	2598.75
559.45	2595.09
559.81	2590.85
560.16	2585.42
560.52	2580.34
560.87	2576.22
561.23	2571.15
561.58	2565.40
561.94	2558.81
562.29	2551.66
562.64	2544.44
563.00	2536.40
563.35	2529.62
563.71	2522.78
564.06	2516.80
564.42	2510.49
564.77	2503.55
565.12	2496.09
565.48	2488.20
565.83	2480.52
566.19	2472.60
566.54	2464.85
566.89	2457.12
567.25	2449.20
567.60	2442.44
567.96	2435.19
568.31	2427.04
568.66	2418.21
569.02	2409.19
569.37	2400.72
569.72	2393.25
570.08	2383.72
570.43	2374.23
570.78	2365.43
571.14	2355.87
571.49	2345.59
571.84	2336.00
572.20	2325.33
572.55	2315.50
572.90	2304.50
573.26	2294.08
573.61	2283.14
573.96	2272.09
574.31	2259.83
574.67	2248.34
575.02	2235.25
575.37	2222.31
575.72	2209.13
576.08	2197.38
576.43	2184.98
576.78	2171.80
577.13	2157.73
577.49	2145.06
577.84	2133.18
578.19	2120.84
578.54	2108.23
578.90	2095.88
579.25	2083.30
579.60	2070.54
579.95	2057.21
580.30	2044.02
580.66	2030.70
581.01	2017.20
581.36	2003.03
581.71	1990.65
582.06	1977.60
582.42	1965.25
582.77	1952.58
583.12	1940.47
583.47	1927.89
583.82	1915.78
584.17	1903.81
584.53	1891.97
584.88	1879.41
585.23	1865.69
585.58	1851.83
585.93	1838.66
586.28	1825.65
586.63	1811.54
586.98	1797.40
587.34	1784.35
587.69	1771.19
588.04	1758.38
588.39	1745.98
588.74	1734.04
589.09	1721.96
589.44	1709.23
589.79	1697.14
590.14	1685.37
590.49	1673.42
590.84	1661.25
591.19	1649.26
591.54	1636.94
591.89	1624.75
592.25	1614.51
592.60	1603.24
592.95	1591.86
593.30	1579.94
593.65	1568.02
594.00	1556.23
594.35	1546.56
594.70	1534.67
595.05	1523.31
595.40	1511.03
595.75	1499.02
596.10	1487.59
596.45	1475.68
596.80	1464.75
597.15	1453.25
597.50	1441.31
597.85	1429.70
598.19	1417.98
598.54	1406.29
598.89	1395.14
599.24	1384.80
599.59	1372.96
599.94	1362.19
600.29	1351.50
600.64	1341.25
600.99	1330.32
601.34	1320.57
601.69	1309.25
602.04	1299.48
602.39	1289.80
602.74	1280.85
603.08	1271.75
603.43	1262.54
603.78	1253.15
604.13	1243.54
604.48	1233.84
604.83	1224.20
605.18	1214.38
605.53	1205.08
605.87	1195.86
606.22	1187.33
606.57	1177.85
606.92	1168.40
607.27	1159.41
607.62	1150.83
607.96	1142.24
608.31	1134.58
608.66	1126.23
609.01	1117.78
609.36	1109.27
609.70	1100.62
610.05	1092.09
610.40	1083.51
610.75	1074.69
611.10	1066.18
611.44	1057.50
611.79	1049.17
612.14	1041.20
612.49	1033.54
612.83	1025.87
613.18	1018.13
613.53	1010.37
613.88	1002.32
614.22	994.73
614.57	986.95
614.92	979.00
615.27	971.45
615.61	963.47
615.96	955.78
616.31	948.33
616.65	941.03
617.00	933.90
617.35	926.63
617.70	919.54
618.04	912.51
618.39	905.56
618.74	899.07
619.08	892.18
619.43	885.18
619.78	878.01
620.12	870.80
620.47	863.92
620.82	856.63
621.16	849.90
621.51	843.73
621.85	837.27
622.20	830.63
622.55	823.98
622.89	817.41
623.24	811.13
623.59	804.74
623.93	798.41
624.28	792.05
624.62	786.41
624.97	780.48
625.32	774.70
625.66	768.66
626.01	762.48
626.35	756.96
626.70	751.42
627.04	746.16
627.39	740.69
627.73	735.39
628.08	730.32
628.43	724.94
628.77	719.24
629.12	713.96
629.46	709.17
629.81	704.49
630.15	699.87
630.50	695.00
630.84	690.14
631.19	685.45
631.53	681.11
631.88	675.78
632.22	670.70
632.57	666.25
632.91	661.73
633.26	657.52
633.60	652.87
633.95	648.31
634.29	643.65
634.64	639.11
634.98	634.30
635.32	629.90
635.67	625.98
636.01	621.83
636.36	617.52
636.70	613.27
637.05	608.98
637.39	604.73
637.73	600.63
638.08	596.70
638.42	592.50
638.77	588.05
639.11	583.89
639.45	579.78
639.80	575.26
640.14	571.12
640.49	567.01
640.83	563.18
641.17	559.42
641.52	555.50
641.86	552.05
642.20	548.83
642.55	545.06
642.89	541.29
643.23	537.82
643.58	534.61
643.92	530.96
644.26	527.65
644.61	524.43
644.95	521.10
645.29	517.66
645.64	514.43
645.98	511.27
646.32	508.37
646.66	505.24
647.01	502.36
647.35	499.68
647.69	496.91
648.04	494.07
648.38	491.28
648.72	488.64
649.06	485.55
649.41	482.55
649.75	479.72
650.09	476.82
650.43	473.90
650.78	470.93
651.12	468.25
651.46	465.33
651.80	462.54
652.14	459.74
652.49	457.18
652.83	454.62
653.17	451.99
653.51	449.15
653.85	446.78
654.20	444.15
654.54	441.49
654.88	438.77
655.22	436.52
655.56	434.07
655.90	431.62
656.25	429.41
656.59	427.13
656.93	424.92
657.27	422.85
657.61	420.44
657.95	418.20
658.29	415.91
658.64	413.85
658.98	411.60
659.32	409.31
659.66	407.07
660.00	404.97
660.34	402.86
660.68	400.88
661.02	398.82
661.36	396.93
661.70	394.91
662.05	393.09
662.39	391.15
662.73	389.23
663.07	387.56
663.41	385.76
663.75	383.85
664.09	381.95
664.43	379.90
664.77	378.36
665.11	376.62
665.45	375.00
665.79	373.37
666.13	371.66
666.47	370.02
666.81	368.42
667.15	366.67
667.49	365.14
667.83	363.80
668.17	362.26
668.51	360.83
668.85	359.38
669.19	358.08
669.53	356.44
669.87	354.96
670.21	353.36
670.55	351.89
670.89	350.74
671.23	349.31
671.57	348.00
671.91	346.53
672.25	345.17
672.58	344.03
672.92	342.48
673.26	341.19
673.60	339.97
673.94	338.80
674.28	337.70
674.62	336.60
674.96	335.23
675.30	334.03
675.64	332.92
675.97	331.79
676.31	330.47
676.65	329.20
676.99	328.27
677.33	327.00
677.67	325.96
678.01	324.65
678.34	323.58
678.68	322.57
679.02	321.55
679.36	320.60
679.70	319.31
680.04	318.34
680.37	317.42
680.71	316.54
681.05	315.54
681.39	314.62
681.73	313.69
682.06	312.78
682.40	311.97
682.74	311.06
683.08	310.30
683.42	309.40
683.75	308.68
684.09	307.65
684.43	306.98
684.77	306.06
685.10	305.28
685.44	304.50
685.78	303.74
686.12	302.93
686.45	302.11
686.79	301.43
687.13	300.83
687.46	300.16
687.80	299.56
688.14	298.67
688.48	297.95
688.81	297.20
689.15	296.59
689.49	295.80
689.82	295.03
690.16	294.19
690.50	293.55
690.83	292.87
691.17	292.22
691.51	291.55
691.84	290.96
692.18	290.26
692.52	289.62
692.85	289.04
693.19	288.64
693.52	288.00
693.86	287.40
694.20	286.79
694.53	286.10
694.87	285.40
695.21	284.81
695.54	284.20
695.88	283.50
696.21	282.79
696.55	282.30
696.88	281.70
697.22	281.15
697.56	280.68
697.89	280.06
698.23	279.58
698.56	278.99
698.90	278.54
699.23	278.03
699.57	277.56
699.90	277.02
700.24	276.35
700.58	275.90
700.91	275.48
701.25	275.33
701.58	275.15
701.92	274.81
702.25	274.42
702.59	273.94
702.92	273.58
703.26	273.14
703.59	272.65
703.93	272.60
704.26	272.11
704.60	271.62
704.93	271.22
705.26	270.70
705.60	270.37
705.93	269.79
706.27	269.57
706.60	269.31
706.94	269.06
707.27	268.66
707.61	268.37
707.94	267.99
708.27	267.15
708.61	266.44
708.94	265.95
709.28	265.63
709.61	265.29
709.94	264.92
710.28	264.52
710.61	264.13
710.95	263.35
711.28	263.37
711.61	263.04
711.95	262.71
712.28	262.32
712.61	261.91
712.95	261.84
713.28	261.58
713.61	261.05
713.95	260.60
714.28	260.24
714.61	259.82
714.95	259.43
715.28	259.06
715.61	258.78
715.95	258.42
716.28	258.06
716.61	257.77
716.95	257.42
717.28	257.20
717.61	256.87
717.94	256.58
718.28	255.91
718.61	255.50
718.94	255.18
719.27	254.95
719.61	254.71
719.94	254.28
720.27	253.80
720.60	253.53
720.94	253.24
721.27	253.03
721.60	252.89
721.93	252.56
722.27	252.49
722.60	252.32
722.93	252.01
723.26	251.78
723.59	251.47
723.93	251.33
724.26	251.08
724.59	250.87
724.92	250.72
725.25	250.67
725.59	250.50
725.92	250.30
726.25	249.99
726.58	249.83
726.91	249.66
727.24	249.51
727.57	249.34
727.91	249.04
728.24	248.94
728.57	248.67
728.90	248.58
729.23	248.22
729.56	248.21
729.89	248.06
730.22	247.77
730.55	247.61
730.89	247.39
731.22	247.20
731.55	246.96
731.88	246.75
732.21	246.41
732.54	246.17
732.87	245.98
733.20	245.87
733.53	245.68
733.86	245.53
734.19	245.26
734.52	245.13
734.85	245.27
735.18	244.91
735.51	244.86
735.84	244.74
736.17	244.74
736.50	244.35
736.83	244.76
737.16	244.68
737.49	244.54
737.82	244.37
738.15	244.34
738.48	244.23
738.81	244.05
739.14	243.87
739.47	243.76
739.80	243.68
740.13	243.55
740.46	243.38
740.79	243.16
741.12	243.04
741.45	242.90
741.78	242.60
742.11	242.66
742.44	242.42
742.77	242.37
743.10	242.13
743.43	241.95
743.75	241.27
744.08	241.81
744.41	241.66
744.74	241.49
745.07	241.20
745.40	241.14
745.73	241.22
746.06	241.11
746.39	241.01
746.71	240.84
747.04	240.71
747.37	240.57
747.70	240.57
748.03	240.49
748.36	240.37
748.68	240.22
749.01	239.90
749.34	239.79
749.67	239.65
750.00	239.68
750.33	239.96
750.65	240.00
750.98	239.25
751.31	239.10
751.64	239.03
751.97	239.17
752.29	238.99
752.62	238.69
752.95	238.68
753.28	238.56
753.60	238.41
753.93	238.42
754.26	238.37
754.59	238.16
754.91	238.02
755.24	237.90
755.57	237.77
755.90	237.74
756.22	237.60
756.55	237.33
756.88	237.09
757.20	236.67
757.53	236.36
757.86	236.30
758.19	236.31
758.51	236.25
758.84	235.95
759.17	235.85
759.49	235.75
759.82	235.84
760.15	235.81
760.47	235.75
760.80	235.53
761.13	235.50
761.45	235.33
761.78	235.23
762.11	235.17
762.43	235.11
762.76	234.91
763.08	234.96
763.41	235.03
763.74	235.03
764.06	234.91
764.39	234.90
764.71	234.85
765.04	234.70
765.37	234.49
765.69	234.38
766.02	234.26
766.34	234.18
766.67	233.88
767.00	233.91
767.32	234.13
767.65	234.35
767.97	234.25
768.30	234.26
768.62	234.26
768.95	234.17
769.27	234.07
769.60	234.15
769.92	233.89
770.25	233.73
770.57	233.52
770.90	233.49
771.22	233.38
771.55	233.27
771.87	233.26
772.20	233.25
772.52	233.66
772.85	234.34
773.17	234.23
773.50	234.12
773.82	233.99
774.15	233.72
774.47	233.44
774.80	233.37
775.12	233.31
775.45	233.19
775.77	233.16
776.09	233.11
776.42	233.07
776.74	233.25
777.07	233.16
777.39	233.15
777.72	233.10
778.04	233.05
778.36	232.95
778.69	232.89
779.01	232.93
779.33	232.41
779.66	231.73
779.98	231.68
780.31	231.68
780.63	231.82
780.95	231.80
781.28	231.76
781.60	231.62
781.92	231.51
782.25	231.54
782.57	231.47
782.89	231.41
783.22	231.35
783.54	231.20
783.86	231.10
784.19	231.05
784.51	231.03
784.83	230.98
785.16	230.92
785.48	230.90
785.80	230.84
786.12	230.79
786.45	230.75
786.77	230.84
787.09	230.82
787.42	230.64
787.74	230.61
788.06	230.53
788.38	230.50
788.71	230.46
789.03	230.40
789.35	230.44
789.67	230.31
789.99	230.30
790.32	230.18
790.64	230.31
790.96	230.68
791.28	230.52
791.61	230.43
791.93	230.46
792.25	230.40
792.57	230.71
792.89	230.62
793.21	230.59
793.54	230.53
793.86	230.40
794.18	230.37
794.50	230.20
794.82	230.12
795.14	230.15
795.47	230.27
795.79	230.23
796.11	230.13
796.43	230.09
796.75	230.11
797.07	230.16
797.39	230.12
797.71	229.72
798.04	229.79
798.36	229.82
798.68	229.76
799.00	229.76
799.32	229.54
799.64	229.64
799.96	229.64
800.28	229.69
800.60	229.76
800.92	229.71
801.24	229.75
801.56	229.74
801.89	229.74
802.21	229.74
802.53	229.67
802.85	229.73
803.17	230.01
803.49	229.85
803.81	229.76
804.13	229.66
804.45	229.62
804.77	229.57
805.09	229.57
805.41	229.54
805.73	229.56
806.05	229.36
806.37	229.33
806.69	229.26
807.01	229.18
807.33	229.15
807.65	228.98
807.97	229.19
808.28	229.21
808.60	229.14
808.92	229.00
809.24	229.30
809.56	229.20
809.88	229.07
810.20	229.07
810.52	229.17
810.84	229.16
811.16	229.09
811.48	229.07
811.80	229.27
812.12	229.22
812.43	229.15
812.75	229.22
813.07	229.16
813.39	229.15
813.71	229.04
814.03	228.97
814.35	229.03
814.67	228.80
814.98	228.71
815.30	228.69
815.62	228.61
815.94	228.28
816.26	228.44
816.58	228.23
816.89	228.27
817.21	228.19
817.53	228.16
817.85	228.24
