SpectraSuite Data File
++++++++++++++++++++++++++++++++++++
Date: Wed Sep 04 17:45:26 EDT 2013
User: lab3
Dark Spectrum Present: Yes
Reference Spectrum Present: No
Number of Sampled Component Spectra: 1
Spectrometers: USB2E7196
Integration Time (usec): 170000 (USB2E7196)
Spectra Averaged: 20 (USB2E7196)
Boxcar Smoothing: 10 (USB2E7196)
Correct for Electrical Dark: No (USB2E7196)
Strobe/Lamp Enabled: No (USB2E7196)
Correct for Detector Non-linearity: No (USB2E7196)
Correct for Stray Light: No (USB2E7196)
Number of Pixels in Processed Spectrum: 2048
>>>>>Begin Processed Spectral Data<<<<<
339.09	0.00
339.48	213.05
339.86	215.50
340.24	215.25
340.63	218.90
341.01	227.70
341.39	220.00
341.78	223.15
342.16	223.65
342.54	223.15
342.93	212.25
343.31	222.90
343.69	223.45
344.07	223.81
344.46	224.32
344.84	224.65
345.22	224.46
345.60	224.71
345.99	224.87
346.37	224.95
346.75	225.05
347.13	225.10
347.52	225.20
347.90	225.47
348.28	225.52
348.66	225.64
349.05	225.47
349.43	225.52
349.81	225.64
350.19	225.67
350.57	225.79
350.96	225.96
351.34	226.11
351.72	226.15
352.10	226.26
352.48	226.24
352.87	226.22
353.25	226.32
353.63	226.37
354.01	226.33
354.39	226.43
354.77	226.49
355.15	226.74
355.54	226.68
355.92	226.55
356.30	226.66
356.68	227.04
357.06	227.15
357.44	227.14
357.82	227.18
358.20	227.62
358.58	227.59
358.97	227.69
359.35	227.80
359.73	228.00
360.11	228.08
360.49	228.17
360.87	228.28
361.25	228.41
361.63	228.57
362.01	228.67
362.39	228.63
362.77	228.70
363.15	228.68
363.53	228.76
363.91	228.86
364.29	228.85
364.67	228.36
365.05	228.32
365.43	228.46
365.81	228.48
366.19	228.39
366.57	228.58
366.95	228.59
367.33	228.48
367.71	228.40
368.09	228.51
368.47	228.47
368.85	228.49
369.23	228.61
369.61	228.49
369.99	228.60
370.37	228.66
370.75	228.96
371.13	228.84
371.51	228.77
371.89	228.80
372.27	228.84
372.65	228.85
373.03	228.93
373.41	228.82
373.78	228.80
374.16	228.50
374.54	228.40
374.92	228.27
375.30	228.28
375.68	228.20
376.06	228.18
376.44	228.11
376.82	228.04
377.19	227.95
377.57	227.85
377.95	227.66
378.33	227.61
378.71	227.19
379.09	227.20
379.47	227.30
379.84	227.12
380.22	226.97
380.60	226.83
380.98	226.64
381.36	226.60
381.73	226.50
382.11	226.52
382.49	226.45
382.87	226.35
383.25	226.32
383.62	226.81
384.00	226.63
384.38	226.64
384.76	226.69
385.13	226.75
385.51	226.77
385.89	226.69
386.27	226.67
386.64	226.70
387.02	226.64
387.40	226.44
387.78	226.43
388.15	226.36
388.53	226.31
388.91	226.33
389.29	226.25
389.66	226.25
390.04	226.17
390.42	226.23
390.79	226.30
391.17	226.28
391.55	225.76
391.92	225.79
392.30	225.87
392.68	225.73
393.05	225.70
393.43	225.72
393.81	225.77
394.18	225.72
394.56	225.77
394.94	225.90
395.31	225.95
395.69	226.17
396.06	226.36
396.44	226.45
396.82	226.50
397.19	226.78
397.57	226.78
397.95	226.85
398.32	226.70
398.70	226.70
399.07	226.87
399.45	226.88
399.82	226.98
400.20	226.89
400.58	227.07
400.95	226.94
401.33	227.08
401.70	227.53
402.08	227.61
402.45	227.73
402.83	227.95
403.20	228.08
403.58	228.06
403.95	228.24
404.33	228.55
404.71	228.74
405.08	229.21
405.46	229.48
405.83	229.74
406.21	230.06
406.58	230.39
406.96	230.57
407.33	230.97
407.70	231.31
408.08	232.20
408.45	232.50
408.83	233.02
409.20	233.33
409.58	233.42
409.95	234.05
410.33	234.53
410.70	234.85
411.08	235.46
411.45	236.06
411.82	236.64
412.20	237.29
412.57	238.31
412.95	238.60
413.32	239.45
413.69	240.31
414.07	241.19
414.44	242.17
414.82	243.10
415.19	244.25
415.56	245.39
415.94	246.21
416.31	247.66
416.68	248.99
417.06	250.67
417.43	252.29
417.81	253.95
418.18	255.72
418.55	257.59
418.93	259.57
419.30	261.65
419.67	263.82
420.04	266.02
420.42	268.27
420.79	271.28
421.16	274.02
421.54	277.01
421.91	280.01
422.28	283.05
422.66	286.35
423.03	289.65
423.40	292.90
423.77	296.44
424.15	299.94
424.52	303.67
424.89	307.75
425.26	311.58
425.64	315.28
426.01	319.35
426.38	323.64
426.75	328.00
427.13	332.41
427.50	337.09
427.87	341.88
428.24	346.68
428.61	351.06
428.99	356.33
429.36	361.62
429.73	367.05
430.10	372.32
430.47	377.80
430.85	383.24
431.22	389.27
431.59	395.93
431.96	401.98
432.33	408.84
432.70	415.24
433.08	422.91
433.45	430.16
433.82	437.31
434.19	445.49
434.56	453.46
434.93	461.01
435.30	468.42
435.68	476.85
436.05	485.06
436.42	493.18
436.79	500.54
437.16	508.76
437.53	517.12
437.90	525.71
438.27	534.30
438.64	543.12
439.01	551.23
439.38	558.22
439.75	565.39
440.13	573.18
440.50	580.69
440.87	586.60
441.24	592.93
441.61	599.80
441.98	604.65
442.35	610.27
442.72	616.21
443.09	621.95
443.46	625.20
443.83	627.39
444.20	629.39
444.57	632.03
444.94	633.06
445.31	634.36
445.68	635.74
446.05	635.79
446.42	634.55
446.79	633.28
447.16	631.67
447.53	630.36
447.90	626.83
448.27	623.08
448.64	618.42
449.01	614.70
449.37	608.66
449.74	602.76
450.11	596.15
450.48	588.60
450.85	580.91
451.22	574.24
451.59	567.83
451.96	561.71
452.33	553.76
452.70	546.56
453.07	538.11
453.43	529.15
453.80	520.96
454.17	513.11
454.54	505.51
454.91	497.58
455.28	489.70
455.65	482.27
456.02	475.72
456.38	469.60
456.75	462.07
457.12	455.80
457.49	449.70
457.86	443.50
458.23	438.54
458.59	432.86
458.96	427.39
459.33	422.39
459.70	417.39
460.07	413.46
460.43	408.88
460.80	404.63
461.17	400.94
461.54	397.00
461.91	393.22
462.27	389.40
462.64	386.24
463.01	382.85
463.38	379.71
463.74	375.83
464.11	372.82
464.48	370.29
464.85	367.50
465.21	365.41
465.58	363.13
465.95	360.20
466.32	358.11
466.68	355.82
467.05	353.74
467.42	351.60
467.78	349.28
468.15	347.25
468.52	345.74
468.88	343.60
469.25	341.78
469.62	340.42
469.98	338.80
470.35	337.20
470.72	335.75
471.08	334.00
471.45	332.64
471.82	331.36
472.18	329.89
472.55	328.86
472.92	327.48
473.28	326.37
473.65	325.38
474.02	324.31
474.38	323.47
474.75	322.71
475.11	321.78
475.48	321.18
475.85	320.50
476.21	319.80
476.58	319.34
476.94	318.94
477.31	318.42
477.67	318.02
478.04	317.80
478.41	317.56
478.77	317.90
479.14	317.72
479.50	317.64
479.87	317.74
480.23	317.69
480.60	317.66
480.96	317.75
481.33	318.13
481.69	318.40
482.06	318.66
482.42	318.89
482.79	319.33
483.15	319.86
483.52	320.49
483.88	321.00
484.25	321.56
484.61	322.17
484.98	322.84
485.34	323.88
485.71	324.86
486.07	325.93
486.44	326.62
486.80	327.72
487.17	328.80
487.53	330.16
487.90	331.75
488.26	333.55
488.62	335.19
488.99	336.70
489.35	338.48
489.72	340.27
490.08	342.28
490.44	344.19
490.81	346.28
491.17	348.49
491.54	350.95
491.90	353.51
492.26	356.22
492.63	359.01
492.99	361.68
493.36	364.69
493.72	367.89
494.08	371.13
494.45	374.74
494.81	378.65
495.17	382.55
495.54	386.65
495.90	390.69
496.26	395.17
496.63	399.85
496.99	404.49
497.35	409.52
497.72	414.80
498.08	420.21
498.44	425.82
498.80	431.71
499.17	437.67
499.53	443.87
499.89	450.31
500.26	457.05
500.62	464.18
500.98	471.55
501.34	478.95
501.71	486.64
502.07	494.27
502.43	502.30
502.79	510.49
503.16	518.94
503.52	527.83
503.88	536.95
504.24	546.35
504.60	556.13
504.97	566.26
505.33	576.48
505.69	587.59
506.05	598.54
506.41	609.80
506.78	621.45
507.14	633.38
507.50	645.70
507.86	658.10
508.22	670.77
508.59	683.50
508.95	696.89
509.31	710.94
509.67	725.32
510.03	739.26
510.39	753.75
510.75	768.54
511.12	783.56
511.48	798.85
511.84	814.48
512.20	830.40
512.56	846.39
512.92	862.96
513.28	879.44
513.64	896.37
514.00	913.40
514.37	930.75
514.73	948.37
515.09	966.14
515.45	984.30
515.81	1002.38
516.17	1020.82
516.53	1039.20
516.89	1057.54
517.25	1076.09
517.61	1095.96
517.97	1115.71
518.33	1135.63
518.69	1155.55
519.05	1175.87
519.41	1195.95
519.77	1216.53
520.13	1236.76
520.49	1256.95
520.85	1277.22
521.21	1297.90
521.57	1318.81
521.93	1339.12
522.29	1360.01
522.65	1380.41
523.01	1400.96
523.37	1421.06
523.73	1441.82
524.09	1462.03
524.45	1482.06
524.81	1502.65
525.17	1522.73
525.53	1542.93
525.89	1563.23
526.25	1583.45
526.61	1602.91
526.97	1623.51
527.33	1644.05
527.68	1665.21
528.04	1686.06
528.40	1706.73
528.76	1727.36
529.12	1747.12
529.48	1767.56
529.84	1786.96
530.20	1807.53
530.56	1827.52
530.91	1848.03
531.27	1867.83
531.63	1887.79
531.99	1908.00
532.35	1927.72
532.71	1947.54
533.07	1967.61
533.42	1986.57
533.78	2005.71
534.14	2025.16
534.50	2043.25
534.86	2061.86
535.21	2078.88
535.57	2096.63
535.93	2113.55
536.29	2130.74
536.65	2148.46
537.00	2165.32
537.36	2182.36
537.72	2198.05
538.08	2214.43
538.44	2230.35
538.79	2246.01
539.15	2262.14
539.51	2277.56
539.87	2291.88
540.22	2304.89
540.58	2318.45
540.94	2331.29
541.29	2343.59
541.65	2355.72
542.01	2368.01
542.37	2377.69
542.72	2387.92
543.08	2397.62
543.44	2408.80
543.79	2417.97
544.15	2427.29
544.51	2436.71
544.87	2445.59
545.22	2453.63
545.58	2461.18
545.94	2467.97
546.29	2473.92
546.65	2479.30
547.01	2484.32
547.36	2489.45
547.72	2494.63
548.07	2498.16
548.43	2502.95
548.79	2506.82
549.14	2510.10
549.50	2513.07
549.86	2516.89
550.21	2520.51
550.57	2523.72
550.92	2524.63
551.28	2525.52
551.64	2527.24
551.99	2528.43
552.35	2529.57
552.70	2531.31
553.06	2532.46
553.41	2533.29
553.77	2534.41
554.13	2535.50
554.48	2536.53
554.84	2537.13
555.19	2537.82
555.55	2539.03
555.90	2538.03
556.26	2536.99
556.61	2535.64
556.97	2533.36
557.32	2532.35
557.68	2530.88
558.03	2528.85
558.39	2527.05
558.74	2525.73
559.10	2522.16
559.45	2518.24
559.81	2513.39
560.16	2507.61
560.52	2502.55
560.87	2497.66
561.23	2491.98
561.58	2486.10
561.94	2479.11
562.29	2471.82
562.64	2464.57
563.00	2456.20
563.35	2449.47
563.71	2442.68
564.06	2435.85
564.42	2429.35
564.77	2422.12
565.12	2414.61
565.48	2407.15
565.83	2399.34
566.19	2391.53
566.54	2383.35
566.89	2375.68
567.25	2368.22
567.60	2361.61
567.96	2353.94
568.31	2346.13
568.66	2337.70
569.02	2328.86
569.37	2320.60
569.72	2313.41
570.08	2304.44
570.43	2295.09
570.78	2285.74
571.14	2276.63
571.49	2266.60
571.84	2257.17
572.20	2246.84
572.55	2236.70
572.90	2225.70
573.26	2215.35
573.61	2204.37
573.96	2193.72
574.31	2181.82
574.67	2170.33
575.02	2157.74
575.37	2145.05
575.72	2132.24
576.08	2120.47
576.43	2107.81
576.78	2095.24
577.13	2081.63
577.49	2069.33
577.84	2057.88
578.19	2046.41
578.54	2034.18
578.90	2022.47
579.25	2010.28
579.60	1997.88
579.95	1985.17
580.30	1972.46
580.66	1959.74
581.01	1946.83
581.36	1933.43
581.71	1921.33
582.06	1908.59
582.42	1896.50
582.77	1884.46
583.12	1872.83
583.47	1861.01
583.82	1849.58
584.17	1837.75
584.53	1826.21
584.88	1813.62
585.23	1800.71
585.58	1787.28
585.93	1774.11
586.28	1761.30
586.63	1747.86
586.98	1734.26
587.34	1721.60
587.69	1708.97
588.04	1696.70
588.39	1684.85
588.74	1673.04
589.09	1661.24
589.44	1648.88
589.79	1637.30
590.14	1625.76
590.49	1613.76
590.84	1601.96
591.19	1590.13
591.54	1578.25
591.89	1566.51
592.25	1556.59
592.60	1545.46
592.95	1534.23
593.30	1523.03
593.65	1511.41
594.00	1499.84
594.35	1490.56
594.70	1479.16
595.05	1468.11
595.40	1456.51
595.75	1444.78
596.10	1433.85
596.45	1422.66
596.80	1412.41
597.15	1401.14
597.50	1389.66
597.85	1378.96
598.19	1367.72
598.54	1356.87
598.89	1346.20
599.24	1336.06
599.59	1324.85
599.94	1314.54
600.29	1304.66
600.64	1294.83
600.99	1284.65
601.34	1275.36
601.69	1264.34
602.04	1255.03
602.39	1245.69
602.74	1236.84
603.08	1227.85
603.43	1218.85
603.78	1209.59
604.13	1200.34
604.48	1191.01
604.83	1181.94
605.18	1172.71
605.53	1163.68
605.87	1154.75
606.22	1146.51
606.57	1137.54
606.92	1128.71
607.27	1120.23
607.62	1111.73
607.96	1103.47
608.31	1095.82
608.66	1087.80
609.01	1079.58
609.36	1071.23
609.70	1063.15
610.05	1054.90
610.40	1046.95
610.75	1038.66
611.10	1030.80
611.44	1022.44
611.79	1014.80
612.14	1007.22
612.49	999.67
612.83	992.55
613.18	985.03
613.53	977.37
613.88	969.85
614.22	962.44
614.57	954.86
614.92	947.16
615.27	939.83
615.61	932.35
615.96	925.25
616.31	918.10
616.65	911.37
617.00	904.34
617.35	897.32
617.70	890.51
618.04	883.75
618.39	876.91
618.74	870.90
619.08	864.32
619.43	857.65
619.78	850.75
620.12	843.74
620.47	837.22
620.82	830.36
621.16	823.85
621.51	817.71
621.85	811.65
622.20	805.30
622.55	799.14
622.89	793.33
623.24	787.16
623.59	781.17
623.93	775.11
624.28	769.32
624.62	763.88
624.97	758.21
625.32	752.61
625.66	746.92
626.01	740.98
626.35	735.55
626.70	730.12
627.04	725.09
627.39	719.87
627.73	714.82
628.08	710.04
628.43	704.74
628.77	699.60
629.12	694.38
629.46	689.90
629.81	685.34
630.15	680.57
630.50	675.85
630.84	671.26
631.19	666.84
631.53	662.43
631.88	657.49
632.22	652.90
632.57	648.70
632.91	644.36
633.26	640.25
633.60	635.82
633.95	631.38
634.29	626.92
634.64	622.72
634.98	618.16
635.32	614.06
635.67	610.44
636.01	606.32
636.36	602.25
636.70	598.27
637.05	594.17
637.39	590.12
637.73	586.22
638.08	582.39
638.42	578.18
638.77	573.98
639.11	569.81
639.45	565.57
639.80	561.29
640.14	557.36
640.49	553.46
640.83	549.77
641.17	546.35
641.52	542.78
641.86	539.31
642.20	536.26
642.55	532.65
642.89	528.89
643.23	525.56
643.58	522.61
643.92	519.21
644.26	515.88
644.61	512.85
644.95	509.72
645.29	506.53
645.64	503.54
645.98	500.56
646.32	497.88
646.66	495.00
647.01	492.23
647.35	489.68
647.69	486.80
648.04	484.22
648.38	481.35
648.72	478.64
649.06	475.76
649.41	472.70
649.75	469.80
650.09	467.07
650.43	464.22
650.78	461.28
651.12	458.50
651.46	455.81
651.80	453.01
652.14	450.27
652.49	447.77
652.83	445.35
653.17	442.82
653.51	440.21
653.85	438.00
654.20	435.50
654.54	432.89
654.88	430.53
655.22	428.33
655.56	426.05
655.90	423.74
656.25	421.48
656.59	419.37
656.93	417.37
657.27	415.46
657.61	413.12
657.95	411.04
658.29	408.88
658.64	406.93
658.98	404.76
659.32	402.59
659.66	400.37
660.00	398.30
660.34	396.32
660.68	394.34
661.02	392.33
661.36	390.52
661.70	388.63
662.05	386.85
662.39	384.83
662.73	383.11
663.07	381.56
663.41	379.91
663.75	378.00
664.09	376.21
664.43	374.24
664.77	372.85
665.11	371.15
665.45	369.62
665.79	368.00
666.13	366.46
666.47	364.88
666.81	363.45
667.15	361.76
667.49	360.36
667.83	359.18
668.17	357.73
668.51	356.31
668.85	355.07
669.19	353.94
669.53	352.52
669.87	351.07
670.21	349.49
670.55	348.17
670.89	347.27
671.23	345.95
671.57	344.68
671.91	343.44
672.25	342.29
672.58	341.13
672.92	339.69
673.26	338.59
673.60	337.55
673.94	336.35
674.28	335.29
674.62	334.12
674.96	332.70
675.30	331.52
675.64	330.36
675.97	329.13
676.31	327.75
676.65	326.59
676.99	325.59
677.33	324.37
677.67	323.34
678.01	322.00
678.34	320.94
678.68	320.17
679.02	319.10
679.36	317.96
679.70	316.90
680.04	316.01
680.37	315.07
680.71	314.05
681.05	313.14
681.39	312.30
681.73	311.37
682.06	310.55
682.40	309.71
682.74	308.91
683.08	308.30
683.42	307.36
683.75	306.66
684.09	305.85
684.43	305.23
684.77	304.38
685.10	303.71
685.44	302.93
685.78	302.06
686.12	301.30
686.45	300.64
686.79	299.84
687.13	299.21
687.46	298.38
687.80	297.74
688.14	297.06
688.48	296.34
688.81	295.56
689.15	294.92
689.49	294.16
689.82	293.52
690.16	292.58
690.50	292.03
690.83	291.28
691.17	290.41
691.51	289.69
691.84	289.04
692.18	288.27
692.52	287.60
692.85	287.02
693.19	286.58
693.52	286.00
693.86	285.39
694.20	284.74
694.53	284.18
694.87	283.61
695.21	282.93
695.54	282.36
695.88	281.80
696.21	281.20
696.55	280.65
696.88	280.00
697.22	279.37
697.56	278.85
697.89	278.22
698.23	277.75
698.56	277.24
698.90	276.81
699.23	276.20
699.57	275.73
699.90	275.15
700.24	274.47
700.58	274.05
700.91	273.66
701.25	273.52
701.58	273.41
701.92	272.98
702.25	272.54
702.59	271.95
702.92	271.60
703.26	271.09
703.59	270.72
703.93	270.71
704.26	270.46
704.60	270.03
704.93	269.69
705.26	269.32
705.60	268.98
705.93	268.50
706.27	268.34
706.60	268.04
706.94	267.85
707.27	267.44
707.61	266.98
707.94	266.62
708.27	265.90
708.61	265.17
708.94	264.76
709.28	264.35
709.61	263.94
709.94	263.62
710.28	263.26
710.61	262.89
710.95	262.10
711.28	261.95
711.61	261.61
711.95	261.35
712.28	260.98
712.61	260.61
712.95	260.42
713.28	260.21
713.61	259.86
713.95	259.36
714.28	259.06
714.61	258.71
714.95	258.36
715.28	257.97
715.61	257.67
715.95	257.42
716.28	257.08
716.61	256.92
716.95	256.55
717.28	256.23
717.61	255.90
717.94	255.60
718.28	254.97
718.61	254.61
718.94	254.25
719.27	253.99
719.61	253.69
719.94	253.45
720.27	252.98
720.60	252.69
720.94	252.41
721.27	252.24
721.60	252.08
721.93	251.73
722.27	251.73
722.60	251.59
722.93	251.28
723.26	251.14
723.59	250.86
723.93	250.73
724.26	250.62
724.59	250.40
724.92	250.29
725.25	250.24
725.59	250.02
725.92	249.88
726.25	249.65
726.58	249.51
726.91	249.17
727.24	249.03
727.57	248.76
727.91	248.52
728.24	248.31
728.57	248.04
728.90	247.95
729.23	247.55
729.56	247.58
729.89	247.37
730.22	247.24
730.55	247.08
730.89	246.80
731.22	246.59
731.55	246.45
731.88	246.23
732.21	245.97
732.54	245.80
732.87	245.66
733.20	245.56
733.53	245.35
733.86	245.25
734.19	245.02
734.52	245.05
734.85	245.26
735.18	245.02
735.51	245.00
735.84	244.85
736.17	244.85
736.50	244.45
736.83	244.89
737.16	244.70
737.49	244.53
737.82	244.39
738.15	244.31
738.48	244.08
738.81	243.94
739.14	243.69
739.47	243.51
739.80	243.29
740.13	243.13
740.46	242.92
740.79	242.72
741.12	242.55
741.45	242.32
741.78	241.89
742.11	241.89
742.44	241.68
742.77	241.61
743.10	241.37
743.43	241.14
743.75	240.52
744.08	241.00
744.41	240.84
744.74	240.66
745.07	240.35
745.40	240.37
745.73	240.36
746.06	240.31
746.39	240.32
746.71	240.18
747.04	239.97
747.37	239.88
747.70	239.80
748.03	239.70
748.36	239.60
748.68	239.45
749.01	239.19
749.34	239.00
749.67	238.91
750.00	238.93
750.33	239.21
750.65	239.11
750.98	238.39
751.31	238.34
751.64	238.25
751.97	238.51
752.29	238.38
752.62	238.10
752.95	237.98
753.28	237.79
753.60	237.66
753.93	237.66
754.26	237.62
754.59	237.40
754.91	237.31
755.24	237.20
755.57	237.15
755.90	237.03
756.22	236.93
756.55	236.74
756.88	236.51
757.20	236.15
757.53	235.90
757.86	235.78
758.19	235.72
758.51	235.63
758.84	235.16
759.17	234.99
759.49	234.96
759.82	235.11
760.15	235.02
760.47	234.97
760.80	234.80
761.13	234.83
761.45	234.73
761.78	234.66
762.11	234.57
762.43	234.41
762.76	234.36
763.08	234.34
763.41	234.30
763.74	234.30
764.06	234.17
764.39	234.10
764.71	234.03
765.04	233.93
765.37	233.82
765.69	233.85
766.02	233.80
766.34	233.65
766.67	233.33
767.00	233.41
767.32	233.51
767.65	233.71
767.97	233.60
768.30	233.63
768.62	233.55
768.95	233.49
769.27	233.47
769.60	233.52
769.92	233.39
770.25	233.22
770.57	233.01
770.90	232.92
771.22	232.84
771.55	232.77
771.87	232.77
772.20	232.70
772.52	233.00
772.85	233.55
773.17	233.51
773.50	233.51
773.82	233.32
774.15	233.10
774.47	232.79
774.80	232.63
775.12	232.59
775.45	232.56
775.77	232.49
776.09	232.40
776.42	232.32
776.74	232.44
777.07	232.37
777.39	232.41
777.72	232.38
778.04	232.45
778.36	232.40
778.69	232.31
779.01	232.36
779.33	231.96
779.66	231.32
779.98	231.31
780.31	231.28
780.63	231.43
780.95	231.46
781.28	231.35
781.60	231.22
781.92	231.13
782.25	231.10
782.57	231.04
782.89	231.02
783.22	230.88
783.54	230.72
783.86	230.75
784.19	230.61
784.51	230.66
784.83	230.50
785.16	230.37
785.48	230.29
785.80	230.20
786.12	230.19
786.45	230.16
786.77	230.12
787.09	230.03
787.42	229.87
787.74	229.86
788.06	229.86
788.38	229.86
788.71	229.77
789.03	229.70
789.35	229.77
789.67	229.62
789.99	229.63
790.32	229.51
790.64	229.53
790.96	229.94
791.28	229.76
791.61	229.73
791.93	229.78
792.25	229.78
792.57	230.02
792.89	229.82
793.21	229.85
793.54	229.79
793.86	229.66
794.18	229.64
794.50	229.47
794.82	229.43
795.14	229.42
795.47	229.48
795.79	229.48
796.11	229.33
796.43	229.32
796.75	229.31
797.07	229.40
797.39	229.31
797.71	228.93
798.04	228.95
798.36	228.96
798.68	228.97
799.00	228.98
799.32	228.80
799.64	228.93
799.96	228.87
800.28	228.87
800.60	228.88
800.92	228.84
801.24	228.78
801.56	228.88
801.89	228.87
802.21	228.86
802.53	228.81
802.85	228.86
803.17	229.07
803.49	228.93
803.81	228.80
804.13	228.72
804.45	228.66
804.77	228.67
805.09	228.65
805.41	228.60
805.73	228.48
806.05	228.34
806.37	228.31
806.69	228.23
807.01	228.18
807.33	228.20
807.65	228.07
807.97	228.34
808.28	228.26
808.60	228.28
808.92	228.19
809.24	228.46
809.56	228.37
809.88	228.25
810.20	228.32
810.52	228.43
810.84	228.40
811.16	228.35
811.48	228.32
811.80	228.46
812.12	228.43
812.43	228.51
812.75	228.49
813.07	228.41
813.39	228.44
813.71	228.40
814.03	228.32
814.35	228.38
814.67	228.20
814.98	228.10
815.30	228.02
815.62	227.99
815.94	227.60
816.26	227.78
816.58	227.63
816.89	227.70
817.21	227.58
817.53	227.57
817.85	227.64
