SpectraSuite Data File
++++++++++++++++++++++++++++++++++++
Date: Wed Sep 04 17:49:30 EDT 2013
User: lab3
Dark Spectrum Present: Yes
Reference Spectrum Present: No
Number of Sampled Component Spectra: 1
Spectrometers: USB2E7196
Integration Time (usec): 170000 (USB2E7196)
Spectra Averaged: 20 (USB2E7196)
Boxcar Smoothing: 10 (USB2E7196)
Correct for Electrical Dark: No (USB2E7196)
Strobe/Lamp Enabled: No (USB2E7196)
Correct for Detector Non-linearity: No (USB2E7196)
Correct for Stray Light: No (USB2E7196)
Number of Pixels in Processed Spectrum: 2048
>>>>>Begin Processed Spectral Data<<<<<
339.09	0.00
339.48	211.85
339.86	213.95
340.24	215.40
340.63	217.30
341.01	224.80
341.39	219.25
341.78	221.95
342.16	224.10
342.54	222.10
342.93	211.94
343.31	222.63
343.69	223.20
344.07	223.67
344.46	224.21
344.84	224.61
345.22	224.69
345.60	225.03
345.99	225.29
346.37	225.32
346.75	225.49
347.13	225.53
347.52	225.60
347.90	225.79
348.28	225.79
348.66	225.94
349.05	225.70
349.43	225.79
349.81	225.88
350.19	225.96
350.57	225.98
350.96	226.13
351.34	226.25
351.72	226.36
352.10	226.48
352.48	226.42
352.87	226.42
353.25	226.45
353.63	226.45
354.01	226.44
354.39	226.59
354.77	226.61
355.15	226.79
355.54	226.83
355.92	226.83
356.30	226.92
356.68	227.36
357.06	227.52
357.44	227.47
357.82	227.55
358.20	228.03
358.58	228.10
358.97	228.12
359.35	228.31
359.73	228.48
360.11	228.64
360.49	228.70
360.87	228.83
361.25	228.94
361.63	229.21
362.01	229.26
362.39	229.26
362.77	229.37
363.15	229.40
363.53	229.44
363.91	229.46
364.29	229.49
364.67	228.96
365.05	228.98
365.43	229.09
365.81	229.16
366.19	228.99
366.57	229.24
366.95	229.28
367.33	229.15
367.71	229.13
368.09	229.19
368.47	229.27
368.85	229.28
369.23	229.34
369.61	229.13
369.99	229.32
370.37	229.43
370.75	229.63
371.13	229.59
371.51	229.47
371.89	229.44
372.27	229.47
372.65	229.52
373.03	229.49
373.41	229.45
373.78	229.32
374.16	229.04
374.54	228.81
374.92	228.73
375.30	228.69
375.68	228.55
376.06	228.40
376.44	228.34
376.82	228.29
377.19	228.14
377.57	228.07
377.95	227.84
378.33	227.66
378.71	227.38
379.09	227.33
379.47	227.39
379.84	227.35
380.22	227.24
380.60	227.10
380.98	227.03
381.36	227.03
381.73	226.98
382.11	227.10
382.49	227.02
382.87	226.93
383.25	226.87
383.62	227.43
384.00	227.39
384.38	227.25
384.76	227.23
385.13	227.43
385.51	227.35
385.89	227.25
386.27	227.23
386.64	227.20
387.02	227.12
387.40	227.04
387.78	227.00
388.15	226.93
388.53	226.86
388.91	226.81
389.29	226.70
389.66	226.75
390.04	226.62
390.42	226.75
390.79	226.75
391.17	226.74
391.55	226.14
391.92	226.13
392.30	226.22
392.68	226.12
393.05	226.02
393.43	226.08
393.81	226.12
394.18	226.12
394.56	226.19
394.94	226.39
395.31	226.32
395.69	226.48
396.06	226.60
396.44	226.81
396.82	226.84
397.19	227.14
397.57	227.06
397.95	227.15
398.32	227.04
398.70	227.19
399.07	227.32
399.45	227.38
399.82	227.37
400.20	227.47
400.58	227.50
400.95	227.41
401.33	227.69
401.70	228.11
402.08	228.20
402.45	228.37
402.83	228.55
403.20	228.80
403.58	228.90
403.95	229.14
404.33	229.28
404.71	229.46
405.08	229.88
405.46	230.18
405.83	230.43
406.21	230.73
406.58	230.98
406.96	231.22
407.33	231.52
407.70	231.90
408.08	232.56
408.45	233.16
408.83	233.68
409.20	233.98
409.58	234.14
409.95	234.67
410.33	235.15
410.70	235.48
411.08	236.11
411.45	236.79
411.82	237.37
412.20	238.13
412.57	239.10
412.95	239.45
413.32	240.38
413.69	241.19
414.07	242.06
414.44	243.04
414.82	244.08
415.19	245.25
415.56	246.43
415.94	247.50
416.31	248.85
416.68	250.21
417.06	251.83
417.43	253.45
417.81	255.18
418.18	256.90
418.55	258.86
418.93	260.78
419.30	262.79
419.67	264.98
420.04	267.25
420.42	269.42
420.79	272.45
421.16	275.07
421.54	278.10
421.91	281.11
422.28	284.06
422.66	287.27
423.03	290.76
423.40	294.16
423.77	297.55
424.15	301.13
424.52	304.88
424.89	308.99
425.26	312.97
425.64	316.70
426.01	320.83
426.38	325.11
426.75	329.69
427.13	334.22
427.50	338.95
427.87	343.66
428.24	348.66
428.61	353.04
428.99	358.41
429.36	363.81
429.73	369.16
430.10	374.64
430.47	380.34
430.85	385.90
431.22	392.00
431.59	398.81
431.96	404.95
432.33	411.86
432.70	418.45
433.08	426.08
433.45	433.51
433.82	440.88
434.19	449.02
434.56	456.91
434.93	464.50
435.30	472.28
435.68	480.90
436.05	489.27
436.42	497.61
436.79	505.18
437.16	513.52
437.53	522.38
437.90	531.21
438.27	539.71
438.64	548.53
439.01	556.81
439.38	563.96
439.75	571.20
440.13	579.17
440.50	586.77
440.87	592.83
441.24	599.14
441.61	606.28
441.98	611.30
442.35	617.12
442.72	623.15
443.09	628.95
443.46	632.32
443.83	634.65
444.20	636.70
444.57	639.33
444.94	640.38
445.31	641.36
445.68	642.52
446.05	642.70
446.42	641.28
446.79	639.77
447.16	638.11
447.53	636.59
447.90	632.86
448.27	629.15
448.64	624.37
449.01	620.64
449.37	614.30
449.74	608.31
450.11	601.56
450.48	593.83
450.85	585.70
451.22	579.00
451.59	572.40
451.96	565.93
452.33	557.86
452.70	550.51
453.07	542.04
453.43	533.04
453.80	524.78
454.17	516.93
454.54	509.41
454.91	501.34
455.28	493.52
455.65	486.18
456.02	479.41
456.38	473.14
456.75	465.51
457.12	459.03
457.49	452.87
457.86	446.55
458.23	441.53
458.59	435.96
458.96	430.18
459.33	425.15
459.70	420.24
460.07	416.23
460.43	411.71
460.80	407.34
461.17	403.62
461.54	399.54
461.91	395.80
462.27	391.89
462.64	388.65
463.01	385.15
463.38	381.88
463.74	377.89
464.11	374.94
464.48	372.32
464.85	369.53
465.21	367.40
465.58	365.11
465.95	362.13
466.32	359.87
466.68	357.66
467.05	355.48
467.42	353.26
467.78	350.96
468.15	348.81
468.52	347.36
468.88	345.12
469.25	343.31
469.62	341.85
469.98	340.14
470.35	338.55
470.72	337.10
471.08	335.39
471.45	334.04
471.82	332.69
472.18	331.23
472.55	330.28
472.92	328.99
473.28	327.90
473.65	326.89
474.02	325.89
474.38	325.06
474.75	324.34
475.11	323.48
475.48	322.93
475.85	322.21
476.21	321.41
476.58	321.07
476.94	320.67
477.31	320.19
477.67	319.83
478.04	319.52
478.41	319.38
478.77	319.67
479.14	319.35
479.50	319.36
479.87	319.40
480.23	319.37
480.60	319.30
480.96	319.30
481.33	319.65
481.69	319.85
482.06	320.01
482.42	320.23
482.79	320.61
483.15	321.01
483.52	321.65
483.88	322.19
484.25	322.64
484.61	323.35
484.98	323.93
485.34	324.97
485.71	326.03
486.07	326.91
486.44	327.57
486.80	328.73
487.17	329.82
487.53	331.25
487.90	332.66
488.26	334.39
488.62	336.08
488.99	337.54
489.35	339.32
489.72	341.20
490.08	343.16
490.44	345.11
490.81	347.42
491.17	349.59
491.54	352.13
491.90	354.82
492.26	357.48
492.63	360.32
492.99	363.04
493.36	366.08
493.72	369.47
494.08	372.84
494.45	376.58
494.81	380.46
495.17	384.32
495.54	388.48
495.90	392.63
496.26	397.01
496.63	401.65
496.99	406.41
497.35	411.44
497.72	416.67
498.08	422.16
498.44	427.73
498.80	433.79
499.17	439.84
499.53	446.07
499.89	452.65
500.26	459.52
500.62	466.57
500.98	473.94
501.34	481.29
501.71	489.04
502.07	496.67
502.43	504.84
502.79	513.16
503.16	521.77
503.52	530.78
503.88	540.03
504.24	549.83
504.60	559.79
504.97	570.07
505.33	580.50
505.69	591.51
506.05	602.58
506.41	613.53
506.78	625.06
507.14	637.05
507.50	649.16
507.86	661.64
508.22	674.60
508.59	687.46
508.95	701.14
509.31	715.10
509.67	729.33
510.03	743.43
510.39	757.87
510.75	772.86
511.12	788.00
511.48	803.41
511.84	818.91
512.20	834.76
512.56	850.88
512.92	867.39
513.28	884.07
513.64	900.93
514.00	918.57
514.37	936.33
514.73	954.20
515.09	972.42
515.45	990.87
515.81	1009.19
516.17	1027.86
516.53	1046.29
516.89	1065.00
517.25	1084.25
517.61	1104.43
517.97	1124.84
518.33	1144.61
518.69	1164.77
519.05	1185.20
519.41	1205.78
519.77	1226.67
520.13	1247.15
520.49	1267.59
520.85	1289.72
521.21	1310.70
521.57	1331.92
521.93	1352.60
522.29	1373.71
522.65	1394.26
523.01	1414.71
523.37	1435.21
523.73	1456.04
524.09	1476.53
524.45	1496.94
524.81	1517.79
525.17	1538.30
525.53	1558.67
525.89	1579.26
526.25	1599.77
526.61	1619.89
526.97	1640.82
527.33	1661.62
527.68	1683.58
528.04	1704.72
528.40	1724.28
528.76	1745.21
529.12	1765.23
529.48	1785.83
529.84	1805.65
530.20	1826.39
530.56	1846.97
530.91	1867.36
531.27	1887.54
531.63	1907.86
531.99	1928.06
532.35	1947.55
532.71	1967.39
533.07	1987.99
533.42	2007.63
533.78	2027.37
534.14	2047.00
534.50	2065.69
534.86	2084.80
535.21	2102.11
535.57	2120.35
535.93	2137.71
536.29	2155.20
536.65	2173.30
537.00	2190.52
537.36	2207.75
537.72	2224.10
538.08	2241.12
538.44	2257.92
538.79	2274.24
539.15	2290.30
539.51	2306.46
539.87	2321.83
540.22	2335.59
540.58	2349.53
540.94	2362.78
541.29	2374.98
541.65	2387.45
542.01	2399.85
542.37	2409.91
542.72	2420.51
543.08	2430.86
543.44	2442.19
543.79	2452.09
544.15	2461.69
544.51	2471.45
544.87	2481.12
545.22	2489.79
545.58	2497.40
545.94	2504.27
546.29	2510.29
546.65	2516.40
547.01	2521.70
547.36	2526.86
547.72	2532.50
548.07	2536.00
548.43	2540.85
548.79	2545.58
549.14	2549.57
549.50	2553.22
549.86	2557.35
550.21	2560.90
550.57	2564.35
550.92	2565.60
551.28	2566.81
551.64	2568.69
551.99	2570.51
552.35	2571.80
552.70	2573.80
553.06	2575.05
553.41	2576.04
553.77	2577.78
554.13	2579.60
554.48	2580.59
554.84	2581.78
555.19	2582.30
555.55	2583.95
555.90	2583.34
556.26	2582.21
556.61	2580.46
556.97	2578.23
557.32	2577.32
557.68	2575.93
558.03	2574.01
558.39	2572.55
558.74	2571.07
559.10	2567.91
559.45	2564.20
559.81	2559.55
560.16	2553.95
560.52	2549.01
560.87	2544.57
561.23	2539.24
561.58	2533.17
561.94	2526.22
562.29	2518.67
562.64	2511.93
563.00	2503.75
563.35	2497.15
563.71	2490.49
564.06	2484.29
564.42	2477.76
564.77	2470.97
565.12	2463.46
565.48	2456.04
565.83	2448.35
566.19	2440.71
566.54	2432.73
566.89	2424.65
567.25	2416.96
567.60	2410.01
567.96	2402.85
568.31	2394.69
568.66	2386.06
569.02	2376.84
569.37	2369.00
569.72	2361.94
570.08	2352.59
570.43	2342.96
570.78	2334.03
571.14	2324.69
571.49	2314.40
571.84	2304.85
572.20	2294.16
572.55	2284.00
572.90	2272.83
573.26	2262.37
573.61	2251.27
573.96	2240.02
574.31	2227.89
574.67	2216.40
575.02	2203.49
575.37	2190.58
575.72	2177.58
576.08	2165.63
576.43	2153.45
576.78	2140.60
577.13	2126.66
577.49	2114.10
577.84	2102.50
578.19	2089.99
578.54	2077.52
578.90	2065.48
579.25	2053.04
579.60	2040.66
579.95	2027.94
580.30	2015.06
580.66	2001.78
581.01	1988.54
581.36	1974.80
581.71	1962.62
582.06	1949.40
582.42	1937.37
582.77	1924.73
583.12	1913.05
583.47	1900.74
583.82	1888.91
584.17	1876.82
584.53	1865.02
584.88	1852.24
585.23	1839.18
585.58	1825.52
585.93	1812.57
586.28	1799.58
586.63	1785.93
586.98	1771.76
587.34	1758.71
587.69	1745.80
588.04	1733.26
588.39	1721.39
588.74	1709.64
589.09	1697.70
589.44	1685.22
589.79	1673.00
590.14	1661.56
590.49	1649.52
590.84	1637.55
591.19	1625.32
591.54	1613.12
591.89	1601.13
592.25	1590.88
592.60	1579.36
592.95	1568.32
593.30	1556.35
593.65	1544.38
594.00	1532.51
594.35	1522.93
594.70	1511.16
595.05	1499.81
595.40	1488.10
595.75	1476.31
596.10	1465.13
596.45	1453.50
596.80	1442.90
597.15	1431.79
597.50	1419.89
597.85	1408.64
598.19	1397.06
598.54	1385.53
598.89	1374.61
599.24	1364.26
599.59	1352.83
599.94	1342.49
600.29	1331.93
600.64	1321.75
600.99	1311.59
601.34	1302.24
601.69	1290.99
602.04	1281.38
602.39	1272.03
602.74	1262.85
603.08	1253.62
603.43	1244.48
603.78	1235.02
604.13	1225.53
604.48	1215.87
604.83	1206.40
605.18	1196.66
605.53	1187.50
605.87	1178.60
606.22	1170.13
606.57	1160.96
606.92	1151.74
607.27	1142.60
607.62	1133.95
607.96	1125.66
608.31	1117.80
608.66	1109.30
609.01	1101.08
609.36	1092.63
609.70	1084.22
610.05	1075.72
610.40	1067.32
610.75	1058.73
611.10	1050.50
611.44	1042.11
611.79	1034.24
612.14	1026.44
612.49	1018.87
612.83	1011.35
613.18	1003.89
613.53	996.29
613.88	988.51
614.22	980.95
614.57	973.34
614.92	965.61
615.27	958.34
615.61	950.58
615.96	943.13
616.31	935.77
616.65	929.07
617.00	921.85
617.35	914.87
617.70	907.75
618.04	900.86
618.39	894.19
618.74	887.93
619.08	881.15
619.43	874.31
619.78	867.45
620.12	860.49
620.47	853.57
620.82	846.30
621.16	839.65
621.51	833.53
621.85	827.29
622.20	820.93
622.55	814.19
622.89	807.87
623.24	801.60
623.59	795.28
623.93	788.96
624.28	782.88
624.62	777.24
624.97	771.63
625.32	765.96
625.66	760.02
626.01	753.90
626.35	748.27
626.70	743.01
627.04	737.61
627.39	732.19
627.73	727.06
628.08	722.16
628.43	716.75
628.77	711.25
629.12	706.20
629.46	701.44
629.81	696.81
630.15	692.00
630.50	687.24
630.84	682.36
631.19	677.56
631.53	673.10
631.88	668.10
632.22	663.32
632.57	658.83
632.91	654.35
633.26	650.05
633.60	645.52
633.95	640.75
634.29	636.10
634.64	631.65
634.98	626.89
635.32	622.56
635.67	618.60
636.01	614.54
636.36	610.06
636.70	606.14
637.05	601.98
637.39	597.98
637.73	593.93
638.08	590.06
638.42	585.95
638.77	581.70
639.11	577.38
639.45	573.05
639.80	568.75
640.14	564.75
640.49	560.76
640.83	557.08
641.17	553.47
641.52	549.81
641.86	546.38
642.20	543.35
642.55	539.75
642.89	536.20
643.23	532.70
643.58	529.67
643.92	526.00
644.26	522.60
644.61	519.37
644.95	516.00
645.29	512.66
645.64	509.60
645.98	506.42
646.32	503.60
646.66	500.64
647.01	497.69
647.35	494.98
647.69	492.10
648.04	489.31
648.38	486.62
648.72	483.93
649.06	480.89
649.41	477.78
649.75	474.90
650.09	472.13
650.43	469.41
650.78	466.55
651.12	463.92
651.46	461.20
651.80	458.58
652.14	456.00
652.49	453.48
652.83	450.85
653.17	448.36
653.51	445.65
653.85	443.34
654.20	440.99
654.54	438.31
654.88	435.85
655.22	433.64
655.56	431.15
655.90	428.85
656.25	426.64
656.59	424.61
656.93	422.44
657.27	420.42
657.61	417.96
657.95	415.67
658.29	413.46
658.64	411.42
658.98	409.11
659.32	406.82
659.66	404.74
660.00	402.69
660.34	400.66
660.68	398.71
661.02	396.66
661.36	394.71
661.70	392.71
662.05	390.74
662.39	388.74
662.73	387.08
663.07	385.47
663.41	383.73
663.75	381.63
664.09	379.83
664.43	377.85
664.77	376.28
665.11	374.62
665.45	373.05
665.79	371.46
666.13	369.78
666.47	368.22
666.81	366.59
667.15	364.92
667.49	363.42
667.83	362.06
668.17	360.50
668.51	359.02
668.85	357.71
669.19	356.59
669.53	355.00
669.87	353.47
670.21	351.89
670.55	350.55
670.89	349.56
671.23	348.18
671.57	346.83
671.91	345.52
672.25	344.25
672.58	342.97
672.92	341.55
673.26	340.42
673.60	339.25
673.94	338.15
674.28	337.10
674.62	335.98
674.96	334.59
675.30	333.44
675.64	332.27
675.97	331.12
676.31	329.80
676.65	328.58
676.99	327.65
677.33	326.44
677.67	325.30
678.01	323.93
678.34	322.87
678.68	321.91
679.02	320.83
679.36	319.85
679.70	318.67
680.04	317.76
680.37	316.65
680.71	315.62
681.05	314.63
681.39	313.67
681.73	312.64
682.06	311.81
682.40	310.95
682.74	310.14
683.08	309.41
683.42	308.57
683.75	307.86
684.09	306.78
684.43	306.01
684.77	305.21
685.10	304.47
685.44	303.72
685.78	302.88
686.12	302.06
686.45	301.18
686.79	300.49
687.13	299.81
687.46	299.18
687.80	298.63
688.14	297.81
688.48	297.07
688.81	296.37
689.15	295.72
689.49	294.97
689.82	294.33
690.16	293.39
690.50	292.72
690.83	292.02
691.17	291.27
691.51	290.59
691.84	290.01
692.18	289.30
692.52	288.58
692.85	287.89
693.19	287.50
693.52	286.91
693.86	286.17
694.20	285.47
694.53	284.90
694.87	284.19
695.21	283.62
695.54	282.99
695.88	282.31
696.21	281.64
696.55	280.99
696.88	280.23
697.22	279.71
697.56	279.09
697.89	278.54
698.23	278.13
698.56	277.50
698.90	276.94
699.23	276.42
699.57	276.00
699.90	275.48
700.24	274.77
700.58	274.37
700.91	274.05
701.25	273.99
701.58	273.88
701.92	273.45
702.25	273.03
702.59	272.64
702.92	272.25
703.26	271.93
703.59	271.56
703.93	271.62
704.26	271.19
704.60	270.79
704.93	270.31
705.26	269.84
705.60	269.54
705.93	269.04
706.27	268.82
706.60	268.52
706.94	268.43
707.27	268.08
707.61	267.70
707.94	267.32
708.27	266.60
708.61	265.82
708.94	265.50
709.28	265.15
709.61	264.69
709.94	264.36
710.28	263.95
710.61	263.60
710.95	262.74
711.28	262.75
711.61	262.48
711.95	262.30
712.28	262.03
712.61	261.69
712.95	261.61
713.28	261.44
713.61	261.05
713.95	260.43
714.28	260.18
714.61	259.81
714.95	259.41
715.28	259.02
715.61	258.73
715.95	258.37
716.28	257.96
716.61	257.71
716.95	257.45
717.28	257.08
717.61	256.83
717.94	256.65
718.28	256.00
718.61	255.64
718.94	255.29
719.27	254.93
719.61	254.72
719.94	254.35
720.27	253.83
720.60	253.48
720.94	253.29
721.27	252.94
721.60	252.77
721.93	252.57
722.27	252.48
722.60	252.32
722.93	252.09
723.26	252.01
723.59	251.84
723.93	251.64
724.26	251.54
724.59	251.28
724.92	251.08
725.25	251.03
725.59	250.85
725.92	250.65
726.25	250.53
726.58	250.27
726.91	250.07
727.24	249.95
727.57	249.82
727.91	249.50
728.24	249.45
728.57	249.25
728.90	249.12
729.23	248.74
729.56	248.72
729.89	248.52
730.22	248.29
730.55	248.08
730.89	247.81
731.22	247.57
731.55	247.35
731.88	247.17
732.21	246.88
732.54	246.65
732.87	246.52
733.20	246.34
733.53	246.24
733.86	246.08
734.19	245.77
734.52	245.62
734.85	245.86
735.18	245.64
735.51	245.58
735.84	245.34
736.17	245.33
736.50	244.88
736.83	245.26
737.16	245.04
737.49	244.85
737.82	244.70
738.15	244.62
738.48	244.49
738.81	244.36
739.14	244.15
739.47	243.98
739.80	243.78
740.13	243.62
740.46	243.44
740.79	243.25
741.12	243.15
741.45	242.92
741.78	242.52
742.11	242.43
742.44	242.22
742.77	242.13
743.10	241.91
743.43	241.76
743.75	241.10
744.08	241.65
744.41	241.46
744.74	241.28
745.07	241.04
745.40	240.95
745.73	240.91
746.06	240.79
746.39	240.66
746.71	240.52
747.04	240.29
747.37	240.09
747.70	239.97
748.03	239.89
748.36	239.86
748.68	239.75
749.01	239.51
749.34	239.27
749.67	239.23
750.00	239.17
750.33	239.47
750.65	239.40
750.98	238.65
751.31	238.58
751.64	238.49
751.97	238.65
752.29	238.47
752.62	238.18
752.95	238.04
753.28	237.89
753.60	237.68
753.93	237.71
754.26	237.69
754.59	237.47
754.91	237.28
755.24	237.07
755.57	236.97
755.90	236.85
756.22	236.73
756.55	236.43
756.88	236.23
757.20	235.71
757.53	235.41
757.86	235.21
758.19	235.14
758.51	235.05
758.84	234.71
759.17	234.64
759.49	234.60
759.82	234.75
760.15	234.61
760.47	234.53
760.80	234.33
761.13	234.28
761.45	234.27
761.78	234.11
762.11	234.09
762.43	233.93
762.76	233.84
763.08	233.85
763.41	233.90
763.74	233.89
764.06	233.84
764.39	233.84
764.71	233.78
765.04	233.63
765.37	233.48
765.69	233.36
766.02	233.25
766.34	233.13
766.67	232.92
767.00	233.04
767.32	233.29
767.65	233.55
767.97	233.43
768.30	233.34
768.62	233.35
768.95	233.27
769.27	233.17
769.60	233.14
769.92	233.03
770.25	232.94
770.57	232.83
770.90	232.84
771.22	232.73
771.55	232.75
771.87	232.70
772.20	232.68
772.52	233.05
772.85	233.56
773.17	233.50
773.50	233.44
773.82	233.32
774.15	233.11
774.47	232.80
774.80	232.75
775.12	232.77
775.45	232.72
775.77	232.74
776.09	232.75
776.42	232.74
776.74	232.84
777.07	232.77
777.39	232.77
777.72	232.61
778.04	232.70
778.36	232.65
778.69	232.68
779.01	232.70
779.33	232.28
779.66	231.75
779.98	231.71
780.31	231.70
780.63	231.85
780.95	231.83
781.28	231.77
781.60	231.69
781.92	231.57
782.25	231.53
782.57	231.45
782.89	231.46
783.22	231.47
783.54	231.31
783.86	231.23
784.19	231.17
784.51	231.36
784.83	231.25
785.16	231.15
785.48	231.04
785.80	230.96
786.12	230.94
786.45	230.86
786.77	230.85
787.09	230.81
787.42	230.64
787.74	230.57
788.06	230.56
788.38	230.46
788.71	230.38
789.03	230.39
789.35	230.39
789.67	230.17
789.99	230.04
790.32	229.92
790.64	229.97
790.96	230.25
791.28	230.04
791.61	229.96
791.93	229.98
792.25	229.94
792.57	230.25
792.89	230.15
793.21	230.16
793.54	230.13
793.86	229.99
794.18	229.97
794.50	229.90
794.82	229.80
795.14	229.85
795.47	229.91
795.79	229.86
796.11	229.72
796.43	229.67
796.75	229.64
797.07	229.65
797.39	229.59
797.71	229.30
798.04	229.20
798.36	229.21
798.68	229.05
799.00	229.12
799.32	228.77
799.64	228.80
799.96	228.74
800.28	228.78
800.60	228.73
800.92	228.71
801.24	228.67
801.56	228.68
801.89	228.58
802.21	228.63
802.53	228.45
802.85	228.55
803.17	228.75
803.49	228.68
803.81	228.58
804.13	228.48
804.45	228.39
804.77	228.45
805.09	228.40
805.41	228.40
805.73	228.25
806.05	228.15
806.37	228.10
806.69	228.09
807.01	228.08
807.33	228.13
807.65	227.90
807.97	228.04
808.28	227.98
808.60	227.95
808.92	227.83
809.24	228.14
809.56	228.07
809.88	227.90
810.20	227.96
810.52	228.13
810.84	228.10
811.16	227.99
811.48	227.95
811.80	228.18
812.12	228.16
812.43	228.25
812.75	228.29
813.07	228.25
813.39	228.22
813.71	228.20
814.03	228.11
814.35	228.18
814.67	228.02
814.98	228.01
815.30	227.99
815.62	227.95
815.94	227.69
816.26	227.92
816.58	227.88
816.89	227.86
817.21	227.74
817.53	227.75
817.85	227.76
