SpectraSuite Data File
++++++++++++++++++++++++++++++++++++
Date: Wed Sep 04 17:57:30 EDT 2013
User: lab3
Dark Spectrum Present: Yes
Reference Spectrum Present: No
Number of Sampled Component Spectra: 1
Spectrometers: USB2E7196
Integration Time (usec): 170000 (USB2E7196)
Spectra Averaged: 20 (USB2E7196)
Boxcar Smoothing: 10 (USB2E7196)
Correct for Electrical Dark: No (USB2E7196)
Strobe/Lamp Enabled: No (USB2E7196)
Correct for Detector Non-linearity: No (USB2E7196)
Correct for Stray Light: No (USB2E7196)
Number of Pixels in Processed Spectrum: 2048
>>>>>Begin Processed Spectral Data<<<<<
339.09	0.00
339.48	212.75
339.86	214.50
340.24	216.30
340.63	216.95
341.01	227.10
341.39	221.15
341.78	222.40
342.16	223.90
342.54	223.55
342.93	212.59
343.31	223.28
343.69	223.80
344.07	224.36
344.46	224.79
344.84	225.21
345.22	225.14
345.60	225.45
345.99	225.66
346.37	225.80
346.75	225.87
347.13	225.99
347.52	226.05
347.90	226.30
348.28	226.30
348.66	226.49
349.05	226.35
349.43	226.41
349.81	226.55
350.19	226.66
350.57	226.76
350.96	226.90
351.34	227.05
351.72	227.20
352.10	227.26
352.48	227.34
352.87	227.41
353.25	227.48
353.63	227.38
354.01	227.35
354.39	227.40
354.77	227.53
355.15	227.62
355.54	227.58
355.92	227.38
356.30	227.47
356.68	227.71
357.06	227.85
357.44	227.81
357.82	227.86
358.20	228.23
358.58	228.23
358.97	228.28
359.35	228.45
359.73	228.58
360.11	228.60
360.49	228.65
360.87	228.70
361.25	228.82
361.63	229.06
362.01	229.20
362.39	229.23
362.77	229.31
363.15	229.35
363.53	229.40
363.91	229.55
364.29	229.69
364.67	229.34
365.05	229.39
365.43	229.55
365.81	229.62
366.19	229.49
366.57	229.68
366.95	229.77
367.33	229.69
367.71	229.67
368.09	229.74
368.47	229.75
368.85	229.81
369.23	229.88
369.61	229.71
369.99	229.86
370.37	229.94
370.75	230.11
371.13	230.01
371.51	229.99
371.89	230.03
372.27	229.97
372.65	229.98
373.03	229.96
373.41	229.86
373.78	229.81
374.16	229.59
374.54	229.45
374.92	229.26
375.30	229.15
375.68	229.01
376.06	229.00
376.44	228.86
376.82	228.78
377.19	228.74
377.57	228.64
377.95	228.37
378.33	228.21
378.71	227.83
379.09	227.77
379.47	227.70
379.84	227.48
380.22	227.37
380.60	227.20
380.98	227.09
381.36	227.00
381.73	226.89
382.11	226.82
382.49	226.64
382.87	226.55
383.25	226.46
383.62	226.98
384.00	226.83
384.38	226.83
384.76	226.87
385.13	226.89
385.51	226.84
385.89	226.72
386.27	226.78
386.64	226.81
387.02	226.70
387.40	226.64
387.78	226.63
388.15	226.58
388.53	226.57
388.91	226.53
389.29	226.44
389.66	226.37
390.04	226.28
390.42	226.39
390.79	226.41
391.17	226.42
391.55	225.87
391.92	225.82
392.30	225.89
392.68	225.75
393.05	225.73
393.43	225.79
393.81	225.87
394.18	225.75
394.56	225.77
394.94	225.94
395.31	225.92
395.69	226.18
396.06	226.30
396.44	226.37
396.82	226.44
397.19	226.77
397.57	226.78
397.95	226.97
398.32	226.93
398.70	227.02
399.07	227.16
399.45	227.15
399.82	227.28
400.20	227.30
400.58	227.36
400.95	227.24
401.33	227.45
401.70	227.87
402.08	228.01
402.45	228.15
402.83	228.41
403.20	228.58
403.58	228.62
403.95	228.85
404.33	229.09
404.71	229.25
405.08	229.70
405.46	230.04
405.83	230.24
406.21	230.48
406.58	230.79
406.96	231.01
407.33	231.46
407.70	231.87
408.08	232.61
408.45	233.13
408.83	233.68
409.20	234.04
409.58	234.25
409.95	234.81
410.33	235.33
410.70	235.68
411.08	236.38
411.45	237.01
411.82	237.61
412.20	238.46
412.57	239.50
412.95	239.85
413.32	240.64
413.69	241.61
414.07	242.59
414.44	243.60
414.82	244.77
415.19	246.00
415.56	247.18
415.94	248.18
416.31	249.66
416.68	251.10
417.06	252.73
417.43	254.34
417.81	256.11
418.18	258.02
418.55	260.03
418.93	262.08
419.30	264.23
419.67	266.41
420.04	268.57
420.42	270.88
420.79	273.98
421.16	276.84
421.54	279.80
421.91	282.80
422.28	285.90
422.66	289.13
423.03	292.50
423.40	295.85
423.77	299.48
424.15	303.07
424.52	306.92
424.89	311.12
425.26	315.10
425.64	318.84
426.01	322.95
426.38	327.28
426.75	331.84
427.13	336.33
427.50	341.09
427.87	345.93
428.24	350.71
428.61	355.19
428.99	360.53
429.36	366.02
429.73	371.60
430.10	377.17
430.47	382.89
430.85	388.59
431.22	394.77
431.59	401.52
431.96	407.74
432.33	414.62
432.70	421.23
433.08	429.16
433.45	436.65
433.82	444.15
434.19	452.44
434.56	460.55
434.93	468.22
435.30	476.13
435.68	484.92
436.05	493.47
436.42	501.92
436.79	509.59
437.16	517.97
437.53	526.64
437.90	535.34
438.27	543.93
438.64	552.85
439.01	561.31
439.38	568.62
439.75	575.76
440.13	583.77
440.50	591.46
440.87	597.63
441.24	604.09
441.61	610.82
441.98	615.90
442.35	621.79
442.72	627.96
443.09	633.95
443.46	637.31
443.83	639.59
444.20	641.49
444.57	644.17
444.94	645.35
445.31	646.56
445.68	647.82
446.05	647.97
446.42	646.53
446.79	644.88
447.16	643.21
447.53	641.99
447.90	638.25
448.27	634.44
448.64	629.40
449.01	625.60
449.37	619.59
449.74	613.56
450.11	606.56
450.48	598.67
450.85	590.50
451.22	583.58
451.59	577.15
451.96	570.84
452.33	562.69
452.70	555.23
453.07	546.40
453.43	537.34
453.80	528.94
454.17	521.03
454.54	513.39
454.91	505.04
455.28	497.05
455.65	489.65
456.02	482.87
456.38	476.50
456.75	468.69
457.12	462.09
457.49	455.65
457.86	449.35
458.23	444.23
458.59	438.35
458.96	432.54
459.33	427.20
459.70	422.20
460.07	418.13
460.43	413.33
460.80	409.17
461.17	405.44
461.54	401.40
461.91	397.50
462.27	393.59
462.64	390.39
463.01	386.81
463.38	383.52
463.74	379.44
464.11	376.49
464.48	373.98
464.85	371.27
465.21	369.26
465.58	366.91
465.95	364.04
466.32	361.84
466.68	359.70
467.05	357.61
467.42	355.27
467.78	352.98
468.15	350.93
468.52	349.24
468.88	346.98
469.25	345.03
469.62	343.64
469.98	342.03
470.35	340.50
470.72	339.05
471.08	337.37
471.45	336.21
471.82	334.82
472.18	333.27
472.55	332.21
472.92	330.83
473.28	329.57
473.65	328.43
474.02	327.46
474.38	326.52
474.75	325.69
475.11	324.82
475.48	324.15
475.85	323.46
476.21	322.81
476.58	322.32
476.94	321.93
477.31	321.43
477.67	320.98
478.04	320.59
478.41	320.29
478.77	320.52
479.14	320.19
479.50	320.13
479.87	320.21
480.23	320.19
480.60	320.12
480.96	320.23
481.33	320.53
481.69	320.66
482.06	320.84
482.42	321.15
482.79	321.45
483.15	321.79
483.52	322.38
483.88	322.84
484.25	323.39
484.61	324.03
484.98	324.75
485.34	325.70
485.71	326.61
486.07	327.53
486.44	328.14
486.80	329.27
487.17	330.28
487.53	331.64
487.90	332.95
488.26	334.59
488.62	336.27
488.99	337.91
489.35	339.75
489.72	341.66
490.08	343.57
490.44	345.68
490.81	348.00
491.17	350.18
491.54	352.76
491.90	355.29
492.26	358.02
492.63	360.76
492.99	363.59
493.36	366.76
493.72	370.18
494.08	373.66
494.45	377.35
494.81	381.43
495.17	385.17
495.54	389.50
495.90	393.71
496.26	398.16
496.63	402.87
496.99	407.60
497.35	412.75
497.72	418.07
498.08	423.65
498.44	429.29
498.80	435.35
499.17	441.39
499.53	447.79
499.89	454.41
500.26	461.28
500.62	468.29
500.98	475.60
501.34	483.09
501.71	490.84
502.07	498.66
502.43	506.77
502.79	515.23
503.16	523.88
503.52	532.99
503.88	542.09
504.24	551.68
504.60	561.78
504.97	572.10
505.33	582.56
505.69	593.49
506.05	604.65
506.41	616.00
506.78	627.73
507.14	639.76
507.50	652.14
507.86	664.75
508.22	677.65
508.59	690.83
508.95	704.41
509.31	718.60
509.67	732.86
510.03	747.12
510.39	762.04
510.75	777.16
511.12	792.43
511.48	808.37
511.84	824.23
512.20	840.20
512.56	856.53
512.92	873.31
513.28	890.32
513.64	907.47
514.00	925.07
514.37	942.93
514.73	961.06
515.09	979.39
515.45	997.89
515.81	1016.60
516.17	1035.47
516.53	1054.09
516.89	1072.94
517.25	1092.37
517.61	1112.74
517.97	1132.85
518.33	1153.09
518.69	1173.50
519.05	1193.92
519.41	1214.78
519.77	1235.85
520.13	1256.59
520.49	1277.28
520.85	1299.45
521.21	1320.85
521.57	1342.12
521.93	1362.72
522.29	1383.99
522.65	1404.45
523.01	1425.28
523.37	1445.81
523.73	1467.01
524.09	1487.92
524.45	1508.55
524.81	1529.66
525.17	1550.26
525.53	1570.91
525.89	1591.62
526.25	1612.50
526.61	1632.92
526.97	1653.72
527.33	1675.07
527.68	1697.17
528.04	1718.72
528.40	1738.34
528.76	1759.38
529.12	1779.76
529.48	1800.86
529.84	1820.99
530.20	1842.59
530.56	1863.60
530.91	1884.71
531.27	1904.95
531.63	1925.46
531.99	1946.04
532.35	1966.17
532.71	1986.63
533.07	2007.28
533.42	2027.35
533.78	2047.38
534.14	2067.26
534.50	2086.54
534.86	2105.65
535.21	2123.05
535.57	2141.40
535.93	2159.36
536.29	2177.38
536.65	2195.72
537.00	2213.54
537.36	2231.14
537.72	2247.57
538.08	2264.74
538.44	2281.58
538.79	2298.24
539.15	2314.77
539.51	2330.62
539.87	2345.68
540.22	2359.60
540.58	2374.21
540.94	2387.53
541.29	2400.21
541.65	2413.23
542.01	2425.70
542.37	2436.40
542.72	2447.30
543.08	2458.07
543.44	2469.63
543.79	2479.43
544.15	2489.14
544.51	2498.86
544.87	2508.71
545.22	2517.39
545.58	2525.21
545.94	2532.45
546.29	2538.95
546.65	2545.43
547.01	2551.26
547.36	2557.20
547.72	2562.82
548.07	2566.57
548.43	2571.86
548.79	2576.65
549.14	2580.50
549.50	2584.49
549.86	2588.81
550.21	2592.71
550.57	2596.23
550.92	2597.83
551.28	2599.26
551.64	2601.98
551.99	2604.05
552.35	2605.41
552.70	2607.72
553.06	2609.42
553.41	2611.00
553.77	2612.66
554.13	2614.40
554.48	2615.72
554.84	2616.49
555.19	2617.64
555.55	2619.69
555.90	2618.84
556.26	2617.69
556.61	2616.04
556.97	2614.05
557.32	2612.99
557.68	2611.95
558.03	2610.65
558.39	2609.10
558.74	2608.26
559.10	2604.86
559.45	2601.37
559.81	2597.19
560.16	2591.77
560.52	2586.88
560.87	2581.78
561.23	2576.61
561.58	2570.42
561.94	2563.54
562.29	2556.50
562.64	2549.57
563.00	2541.14
563.35	2534.73
563.71	2528.21
564.06	2522.07
564.42	2515.51
564.77	2508.79
565.12	2501.14
565.48	2493.30
565.83	2485.33
566.19	2477.31
566.54	2469.47
566.89	2461.34
567.25	2453.73
567.60	2446.74
567.96	2439.30
568.31	2431.82
568.66	2423.09
569.02	2414.12
569.37	2406.05
569.72	2398.50
570.08	2389.15
570.43	2379.65
570.78	2370.64
571.14	2361.19
571.49	2351.00
571.84	2341.24
572.20	2330.20
572.55	2320.36
572.90	2309.47
573.26	2299.36
573.61	2288.18
573.96	2277.05
574.31	2265.09
574.67	2252.98
575.02	2240.16
575.37	2227.26
575.72	2213.80
576.08	2201.90
576.43	2189.63
576.78	2176.49
577.13	2162.94
577.49	2150.28
577.84	2138.69
578.19	2126.44
578.54	2114.11
578.90	2102.18
579.25	2089.81
579.60	2077.26
579.95	2064.12
580.30	2050.74
580.66	2037.23
581.01	2023.76
581.36	2009.75
581.71	1997.11
582.06	1984.23
582.42	1971.83
582.77	1959.05
583.12	1947.38
583.47	1934.54
583.82	1922.17
584.17	1910.27
584.53	1898.32
584.88	1885.37
585.23	1871.72
585.58	1857.59
585.93	1844.01
586.28	1830.64
586.63	1816.65
586.98	1802.55
587.34	1789.34
587.69	1775.85
588.04	1763.21
588.39	1751.12
588.74	1738.80
589.09	1726.54
589.44	1713.60
589.79	1701.25
590.14	1689.49
590.49	1676.75
590.84	1664.71
591.19	1652.72
591.54	1640.38
591.89	1628.15
592.25	1617.96
592.60	1606.69
592.95	1595.32
593.30	1583.53
593.65	1571.37
594.00	1559.25
594.35	1549.24
594.70	1537.16
595.05	1526.01
595.40	1513.85
595.75	1501.59
596.10	1490.34
596.45	1478.69
596.80	1467.97
597.15	1456.48
597.50	1444.45
597.85	1433.25
598.19	1421.59
598.54	1409.67
598.89	1398.42
599.24	1387.56
599.59	1375.78
599.94	1364.66
600.29	1354.20
600.64	1343.73
600.99	1333.28
601.34	1323.76
601.69	1312.70
602.04	1302.91
602.39	1293.13
602.74	1284.02
603.08	1274.70
603.43	1265.39
603.78	1255.52
604.13	1245.82
604.48	1236.05
604.83	1226.52
605.18	1216.77
605.53	1207.42
605.87	1198.29
606.22	1189.82
606.57	1180.59
606.92	1171.04
607.27	1162.16
607.62	1153.16
607.96	1144.61
608.31	1136.45
608.66	1127.99
609.01	1119.17
609.36	1110.57
609.70	1101.88
610.05	1093.13
610.40	1084.57
610.75	1075.89
611.10	1067.60
611.44	1058.94
611.79	1050.86
612.14	1042.90
612.49	1035.06
612.83	1027.42
613.18	1019.74
613.53	1011.83
613.88	1003.82
614.22	996.09
614.57	988.29
614.92	980.36
615.27	972.81
615.61	965.03
615.96	957.42
616.31	950.05
616.65	942.99
617.00	935.77
617.35	928.60
617.70	921.48
618.04	914.42
618.39	907.58
618.74	901.15
619.08	894.19
619.43	887.19
619.78	879.99
620.12	872.81
620.47	865.90
620.82	858.78
621.16	851.95
621.51	845.65
621.85	839.38
622.20	832.89
622.55	826.33
622.89	819.89
623.24	813.32
623.59	806.86
623.93	800.38
624.28	794.22
624.62	788.70
624.97	782.75
625.32	776.84
625.66	770.76
626.01	764.62
626.35	759.11
626.70	753.60
627.04	748.34
627.39	742.68
627.73	737.41
628.08	732.12
628.43	726.70
628.77	721.14
629.12	715.71
629.46	710.88
629.81	705.95
630.15	701.29
630.50	696.56
630.84	691.85
631.19	687.09
631.53	682.46
631.88	677.07
632.22	672.23
632.57	667.71
632.91	663.29
633.26	658.78
633.60	654.07
633.95	649.32
634.29	644.48
634.64	640.10
634.98	635.45
635.32	631.22
635.67	627.18
636.01	622.98
636.36	618.56
636.70	614.47
637.05	610.18
637.39	605.82
637.73	601.57
638.08	597.55
638.42	593.28
638.77	588.93
639.11	584.49
639.45	580.29
639.80	575.89
640.14	571.70
640.49	567.63
640.83	563.80
641.17	560.10
641.52	556.54
641.86	552.99
642.20	549.55
642.55	545.79
642.89	542.17
643.23	538.63
643.58	535.56
643.92	531.78
644.26	528.36
644.61	525.11
644.95	521.81
645.29	518.33
645.64	515.19
645.98	512.06
646.32	509.26
646.66	506.20
647.01	503.15
647.35	500.25
647.69	497.41
648.04	494.57
648.38	491.68
648.72	488.69
649.06	485.70
649.41	482.73
649.75	479.64
650.09	476.75
650.43	473.87
650.78	470.78
651.12	468.01
651.46	465.25
651.80	462.46
652.14	459.76
652.49	457.21
652.83	454.57
653.17	451.90
653.51	449.12
653.85	446.66
654.20	444.23
654.54	441.66
654.88	439.08
655.22	436.80
655.56	434.38
655.90	431.94
656.25	429.61
656.59	427.33
656.93	425.18
657.27	423.11
657.61	420.71
657.95	418.47
658.29	416.27
658.64	414.21
658.98	412.07
659.32	409.74
659.66	407.58
660.00	405.56
660.34	403.61
660.68	401.67
661.02	399.60
661.36	397.60
661.70	395.57
662.05	393.67
662.39	391.70
662.73	389.89
663.07	388.37
663.41	386.38
663.75	384.45
664.09	382.57
664.43	380.57
664.77	378.94
665.11	377.28
665.45	375.67
665.79	373.96
666.13	372.24
666.47	370.61
666.81	368.90
667.15	367.11
667.49	365.57
667.83	364.23
668.17	362.73
668.51	361.30
668.85	360.06
669.19	358.90
669.53	357.29
669.87	355.74
670.21	354.17
670.55	352.92
670.89	351.80
671.23	350.43
671.57	349.10
671.91	347.68
672.25	346.25
672.58	344.94
672.92	343.47
673.26	342.12
673.60	340.97
673.94	339.81
674.28	338.71
674.62	337.59
674.96	336.15
675.30	334.97
675.64	333.69
675.97	332.36
676.31	330.96
676.65	329.74
676.99	328.73
677.33	327.47
677.67	326.28
678.01	324.92
678.34	323.93
678.68	322.87
679.02	321.86
679.36	320.87
679.70	319.83
680.04	318.93
680.37	317.99
680.71	316.97
681.05	316.05
681.39	315.15
681.73	314.09
682.06	313.18
682.40	312.25
682.74	311.43
683.08	310.76
683.42	309.87
683.75	309.15
684.09	308.15
684.43	307.38
684.77	306.50
685.10	305.70
685.44	304.89
685.78	304.14
686.12	303.36
686.45	302.54
686.79	301.65
687.13	300.84
687.46	300.12
687.80	299.51
688.14	298.62
688.48	297.88
688.81	297.11
689.15	296.53
689.49	295.73
689.82	295.05
690.16	294.11
690.50	293.35
690.83	292.54
691.17	291.75
691.51	291.02
691.84	290.43
692.18	289.68
692.52	289.03
692.85	288.38
693.19	287.96
693.52	287.39
693.86	286.82
694.20	286.16
694.53	285.53
694.87	284.72
695.21	284.18
695.54	283.53
695.88	282.90
696.21	282.08
696.55	281.52
696.88	280.94
697.22	280.31
697.56	279.80
697.89	279.22
698.23	278.82
698.56	278.36
698.90	277.92
699.23	277.40
699.57	276.89
699.90	276.26
700.24	275.56
700.58	275.09
700.91	274.73
701.25	274.66
701.58	274.52
701.92	274.22
702.25	273.75
702.59	273.30
702.92	272.88
703.26	272.53
703.59	272.17
703.93	272.11
704.26	271.79
704.60	271.45
704.93	271.00
705.26	270.46
705.60	270.10
705.93	269.55
706.27	269.30
706.60	269.00
706.94	268.90
707.27	268.48
707.61	268.10
707.94	267.70
708.27	266.93
708.61	266.24
708.94	265.84
709.28	265.51
709.61	265.11
709.94	264.75
710.28	264.37
710.61	263.98
710.95	263.14
711.28	263.13
711.61	262.64
711.95	262.47
712.28	262.25
712.61	261.93
712.95	261.89
713.28	261.71
713.61	261.26
713.95	260.76
714.28	260.52
714.61	260.16
714.95	259.70
715.28	259.28
715.61	258.91
715.95	258.61
716.28	258.19
716.61	257.97
716.95	257.63
717.28	257.31
717.61	256.97
717.94	256.75
718.28	256.08
718.61	255.86
718.94	255.45
719.27	255.06
719.61	254.79
719.94	254.36
720.27	253.84
720.60	253.56
720.94	253.31
721.27	253.14
721.60	252.95
721.93	252.76
722.27	252.77
722.60	252.55
722.93	252.24
723.26	252.10
723.59	251.75
723.93	251.64
724.26	251.45
724.59	251.20
724.92	251.07
725.25	250.95
725.59	250.72
725.92	250.66
726.25	250.48
726.58	250.25
726.91	250.09
727.24	249.89
727.57	249.74
727.91	249.46
728.24	249.18
728.57	248.95
728.90	248.84
729.23	248.43
729.56	248.46
729.89	248.35
730.22	248.13
730.55	247.99
730.89	247.76
731.22	247.59
731.55	247.38
731.88	247.20
732.21	246.95
732.54	246.73
732.87	246.50
733.20	246.35
733.53	246.11
733.86	245.97
734.19	245.77
734.52	245.68
734.85	245.85
735.18	245.67
735.51	245.65
735.84	245.47
736.17	245.50
736.50	245.13
736.83	245.50
737.16	245.42
737.49	245.27
737.82	245.04
738.15	245.01
738.48	244.93
738.81	244.60
739.14	244.49
739.47	244.32
739.80	244.11
740.13	244.01
740.46	243.84
740.79	243.57
741.12	243.44
741.45	243.19
741.78	242.84
742.11	242.85
742.44	242.55
742.77	242.49
743.10	242.26
743.43	242.08
743.75	241.45
744.08	241.85
744.41	241.71
744.74	241.59
745.07	241.25
745.40	241.17
745.73	241.30
746.06	241.08
746.39	241.03
746.71	240.90
747.04	240.70
747.37	240.54
747.70	240.55
748.03	240.56
748.36	240.49
748.68	240.30
749.01	240.08
749.34	240.00
749.67	239.90
750.00	239.89
750.33	240.23
750.65	240.16
750.98	239.41
751.31	239.38
751.64	239.39
751.97	239.62
752.29	239.52
752.62	239.18
752.95	239.06
753.28	238.91
753.60	238.77
753.93	238.82
754.26	238.89
754.59	238.67
754.91	238.42
755.24	238.29
755.57	238.31
755.90	238.19
756.22	237.97
756.55	237.78
756.88	237.58
757.20	237.08
757.53	236.80
757.86	236.75
758.19	236.69
758.51	236.58
758.84	236.26
759.17	236.10
759.49	236.11
759.82	236.29
760.15	236.36
760.47	236.35
760.80	236.19
761.13	236.05
761.45	235.99
761.78	235.95
762.11	235.96
762.43	235.75
762.76	235.62
763.08	235.76
763.41	235.74
763.74	235.62
764.06	235.60
764.39	235.59
764.71	235.47
765.04	235.24
765.37	235.07
765.69	235.00
766.02	234.96
766.34	234.82
766.67	234.51
767.00	234.43
767.32	234.62
767.65	234.76
767.97	234.68
768.30	234.61
768.62	234.50
768.95	234.39
769.27	234.30
769.60	234.31
769.92	234.12
770.25	233.91
770.57	233.85
770.90	233.79
771.22	233.70
771.55	233.68
771.87	233.70
772.20	233.68
772.52	234.00
772.85	234.44
773.17	234.44
773.50	234.38
773.82	234.27
774.15	233.90
774.47	233.57
774.80	233.48
775.12	233.38
775.45	233.33
775.77	233.25
776.09	233.29
776.42	233.22
776.74	233.24
777.07	233.16
777.39	233.15
777.72	233.08
778.04	233.07
778.36	233.02
778.69	232.99
779.01	232.93
779.33	232.45
779.66	231.99
779.98	231.88
780.31	231.88
780.63	231.98
780.95	232.06
781.28	231.99
781.60	231.87
781.92	231.81
782.25	231.74
782.57	231.63
782.89	231.50
783.22	231.43
783.54	231.26
783.86	231.28
784.19	231.20
784.51	231.25
784.83	231.10
785.16	230.98
785.48	230.92
785.80	230.88
786.12	230.90
786.45	230.79
786.77	230.79
787.09	230.71
787.42	230.53
787.74	230.52
788.06	230.55
788.38	230.52
788.71	230.50
789.03	230.50
789.35	230.57
789.67	230.44
789.99	230.35
790.32	230.28
790.64	230.37
790.96	230.69
791.28	230.54
791.61	230.53
791.93	230.56
792.25	230.52
792.57	230.84
792.89	230.72
793.21	230.69
793.54	230.60
793.86	230.50
794.18	230.47
794.50	230.30
794.82	230.23
795.14	230.30
795.47	230.35
795.79	230.34
796.11	230.26
796.43	230.25
796.75	230.33
797.07	230.36
797.39	230.26
797.71	229.92
798.04	229.85
798.36	229.87
798.68	229.87
799.00	229.89
799.32	229.65
799.64	229.72
799.96	229.73
800.28	229.79
800.60	229.74
800.92	229.79
801.24	229.77
801.56	229.82
801.89	229.75
802.21	229.77
802.53	229.76
802.85	229.83
803.17	230.08
803.49	229.93
803.81	229.87
804.13	229.80
804.45	229.75
804.77	229.75
805.09	229.74
805.41	229.69
805.73	229.61
806.05	229.43
806.37	229.49
806.69	229.33
807.01	229.30
807.33	229.38
807.65	229.23
807.97	229.54
808.28	229.51
808.60	229.48
808.92	229.41
809.24	229.67
809.56	229.53
809.88	229.33
810.20	229.38
810.52	229.51
810.84	229.51
811.16	229.42
811.48	229.49
811.80	229.67
812.12	229.60
812.43	229.72
812.75	229.77
813.07	229.62
813.39	229.69
813.71	229.62
814.03	229.60
814.35	229.54
814.67	229.24
814.98	229.15
815.30	229.15
815.62	229.06
815.94	228.65
816.26	228.87
816.58	228.74
816.89	228.74
817.21	228.58
817.53	228.55
817.85	228.60
