SpectraSuite Data File
++++++++++++++++++++++++++++++++++++
Date: Wed Sep 04 18:00:49 EDT 2013
User: lab3
Dark Spectrum Present: Yes
Reference Spectrum Present: No
Number of Sampled Component Spectra: 1
Spectrometers: USB2E7196
Integration Time (usec): 170000 (USB2E7196)
Spectra Averaged: 20 (USB2E7196)
Boxcar Smoothing: 10 (USB2E7196)
Correct for Electrical Dark: No (USB2E7196)
Strobe/Lamp Enabled: No (USB2E7196)
Correct for Detector Non-linearity: No (USB2E7196)
Correct for Stray Light: No (USB2E7196)
Number of Pixels in Processed Spectrum: 2048
>>>>>Begin Processed Spectral Data<<<<<
339.09	0.00
339.48	214.00
339.86	214.45
340.24	216.70
340.63	218.65
341.01	225.85
341.39	219.80
341.78	222.45
342.16	224.65
342.54	223.20
342.93	212.75
343.31	223.43
343.69	223.94
344.07	224.42
344.46	224.87
344.84	225.19
345.22	225.22
345.60	225.50
345.99	225.69
346.37	225.73
346.75	225.82
347.13	225.88
347.52	226.00
347.90	226.28
348.28	226.25
348.66	226.42
349.05	226.23
349.43	226.31
349.81	226.37
350.19	226.39
350.57	226.46
350.96	226.53
351.34	226.64
351.72	226.76
352.10	226.85
352.48	226.85
352.87	226.90
353.25	226.94
353.63	226.98
354.01	227.01
354.39	227.11
354.77	227.18
355.15	227.40
355.54	227.41
355.92	227.31
356.30	227.36
356.68	227.63
357.06	227.81
357.44	227.77
357.82	227.79
358.20	228.28
358.58	228.39
358.97	228.49
359.35	228.68
359.73	228.80
360.11	228.87
360.49	228.95
360.87	229.01
361.25	229.06
361.63	229.34
362.01	229.45
362.39	229.43
362.77	229.53
363.15	229.51
363.53	229.52
363.91	229.51
364.29	229.58
364.67	229.19
365.05	229.20
365.43	229.31
365.81	229.43
366.19	229.30
366.57	229.46
366.95	229.45
367.33	229.34
367.71	229.31
368.09	229.43
368.47	229.42
368.85	229.43
369.23	229.54
369.61	229.35
369.99	229.48
370.37	229.59
370.75	229.81
371.13	229.71
371.51	229.59
371.89	229.63
372.27	229.61
372.65	229.64
373.03	229.57
373.41	229.45
373.78	229.41
374.16	229.12
374.54	228.88
374.92	228.80
375.30	228.71
375.68	228.62
376.06	228.54
376.44	228.44
376.82	228.44
377.19	228.36
377.57	228.30
377.95	228.11
378.33	228.00
378.71	227.61
379.09	227.57
379.47	227.58
379.84	227.39
380.22	227.29
380.60	227.11
380.98	227.05
381.36	226.96
381.73	226.76
382.11	226.78
382.49	226.79
382.87	226.65
383.25	226.55
383.62	227.05
384.00	226.88
384.38	226.89
384.76	226.88
385.13	226.98
385.51	226.83
385.89	226.67
386.27	226.58
386.64	226.61
387.02	226.53
387.40	226.49
387.78	226.55
388.15	226.56
388.53	226.52
388.91	226.40
389.29	226.37
389.66	226.44
390.04	226.37
390.42	226.37
390.79	226.40
391.17	226.44
391.55	225.89
391.92	225.87
392.30	225.95
392.68	225.85
393.05	225.86
393.43	225.98
393.81	226.00
394.18	225.96
394.56	225.99
394.94	226.09
395.31	226.02
395.69	226.17
396.06	226.24
396.44	226.33
396.82	226.39
397.19	226.72
397.57	226.72
397.95	226.85
398.32	226.77
398.70	226.93
399.07	227.08
399.45	227.11
399.82	227.24
400.20	227.19
400.58	227.31
400.95	227.20
401.33	227.45
401.70	227.97
402.08	228.14
402.45	228.28
402.83	228.60
403.20	228.82
403.58	228.87
403.95	229.17
404.33	229.48
404.71	229.71
405.08	230.09
405.46	230.32
405.83	230.59
406.21	230.85
406.58	231.06
406.96	231.35
407.33	231.74
407.70	232.16
408.08	232.95
408.45	233.38
408.83	233.88
409.20	234.17
409.58	234.34
409.95	234.93
410.33	235.51
410.70	235.84
411.08	236.49
411.45	237.05
411.82	237.53
412.20	238.25
412.57	239.23
412.95	239.65
413.32	240.61
413.69	241.35
414.07	242.30
414.44	243.32
414.82	244.35
415.19	245.57
415.56	246.78
415.94	247.68
416.31	249.16
416.68	250.57
417.06	252.20
417.43	253.79
417.81	255.51
418.18	257.28
418.55	259.25
418.93	261.27
419.30	263.46
419.67	265.71
420.04	267.95
420.42	270.30
420.79	273.35
421.16	276.11
421.54	279.30
421.91	282.36
422.28	285.50
422.66	288.80
423.03	292.22
423.40	295.64
423.77	299.35
424.15	303.01
424.52	306.82
424.89	311.03
425.26	315.06
425.64	318.88
426.01	323.17
426.38	327.54
426.75	332.09
427.13	336.64
427.50	341.53
427.87	346.45
428.24	351.37
428.61	355.89
428.99	361.23
429.36	366.75
429.73	372.25
430.10	377.79
430.47	383.57
430.85	389.38
431.22	395.57
431.59	402.33
431.96	408.56
432.33	415.56
432.70	422.33
433.08	430.27
433.45	437.80
433.82	445.21
434.19	453.52
434.56	461.74
434.93	469.53
435.30	477.36
435.68	486.07
436.05	494.71
436.42	503.16
436.79	510.90
437.16	519.44
437.53	528.36
437.90	537.10
438.27	545.79
438.64	554.78
439.01	563.15
439.38	570.35
439.75	577.57
440.13	585.59
440.50	593.10
440.87	599.15
441.24	605.53
441.61	612.57
441.98	617.59
442.35	623.41
442.72	629.57
443.09	635.37
443.46	638.86
443.83	640.99
444.20	642.97
444.57	645.73
444.94	646.59
445.31	647.71
445.68	649.15
446.05	649.19
446.42	647.74
446.79	646.24
447.16	644.64
447.53	643.37
447.90	639.70
448.27	636.02
448.64	631.11
449.01	627.35
449.37	621.19
449.74	615.19
450.11	608.21
450.48	600.29
450.85	592.27
451.22	585.25
451.59	578.56
451.96	572.19
452.33	564.00
452.70	556.76
453.07	547.89
453.43	538.65
453.80	530.24
454.17	522.15
454.54	514.38
454.91	506.21
455.28	498.18
455.65	490.68
456.02	483.68
456.38	477.25
456.75	469.48
457.12	462.82
457.49	456.40
457.86	449.96
458.23	444.83
458.59	438.96
458.96	433.20
459.33	427.97
459.70	422.82
460.07	418.67
460.43	413.78
460.80	409.54
461.17	405.81
461.54	401.71
461.91	397.85
462.27	393.85
462.64	390.56
463.01	386.90
463.38	383.58
463.74	379.57
464.11	376.63
464.48	373.99
464.85	371.09
465.21	369.00
465.58	366.80
465.95	363.97
466.32	361.75
466.68	359.41
467.05	357.39
467.42	355.22
467.78	352.87
468.15	350.81
468.52	349.22
468.88	346.95
469.25	345.02
469.62	343.54
469.98	341.99
470.35	340.42
470.72	339.00
471.08	337.20
471.45	335.96
471.82	334.65
472.18	333.23
472.55	332.30
472.92	331.01
473.28	329.85
473.65	328.69
474.02	327.64
474.38	326.85
474.75	326.08
475.11	325.15
475.48	324.57
475.85	323.90
476.21	323.25
476.58	322.78
476.94	322.45
477.31	321.92
477.67	321.50
478.04	321.14
478.41	320.90
478.77	321.35
479.14	321.14
479.50	321.05
479.87	320.95
480.23	320.85
480.60	320.76
480.96	320.72
481.33	321.06
481.69	321.27
482.06	321.49
482.42	321.76
482.79	322.21
483.15	322.65
483.52	323.29
483.88	323.76
484.25	324.28
484.61	324.95
484.98	325.67
485.34	326.65
485.71	327.56
486.07	328.53
486.44	329.03
486.80	330.08
487.17	331.19
487.53	332.64
487.90	334.06
488.26	335.77
488.62	337.53
488.99	339.06
489.35	340.87
489.72	342.80
490.08	344.79
490.44	346.77
490.81	348.93
491.17	351.19
491.54	353.70
491.90	356.23
492.26	358.94
492.63	361.71
492.99	364.55
493.36	367.74
493.72	371.08
494.08	374.54
494.45	378.22
494.81	382.25
495.17	386.20
495.54	390.44
495.90	394.60
496.26	398.91
496.63	403.65
496.99	408.41
497.35	413.43
497.72	418.64
498.08	424.17
498.44	429.95
498.80	436.03
499.17	442.21
499.53	448.55
499.89	455.26
500.26	462.09
500.62	469.22
500.98	476.67
501.34	484.18
501.71	491.97
502.07	499.86
502.43	507.97
502.79	516.36
503.16	525.16
503.52	534.28
503.88	543.54
504.24	553.21
504.60	563.25
504.97	573.58
505.33	584.02
505.69	595.10
506.05	606.04
506.41	617.32
506.78	629.03
507.14	640.97
507.50	653.24
507.86	665.94
508.22	678.70
508.59	691.74
508.95	705.24
509.31	719.40
509.67	733.66
510.03	747.94
510.39	762.74
510.75	777.85
511.12	793.18
511.48	809.07
511.84	824.89
512.20	840.85
512.56	856.97
512.92	873.77
513.28	890.66
513.64	907.92
514.00	925.22
514.37	942.90
514.73	961.21
515.09	979.56
515.45	998.30
515.81	1016.96
516.17	1035.69
516.53	1054.50
516.89	1073.21
517.25	1092.61
517.61	1112.84
517.97	1133.15
518.33	1153.10
518.69	1173.33
519.05	1193.80
519.41	1214.45
519.77	1235.49
520.13	1256.53
520.49	1277.24
520.85	1299.57
521.21	1320.91
521.57	1342.44
521.93	1363.22
522.29	1384.35
522.65	1405.07
523.01	1425.60
523.37	1446.16
523.73	1467.37
524.09	1488.23
524.45	1509.05
524.81	1530.20
525.17	1550.95
525.53	1571.60
525.89	1592.54
526.25	1613.38
526.61	1633.86
526.97	1655.12
527.33	1676.48
527.68	1698.51
528.04	1719.93
528.40	1739.53
528.76	1760.45
529.12	1781.08
529.48	1802.09
529.84	1822.23
530.20	1843.47
530.56	1864.57
530.91	1885.79
531.27	1906.40
531.63	1927.02
531.99	1947.96
532.35	1968.15
532.71	1988.35
533.07	2009.18
533.42	2029.24
533.78	2049.48
534.14	2069.37
534.50	2088.47
534.86	2107.76
535.21	2125.21
535.57	2143.82
535.93	2161.88
536.29	2179.98
536.65	2197.98
537.00	2215.65
537.36	2233.69
537.72	2250.42
538.08	2267.48
538.44	2284.46
538.79	2300.94
539.15	2317.61
539.51	2333.25
539.87	2348.24
540.22	2362.77
540.58	2376.77
540.94	2389.96
541.29	2402.34
541.65	2415.28
542.01	2427.68
542.37	2438.33
542.72	2449.74
543.08	2460.61
543.44	2472.21
543.79	2482.39
544.15	2492.19
544.51	2502.13
544.87	2511.82
545.22	2520.38
545.58	2528.34
545.94	2535.37
546.29	2542.05
546.65	2548.35
547.01	2554.01
547.36	2560.00
547.72	2565.48
548.07	2569.76
548.43	2575.31
548.79	2580.36
549.14	2584.39
549.50	2588.57
549.86	2592.97
550.21	2596.70
550.57	2600.05
550.92	2601.45
551.28	2602.95
551.64	2605.61
551.99	2607.91
552.35	2609.48
552.70	2611.54
553.06	2613.33
553.41	2614.88
553.77	2616.59
554.13	2618.20
554.48	2620.07
554.84	2621.65
555.19	2622.80
555.55	2624.36
555.90	2623.81
556.26	2623.38
556.61	2621.83
556.97	2619.81
557.32	2619.21
557.68	2618.15
558.03	2616.72
558.39	2615.72
558.74	2614.97
559.10	2611.83
559.45	2608.29
559.81	2603.78
560.16	2599.10
560.52	2594.35
560.87	2589.92
561.23	2584.46
561.58	2578.60
561.94	2571.86
562.29	2564.61
562.64	2557.56
563.00	2549.40
563.35	2542.89
563.71	2536.00
564.06	2529.99
564.42	2523.50
564.77	2516.55
565.12	2508.79
565.48	2501.10
565.83	2493.24
566.19	2484.92
566.54	2477.06
566.89	2468.90
567.25	2461.19
567.60	2453.75
567.96	2446.14
568.31	2438.06
568.66	2429.66
569.02	2420.88
569.37	2412.74
569.72	2404.91
570.08	2395.73
570.43	2386.37
570.78	2377.12
571.14	2367.52
571.49	2357.30
571.84	2347.82
572.20	2336.71
572.55	2326.78
572.90	2316.09
573.26	2305.45
573.61	2294.21
573.96	2283.35
574.31	2271.44
574.67	2259.89
575.02	2247.20
575.37	2234.23
575.72	2220.71
576.08	2208.38
576.43	2195.55
576.78	2182.26
577.13	2168.38
577.49	2155.59
577.84	2143.70
578.19	2131.57
578.54	2119.11
578.90	2107.00
579.25	2094.24
579.60	2081.50
579.95	2068.25
580.30	2054.88
580.66	2041.56
581.01	2028.21
581.36	2013.81
581.71	2001.20
582.06	1988.18
582.42	1975.60
582.77	1963.09
583.12	1951.44
583.47	1939.03
583.82	1927.13
584.17	1915.28
584.53	1903.46
584.88	1890.24
585.23	1877.09
585.58	1862.73
585.93	1849.40
586.28	1836.04
586.63	1822.27
586.98	1808.29
587.34	1795.02
587.69	1781.93
588.04	1769.35
588.39	1756.95
588.74	1744.90
589.09	1732.35
589.44	1719.43
589.79	1707.38
590.14	1695.38
590.49	1682.88
590.84	1670.70
591.19	1658.41
591.54	1645.65
591.89	1633.14
592.25	1623.13
592.60	1611.46
592.95	1600.25
593.30	1588.28
593.65	1576.21
594.00	1563.82
594.35	1553.99
594.70	1542.13
595.05	1530.49
595.40	1518.13
595.75	1506.46
596.10	1494.99
596.45	1483.60
596.80	1472.73
597.15	1461.15
597.50	1449.13
597.85	1437.70
598.19	1426.10
598.54	1414.61
598.89	1403.38
599.24	1393.01
599.59	1381.07
599.94	1370.29
600.29	1359.61
600.64	1349.06
600.99	1338.37
601.34	1329.08
601.69	1317.80
602.04	1307.76
602.39	1297.80
602.74	1288.53
603.08	1279.00
603.43	1269.72
603.78	1259.94
604.13	1250.24
604.48	1240.32
604.83	1230.76
605.18	1221.05
605.53	1211.47
605.87	1201.98
606.22	1193.56
606.57	1184.11
606.92	1174.70
607.27	1165.53
607.62	1156.65
607.96	1147.98
608.31	1139.83
608.66	1131.30
609.01	1122.48
609.36	1114.05
609.70	1105.69
610.05	1096.94
610.40	1088.24
610.75	1079.48
611.10	1071.08
611.44	1062.41
611.79	1054.41
612.14	1046.66
612.49	1038.62
612.83	1031.25
613.18	1023.60
613.53	1015.69
613.88	1007.68
614.22	999.98
614.57	992.08
614.92	984.10
615.27	976.76
615.61	969.14
615.96	961.28
616.31	953.94
616.65	946.93
617.00	939.40
617.35	932.12
617.70	924.97
618.04	917.71
618.39	910.77
618.74	904.22
619.08	896.98
619.43	889.77
619.78	882.70
620.12	875.22
620.47	868.28
620.82	861.12
621.16	854.27
621.51	847.80
621.85	841.40
622.20	834.96
622.55	828.11
622.89	821.52
623.24	815.30
623.59	808.76
623.93	802.35
624.28	796.21
624.62	790.55
624.97	784.61
625.32	778.99
625.66	772.86
626.01	766.63
626.35	761.14
626.70	755.45
627.04	750.34
627.39	744.76
627.73	739.43
628.08	734.11
628.43	728.69
628.77	723.29
629.12	717.96
629.46	712.93
629.81	708.19
630.15	703.32
630.50	698.28
630.84	693.42
631.19	688.45
631.53	683.82
631.88	678.51
632.22	673.58
632.57	669.02
632.91	664.56
633.26	660.08
633.60	655.50
633.95	650.89
634.29	646.01
634.64	641.57
634.98	636.67
635.32	632.28
635.67	628.03
636.01	623.79
636.36	619.40
636.70	615.42
637.05	611.23
637.39	607.02
637.73	602.81
638.08	598.70
638.42	594.55
638.77	590.10
639.11	585.74
639.45	581.39
639.80	576.82
640.14	572.53
640.49	568.39
640.83	564.57
641.17	560.86
641.52	557.02
641.86	553.35
642.20	550.05
642.55	546.28
642.89	542.82
643.23	539.24
643.58	536.17
643.92	532.53
644.26	528.99
644.61	525.60
644.95	522.21
645.29	518.73
645.64	515.52
645.98	512.57
646.32	509.80
646.66	506.78
647.01	503.89
647.35	501.24
647.69	498.47
648.04	495.48
648.38	492.53
648.72	489.70
649.06	486.55
649.41	483.54
649.75	480.58
650.09	477.57
650.43	474.68
650.78	471.65
651.12	468.70
651.46	465.75
651.80	463.00
652.14	460.29
652.49	457.81
652.83	455.13
653.17	452.48
653.51	449.68
653.85	447.23
654.20	444.69
654.54	441.83
654.88	439.15
655.22	436.78
655.56	434.31
655.90	431.89
656.25	429.79
656.59	427.49
656.93	425.30
657.27	423.15
657.61	420.60
657.95	418.36
658.29	416.24
658.64	414.20
658.98	411.96
659.32	409.70
659.66	407.56
660.00	405.42
660.34	403.35
660.68	401.31
661.02	399.22
661.36	397.13
661.70	395.17
662.05	393.21
662.39	391.31
662.73	389.53
663.07	387.97
663.41	386.03
663.75	384.06
664.09	382.24
664.43	380.26
664.77	378.79
665.11	377.03
665.45	375.29
665.79	373.65
666.13	372.01
666.47	370.46
666.81	368.82
667.15	367.12
667.49	365.45
667.83	363.98
668.17	362.56
668.51	361.22
668.85	359.97
669.19	358.83
669.53	357.18
669.87	355.65
670.21	353.95
670.55	352.62
670.89	351.55
671.23	350.10
671.57	348.84
671.91	347.42
672.25	346.22
672.58	345.09
672.92	343.57
673.26	342.35
673.60	341.11
673.94	339.89
674.28	338.87
674.62	337.76
674.96	336.57
675.30	335.43
675.64	334.19
675.97	332.83
676.31	331.39
676.65	330.28
676.99	329.31
677.33	328.17
677.67	327.13
678.01	325.77
678.34	324.70
678.68	323.69
679.02	322.65
679.36	321.49
679.70	320.43
680.04	319.61
680.37	318.39
680.71	317.26
681.05	316.35
681.39	315.37
681.73	314.43
682.06	313.58
682.40	312.64
682.74	311.82
683.08	311.18
683.42	310.37
683.75	309.58
684.09	308.64
684.43	307.91
684.77	306.97
685.10	306.21
685.44	305.53
685.78	304.69
686.12	303.95
686.45	303.08
686.79	302.22
687.13	301.51
687.46	300.94
687.80	300.42
688.14	299.57
688.48	298.70
688.81	297.93
689.15	297.18
689.49	296.43
689.82	295.72
690.16	294.76
690.50	294.05
690.83	293.33
691.17	292.55
691.51	291.87
691.84	291.24
692.18	290.52
692.52	289.78
692.85	289.27
693.19	288.79
693.52	288.27
693.86	287.54
694.20	286.86
694.53	286.24
694.87	285.54
695.21	284.91
695.54	284.37
695.88	283.73
696.21	283.02
696.55	282.43
696.88	281.75
697.22	281.20
697.56	280.71
697.89	280.09
698.23	279.61
698.56	278.94
698.90	278.51
699.23	278.00
699.57	277.56
699.90	276.94
700.24	276.30
700.58	275.84
700.91	275.47
701.25	275.30
701.58	275.17
701.92	274.77
702.25	274.32
702.59	273.90
702.92	273.48
703.26	273.10
703.59	272.69
703.93	272.66
704.26	272.26
704.60	271.83
704.93	271.45
705.26	270.89
705.60	270.62
705.93	270.08
706.27	269.77
706.60	269.40
706.94	269.28
707.27	268.75
707.61	268.34
707.94	267.93
708.27	267.23
708.61	266.49
708.94	266.06
709.28	265.72
709.61	265.30
709.94	264.94
710.28	264.61
710.61	264.22
710.95	263.41
711.28	263.42
711.61	263.01
711.95	262.76
712.28	262.49
712.61	262.10
712.95	261.96
713.28	261.81
713.61	261.34
713.95	260.77
714.28	260.49
714.61	260.10
714.95	259.70
715.28	259.29
715.61	258.90
715.95	258.61
716.28	258.20
716.61	257.86
716.95	257.55
717.28	257.14
717.61	256.87
717.94	256.64
718.28	255.94
718.61	255.59
718.94	255.15
719.27	254.85
719.61	254.60
719.94	254.27
720.27	253.74
720.60	253.51
720.94	253.18
721.27	252.99
721.60	252.83
721.93	252.60
722.27	252.55
722.60	252.39
722.93	252.02
723.26	251.93
723.59	251.71
723.93	251.57
724.26	251.48
724.59	251.18
724.92	250.99
725.25	250.89
725.59	250.67
725.92	250.57
726.25	250.44
726.58	250.23
726.91	250.03
727.24	249.81
727.57	249.63
727.91	249.41
728.24	249.33
728.57	249.01
728.90	248.87
729.23	248.50
729.56	248.61
729.89	248.52
730.22	248.24
730.55	248.10
730.89	247.85
731.22	247.58
731.55	247.38
731.88	247.20
732.21	246.98
732.54	246.81
732.87	246.64
733.20	246.38
733.53	246.26
733.86	246.08
734.19	245.92
734.52	245.80
734.85	245.99
735.18	245.70
735.51	245.77
735.84	245.71
736.17	245.72
736.50	245.31
736.83	245.73
737.16	245.66
737.49	245.54
737.82	245.38
738.15	245.39
738.48	245.34
738.81	245.18
739.14	244.99
739.47	244.85
739.80	244.66
740.13	244.65
740.46	244.36
740.79	244.25
741.12	244.14
741.45	243.97
741.78	243.54
742.11	243.52
742.44	243.27
742.77	243.17
743.10	242.99
743.43	242.81
743.75	242.12
744.08	242.55
744.41	242.37
744.74	242.28
745.07	242.00
745.40	241.93
745.73	241.98
746.06	241.88
746.39	241.82
746.71	241.69
747.04	241.48
747.37	241.31
747.70	241.28
748.03	241.21
748.36	241.14
748.68	241.04
749.01	240.81
749.34	240.62
749.67	240.45
750.00	240.39
750.33	240.65
750.65	240.63
750.98	239.95
751.31	239.87
751.64	239.73
751.97	239.90
752.29	239.74
752.62	239.45
752.95	239.35
753.28	239.20
753.60	239.12
753.93	239.10
754.26	239.17
754.59	238.84
754.91	238.62
755.24	238.44
755.57	238.28
755.90	238.19
756.22	238.14
756.55	237.99
756.88	237.77
757.20	237.37
757.53	237.08
757.86	236.89
758.19	236.82
758.51	236.68
758.84	236.31
759.17	236.17
759.49	236.03
759.82	236.07
760.15	235.96
760.47	235.83
760.80	235.64
761.13	235.55
761.45	235.46
761.78	235.35
762.11	235.29
762.43	235.21
762.76	235.05
763.08	235.03
763.41	234.90
763.74	234.79
764.06	234.61
764.39	234.59
764.71	234.55
765.04	234.44
765.37	234.34
765.69	234.18
766.02	234.06
766.34	233.95
766.67	233.68
767.00	233.69
767.32	233.80
767.65	233.96
767.97	233.81
768.30	233.78
768.62	233.69
768.95	233.55
769.27	233.45
769.60	233.52
769.92	233.34
770.25	233.24
770.57	233.14
770.90	233.07
771.22	232.91
771.55	232.83
771.87	232.70
772.20	232.61
772.52	233.08
772.85	233.63
773.17	233.59
773.50	233.52
773.82	233.41
774.15	233.18
774.47	232.84
774.80	232.74
775.12	232.62
775.45	232.60
775.77	232.60
776.09	232.58
776.42	232.45
776.74	232.58
777.07	232.53
777.39	232.50
777.72	232.43
778.04	232.47
778.36	232.48
778.69	232.51
779.01	232.56
779.33	232.05
779.66	231.44
779.98	231.34
780.31	231.34
780.63	231.54
780.95	231.60
781.28	231.58
781.60	231.53
781.92	231.56
782.25	231.50
782.57	231.50
782.89	231.41
783.22	231.38
783.54	231.19
783.86	231.24
784.19	231.20
784.51	231.33
784.83	231.27
785.16	231.12
785.48	231.08
785.80	231.02
786.12	231.04
786.45	231.00
786.77	231.04
787.09	230.98
787.42	230.73
787.74	230.69
788.06	230.65
788.38	230.69
788.71	230.60
789.03	230.64
789.35	230.63
789.67	230.58
789.99	230.58
790.32	230.49
790.64	230.46
790.96	230.82
791.28	230.57
791.61	230.56
791.93	230.57
792.25	230.50
792.57	230.82
792.89	230.67
793.21	230.72
793.54	230.72
793.86	230.67
794.18	230.70
794.50	230.55
794.82	230.58
795.14	230.56
795.47	230.70
795.79	230.65
796.11	230.49
796.43	230.45
796.75	230.42
797.07	230.48
797.39	230.36
797.71	230.00
798.04	230.06
798.36	230.02
798.68	230.07
799.00	230.10
799.32	229.87
799.64	229.96
799.96	229.87
800.28	229.84
800.60	229.82
800.92	229.82
801.24	229.83
801.56	229.90
801.89	229.80
802.21	229.65
802.53	229.59
802.85	229.68
803.17	229.90
803.49	229.77
803.81	229.63
804.13	229.63
804.45	229.52
804.77	229.52
805.09	229.49
805.41	229.45
805.73	229.33
806.05	229.13
806.37	229.03
806.69	228.98
807.01	228.98
807.33	228.98
807.65	228.85
807.97	229.03
808.28	228.87
808.60	228.89
808.92	228.89
809.24	229.17
809.56	229.08
809.88	228.84
810.20	228.89
810.52	228.98
810.84	228.89
811.16	228.81
811.48	228.75
811.80	228.88
812.12	228.78
812.43	228.87
812.75	228.90
813.07	228.91
813.39	228.96
813.71	228.85
814.03	228.76
814.35	228.71
814.67	228.51
814.98	228.50
815.30	228.45
815.62	228.34
815.94	227.90
816.26	228.11
816.58	228.06
816.89	228.07
817.21	227.98
817.53	228.01
817.85	228.07
