SpectraSuite Data File
++++++++++++++++++++++++++++++++++++
Date: Wed Sep 04 17:59:08 EDT 2013
User: lab3
Dark Spectrum Present: Yes
Reference Spectrum Present: No
Number of Sampled Component Spectra: 1
Spectrometers: USB2E7196
Integration Time (usec): 170000 (USB2E7196)
Spectra Averaged: 20 (USB2E7196)
Boxcar Smoothing: 10 (USB2E7196)
Correct for Electrical Dark: No (USB2E7196)
Strobe/Lamp Enabled: No (USB2E7196)
Correct for Detector Non-linearity: No (USB2E7196)
Correct for Stray Light: No (USB2E7196)
Number of Pixels in Processed Spectrum: 2048
>>>>>Begin Processed Spectral Data<<<<<
339.09	0.00
339.48	213.75
339.86	215.05
340.24	216.20
340.63	217.50
341.01	225.90
341.39	220.95
341.78	222.15
342.16	224.75
342.54	222.80
342.93	212.82
343.31	223.54
343.69	224.08
344.07	224.48
344.46	224.97
344.84	225.36
345.22	225.34
345.60	225.60
345.99	225.80
346.37	225.85
346.75	225.95
347.13	225.94
347.52	226.00
347.90	226.16
348.28	226.16
348.66	226.28
349.05	226.18
349.43	226.23
349.81	226.31
350.19	226.39
350.57	226.47
350.96	226.58
351.34	226.64
351.72	226.67
352.10	226.84
352.48	226.89
352.87	226.91
353.25	227.03
353.63	227.00
354.01	227.04
354.39	227.11
354.77	227.20
355.15	227.44
355.54	227.43
355.92	227.28
356.30	227.41
356.68	227.84
357.06	227.90
357.44	227.85
357.82	227.89
358.20	228.35
358.58	228.37
358.97	228.49
359.35	228.60
359.73	228.76
360.11	228.83
360.49	228.84
360.87	228.88
361.25	228.99
361.63	229.20
362.01	229.29
362.39	229.33
362.77	229.45
363.15	229.50
363.53	229.60
363.91	229.68
364.29	229.60
364.67	229.08
365.05	229.14
365.43	229.27
365.81	229.30
366.19	229.16
366.57	229.45
366.95	229.37
367.33	229.40
367.71	229.44
368.09	229.49
368.47	229.53
368.85	229.54
369.23	229.59
369.61	229.45
369.99	229.59
370.37	229.66
370.75	229.89
371.13	229.78
371.51	229.65
371.89	229.64
372.27	229.70
372.65	229.80
373.03	229.75
373.41	229.69
373.78	229.71
374.16	229.38
374.54	229.18
374.92	229.15
375.30	229.07
375.68	228.88
376.06	228.92
376.44	228.86
376.82	228.91
377.19	228.82
377.57	228.77
377.95	228.56
378.33	228.49
378.71	228.04
379.09	227.96
379.47	227.95
379.84	227.87
380.22	227.80
380.60	227.60
380.98	227.51
381.36	227.36
381.73	227.17
382.11	227.15
382.49	227.03
382.87	226.91
383.25	226.82
383.62	227.42
384.00	227.20
384.38	227.15
384.76	227.15
385.13	227.16
385.51	227.15
385.89	227.02
386.27	226.94
386.64	227.05
387.02	227.01
387.40	226.92
387.78	226.90
388.15	226.90
388.53	226.90
388.91	226.88
389.29	226.82
389.66	226.93
390.04	226.89
390.42	227.01
390.79	226.94
391.17	226.99
391.55	226.42
391.92	226.47
392.30	226.49
392.68	226.37
393.05	226.45
393.43	226.47
393.81	226.57
394.18	226.54
394.56	226.51
394.94	226.58
395.31	226.55
395.69	226.73
396.06	226.85
396.44	226.88
396.82	226.87
397.19	227.23
397.57	227.15
397.95	227.26
398.32	227.22
398.70	227.39
399.07	227.57
399.45	227.58
399.82	227.65
400.20	227.72
400.58	227.75
400.95	227.66
401.33	227.80
401.70	228.22
402.08	228.35
402.45	228.56
402.83	228.85
403.20	229.12
403.58	229.22
403.95	229.46
404.33	229.69
404.71	229.93
405.08	230.44
405.46	230.70
405.83	231.00
406.21	231.22
406.58	231.57
406.96	231.73
407.33	232.13
407.70	232.50
408.08	233.20
408.45	233.74
408.83	234.27
409.20	234.70
409.58	234.86
409.95	235.40
410.33	235.88
410.70	236.28
411.08	236.85
411.45	237.47
411.82	237.98
412.20	238.78
412.57	239.74
412.95	240.04
413.32	240.94
413.69	241.77
414.07	242.69
414.44	243.63
414.82	244.76
415.19	245.96
415.56	247.04
415.94	248.08
416.31	249.49
416.68	250.86
417.06	252.45
417.43	254.01
417.81	255.80
418.18	257.67
418.55	259.55
418.93	261.60
419.30	263.74
419.67	265.95
420.04	268.19
420.42	270.53
420.79	273.55
421.16	276.29
421.54	279.26
421.91	282.31
422.28	285.37
422.66	288.58
423.03	291.95
423.40	295.41
423.77	298.94
424.15	302.65
424.52	306.46
424.89	310.61
425.26	314.66
425.64	318.44
426.01	322.57
426.38	327.00
426.75	331.56
427.13	336.12
427.50	340.94
427.87	345.90
428.24	350.91
428.61	355.46
428.99	360.88
429.36	366.36
429.73	371.84
430.10	377.40
430.47	383.23
430.85	388.89
431.22	395.03
431.59	401.93
431.96	408.20
432.33	415.17
432.70	421.92
433.08	429.84
433.45	437.33
433.82	444.72
434.19	452.98
434.56	461.08
434.93	468.75
435.30	476.50
435.68	485.13
436.05	493.53
436.42	501.99
436.79	509.69
437.16	518.19
437.53	527.05
437.90	535.83
438.27	544.42
438.64	553.47
439.01	561.81
439.38	568.99
439.75	576.09
440.13	584.18
440.50	591.79
440.87	597.91
441.24	604.35
441.61	611.47
441.98	616.55
442.35	622.39
442.72	628.54
443.09	634.49
443.46	637.96
443.83	640.30
444.20	642.28
444.57	644.84
444.94	645.82
445.31	646.93
445.68	648.22
446.05	648.43
446.42	647.10
446.79	645.85
447.16	644.18
447.53	642.96
447.90	639.24
448.27	635.46
448.64	630.56
449.01	626.61
449.37	620.37
449.74	614.38
450.11	607.53
450.48	599.73
450.85	591.55
451.22	584.61
451.59	577.89
451.96	571.57
452.33	563.58
452.70	556.24
453.07	547.59
453.43	538.43
453.80	529.78
454.17	521.64
454.54	513.74
454.91	505.50
455.28	497.39
455.65	489.87
456.02	483.03
456.38	476.71
456.75	469.05
457.12	462.49
457.49	456.10
457.86	449.73
458.23	444.43
458.59	438.79
458.96	432.91
459.33	427.79
459.70	422.53
460.07	418.40
460.43	413.70
460.80	409.36
461.17	405.64
461.54	401.68
461.91	397.87
462.27	394.00
462.64	390.69
463.01	387.19
463.38	383.87
463.74	379.86
464.11	376.69
464.48	374.09
464.85	371.27
465.21	369.12
465.58	366.59
465.95	363.79
466.32	361.49
466.68	359.25
467.05	357.17
467.42	355.00
467.78	352.59
468.15	350.42
468.52	348.69
468.88	346.44
469.25	344.59
469.62	343.10
469.98	341.52
470.35	340.06
470.72	338.60
471.08	336.88
471.45	335.49
471.82	334.28
472.18	332.81
472.55	331.73
472.92	330.40
473.28	329.37
473.65	328.27
474.02	327.24
474.38	326.39
474.75	325.57
475.11	324.65
475.48	324.01
475.85	323.38
476.21	322.72
476.58	322.20
476.94	321.80
477.31	321.35
477.67	320.89
478.04	320.54
478.41	320.24
478.77	320.62
479.14	320.39
479.50	320.25
479.87	320.30
480.23	320.38
480.60	320.40
480.96	320.48
481.33	320.92
481.69	321.11
482.06	321.32
482.42	321.50
482.79	321.86
483.15	322.31
483.52	322.98
483.88	323.60
484.25	324.24
484.61	324.90
484.98	325.57
485.34	326.46
485.71	327.41
486.07	328.36
486.44	328.85
486.80	329.98
487.17	331.16
487.53	332.59
487.90	333.92
488.26	335.58
488.62	337.29
488.99	338.66
489.35	340.47
489.72	342.45
490.08	344.43
490.44	346.47
490.81	348.72
491.17	350.90
491.54	353.39
491.90	355.96
492.26	358.63
492.63	361.45
492.99	364.36
493.36	367.46
493.72	370.89
494.08	374.40
494.45	378.16
494.81	381.98
495.17	385.87
495.54	390.14
495.90	394.22
496.26	398.56
496.63	403.34
496.99	408.06
497.35	413.13
497.72	418.43
498.08	423.95
498.44	429.61
498.80	435.63
499.17	441.68
499.53	447.99
499.89	454.69
500.26	461.66
500.62	468.66
500.98	476.11
501.34	483.45
501.71	491.18
502.07	498.98
502.43	507.15
502.79	515.49
503.16	524.26
503.52	533.33
503.88	542.59
504.24	552.25
504.60	562.34
504.97	572.52
505.33	583.01
505.69	594.22
506.05	605.26
506.41	616.57
506.78	628.44
507.14	640.41
507.50	652.61
507.86	665.05
508.22	678.25
508.59	691.24
508.95	704.99
509.31	719.16
509.67	733.46
510.03	747.94
510.39	762.75
510.75	777.82
511.12	793.24
511.48	808.97
511.84	824.76
512.20	840.66
512.56	857.22
512.92	873.96
513.28	890.69
513.64	908.06
514.00	925.48
514.37	943.12
514.73	961.25
515.09	979.65
515.45	998.20
515.81	1016.49
516.17	1035.20
516.53	1053.78
516.89	1072.44
517.25	1091.80
517.61	1112.01
517.97	1132.31
518.33	1152.42
518.69	1172.49
519.05	1193.04
519.41	1213.93
519.77	1235.32
520.13	1255.95
520.49	1276.85
520.85	1299.22
521.21	1320.47
521.57	1342.28
521.93	1363.18
522.29	1384.39
522.65	1405.43
523.01	1426.39
523.37	1447.25
523.73	1468.53
524.09	1489.51
524.45	1510.39
524.81	1531.44
525.17	1552.09
525.53	1572.50
525.89	1593.25
526.25	1614.58
526.61	1635.09
526.97	1656.12
527.33	1677.10
527.68	1698.87
528.04	1720.00
528.40	1739.97
528.76	1761.04
529.12	1781.00
529.48	1801.82
529.84	1822.05
530.20	1843.09
530.56	1863.96
530.91	1885.29
531.27	1905.84
531.63	1926.43
531.99	1947.12
532.35	1967.43
532.71	1987.60
533.07	2008.57
533.42	2028.68
533.78	2048.70
534.14	2068.81
534.50	2087.88
534.86	2107.31
535.21	2125.17
535.57	2143.87
535.93	2161.79
536.29	2179.46
536.65	2198.10
537.00	2216.04
537.36	2233.88
537.72	2250.55
538.08	2267.79
538.44	2284.36
538.79	2300.85
539.15	2317.46
539.51	2333.45
539.87	2348.26
540.22	2363.08
540.58	2377.40
540.94	2390.61
541.29	2403.04
541.65	2415.66
542.01	2428.24
542.37	2438.88
542.72	2449.75
543.08	2460.44
543.44	2471.67
543.79	2481.86
544.15	2491.42
544.51	2501.43
544.87	2511.35
545.22	2520.29
545.58	2528.03
545.94	2535.12
546.29	2542.01
546.65	2548.41
547.01	2554.40
547.36	2560.58
547.72	2565.75
548.07	2569.92
548.43	2575.80
548.79	2580.41
549.14	2584.57
549.50	2588.23
549.86	2592.46
550.21	2596.37
550.57	2599.96
550.92	2601.49
551.28	2603.25
551.64	2605.94
551.99	2607.76
552.35	2609.35
552.70	2611.17
553.06	2613.12
553.41	2614.31
553.77	2616.08
554.13	2617.67
554.48	2618.75
554.84	2619.90
555.19	2620.89
555.55	2622.33
555.90	2621.27
556.26	2621.01
556.61	2619.54
556.97	2617.73
557.32	2616.88
557.68	2615.64
558.03	2614.00
558.39	2612.72
558.74	2611.85
559.10	2608.27
559.45	2604.89
559.81	2600.26
560.16	2595.22
560.52	2590.34
560.87	2586.10
561.23	2580.43
561.58	2574.65
561.94	2568.22
562.29	2560.58
562.64	2553.71
563.00	2545.77
563.35	2539.25
563.71	2532.45
564.06	2526.23
564.42	2519.78
564.77	2512.91
565.12	2505.67
565.48	2498.12
565.83	2490.59
566.19	2482.30
566.54	2474.70
566.89	2466.22
567.25	2458.79
567.60	2451.80
567.96	2444.26
568.31	2436.14
568.66	2427.67
569.02	2418.48
569.37	2410.15
569.72	2403.04
570.08	2393.58
570.43	2383.97
570.78	2374.80
571.14	2365.28
571.49	2355.15
571.84	2345.41
572.20	2334.65
572.55	2324.50
572.90	2313.64
573.26	2303.12
573.61	2292.19
573.96	2281.15
574.31	2269.52
574.67	2257.38
575.02	2244.53
575.37	2231.60
575.72	2218.29
576.08	2205.90
576.43	2193.33
576.78	2180.40
577.13	2166.56
577.49	2154.02
577.84	2142.36
578.19	2130.39
578.54	2117.78
578.90	2105.52
579.25	2093.16
579.60	2080.53
579.95	2067.52
580.30	2053.87
580.66	2040.30
581.01	2026.50
581.36	2012.07
581.71	1999.29
582.06	1986.20
582.42	1973.46
582.77	1960.95
583.12	1949.15
583.47	1937.09
583.82	1925.09
584.17	1912.64
584.53	1900.69
584.88	1887.80
585.23	1874.40
585.58	1860.15
585.93	1846.64
586.28	1833.50
586.63	1819.64
586.98	1805.35
587.34	1791.88
587.69	1778.93
588.04	1766.15
588.39	1754.12
588.74	1742.20
589.09	1730.07
589.44	1717.34
589.79	1705.47
590.14	1693.28
590.49	1681.07
590.84	1668.82
591.19	1656.48
591.54	1644.56
591.89	1632.35
592.25	1621.73
592.60	1610.07
592.95	1598.39
593.30	1586.61
593.65	1574.44
594.00	1562.31
594.35	1552.21
594.70	1540.68
595.05	1529.24
595.40	1517.31
595.75	1505.11
596.10	1493.68
596.45	1482.05
596.80	1471.18
597.15	1459.27
597.50	1447.45
597.85	1435.96
598.19	1424.01
598.54	1412.52
598.89	1401.10
599.24	1390.18
599.59	1378.72
599.94	1368.01
600.29	1357.46
600.64	1347.00
600.99	1336.11
601.34	1326.45
601.69	1315.33
602.04	1305.07
602.39	1295.28
602.74	1286.09
603.08	1276.72
603.43	1267.60
603.78	1257.93
604.13	1248.41
604.48	1238.70
604.83	1228.96
605.18	1219.06
605.53	1209.59
605.87	1200.31
606.22	1191.50
606.57	1182.37
606.92	1172.89
607.27	1163.77
607.62	1155.02
607.96	1146.41
608.31	1138.50
608.66	1130.20
609.01	1121.68
609.36	1113.14
609.70	1104.53
610.05	1095.63
610.40	1087.21
610.75	1078.35
611.10	1069.98
611.44	1061.37
611.79	1053.29
612.14	1045.58
612.49	1037.80
612.83	1030.17
613.18	1022.44
613.53	1014.65
613.88	1006.76
614.22	998.92
614.57	990.98
614.92	983.23
615.27	975.68
615.61	967.98
615.96	960.06
616.31	952.56
616.65	945.64
617.00	938.48
617.35	931.24
617.70	924.17
618.04	917.10
618.39	910.08
618.74	903.53
619.08	896.70
619.43	889.55
619.78	882.57
620.12	875.43
620.47	868.39
620.82	861.37
621.16	854.50
621.51	848.03
621.85	841.58
622.20	834.83
622.55	828.17
622.89	821.69
623.24	815.38
623.59	808.89
623.93	802.41
624.28	796.10
624.62	790.26
624.97	784.22
625.32	778.32
625.66	772.20
626.01	765.97
626.35	760.40
626.70	754.74
627.04	749.33
627.39	743.72
627.73	738.31
628.08	733.00
628.43	727.59
628.77	722.30
629.12	717.10
629.46	712.33
629.81	707.46
630.15	702.69
630.50	697.84
630.84	693.02
631.19	688.29
631.53	683.73
631.88	678.59
632.22	673.72
632.57	669.22
632.91	664.54
633.26	660.18
633.60	655.30
633.95	650.57
634.29	645.71
634.64	641.30
634.98	636.72
635.32	632.10
635.67	627.84
636.01	623.55
636.36	619.19
636.70	615.06
637.05	610.81
637.39	606.45
637.73	602.22
638.08	598.22
638.42	593.83
638.77	589.40
639.11	585.00
639.45	580.71
639.80	576.28
640.14	572.30
640.49	568.04
640.83	564.20
641.17	560.55
641.52	556.78
641.86	553.27
642.20	550.02
642.55	546.39
642.89	542.89
643.23	539.30
643.58	536.12
643.92	532.31
644.26	528.85
644.61	525.61
644.95	522.25
645.29	518.86
645.64	515.59
645.98	512.50
646.32	509.66
646.66	506.60
647.01	503.63
647.35	500.70
647.69	497.92
648.04	495.15
648.38	492.30
648.72	489.48
649.06	486.35
649.41	483.07
649.75	480.01
650.09	477.08
650.43	474.15
650.78	471.17
651.12	468.47
651.46	465.63
651.80	462.79
652.14	460.09
652.49	457.56
652.83	454.99
653.17	452.31
653.51	449.57
653.85	447.17
654.20	444.63
654.54	442.01
654.88	439.39
655.22	436.96
655.56	434.47
655.90	432.05
656.25	429.61
656.59	427.47
656.93	425.52
657.27	423.43
657.61	421.04
657.95	418.80
658.29	416.60
658.64	414.48
658.98	412.33
659.32	410.02
659.66	407.69
660.00	405.63
660.34	403.68
660.68	401.75
661.02	399.68
661.36	397.75
661.70	395.80
662.05	393.88
662.39	391.93
662.73	390.18
663.07	388.56
663.41	386.98
663.75	385.01
664.09	382.91
664.43	381.00
664.77	379.39
665.11	377.56
665.45	375.92
665.79	374.35
666.13	372.60
666.47	370.94
666.81	369.43
667.15	367.63
667.49	366.13
667.83	364.71
668.17	363.17
668.51	361.64
668.85	360.29
669.19	359.15
669.53	357.59
669.87	355.98
670.21	354.49
670.55	353.00
670.89	351.95
671.23	350.69
671.57	349.30
671.91	347.98
672.25	346.60
672.58	345.39
672.92	343.92
673.26	342.70
673.60	341.49
673.94	340.22
674.28	339.21
674.62	337.96
674.96	336.62
675.30	335.46
675.64	334.24
675.97	333.01
676.31	331.53
676.65	330.35
676.99	329.46
677.33	328.23
677.67	327.15
678.01	325.77
678.34	324.75
678.68	323.76
679.02	322.59
679.36	321.58
679.70	320.50
680.04	319.58
680.37	318.47
680.71	317.52
681.05	316.52
681.39	315.54
681.73	314.52
682.06	313.55
682.40	312.59
682.74	311.75
683.08	311.06
683.42	310.12
683.75	309.41
684.09	308.39
684.43	307.46
684.77	306.54
685.10	305.81
685.44	304.97
685.78	304.15
686.12	303.49
686.45	302.68
686.79	301.84
687.13	301.07
687.46	300.44
687.80	299.84
688.14	299.11
688.48	298.41
688.81	297.77
689.15	297.22
689.49	296.48
689.82	295.75
690.16	294.80
690.50	294.22
690.83	293.38
691.17	292.55
691.51	292.00
691.84	291.39
692.18	290.61
692.52	289.90
692.85	289.32
693.19	288.80
693.52	288.23
693.86	287.56
694.20	286.93
694.53	286.29
694.87	285.66
695.21	284.97
695.54	284.30
695.88	283.52
696.21	282.74
696.55	282.15
696.88	281.51
697.22	280.86
697.56	280.28
697.89	279.62
698.23	279.25
698.56	278.61
698.90	278.16
699.23	277.67
699.57	277.19
699.90	276.58
700.24	275.97
700.58	275.48
700.91	275.09
701.25	275.00
701.58	274.85
701.92	274.49
702.25	274.06
702.59	273.58
702.92	273.25
703.26	272.89
703.59	272.45
703.93	272.48
704.26	272.16
704.60	271.74
704.93	271.39
705.26	270.85
705.60	270.59
705.93	269.99
706.27	269.74
706.60	269.47
706.94	269.30
707.27	268.81
707.61	268.34
707.94	267.95
708.27	267.06
708.61	266.32
708.94	265.77
709.28	265.38
709.61	264.95
709.94	264.54
710.28	264.16
710.61	263.84
710.95	263.10
711.28	263.08
711.61	262.68
711.95	262.42
712.28	262.06
712.61	261.63
712.95	261.59
713.28	261.37
713.61	260.96
713.95	260.45
714.28	260.24
714.61	259.96
714.95	259.46
715.28	259.18
715.61	258.86
715.95	258.59
716.28	258.29
716.61	258.03
716.95	257.66
717.28	257.28
717.61	256.94
717.94	256.56
718.28	255.93
718.61	255.69
718.94	255.39
719.27	255.08
719.61	254.83
719.94	254.51
720.27	254.05
720.60	253.77
720.94	253.50
721.27	253.26
721.60	253.13
721.93	253.08
722.27	253.07
722.60	252.89
722.93	252.54
723.26	252.39
723.59	252.15
723.93	252.02
724.26	251.84
724.59	251.61
724.92	251.46
725.25	251.40
725.59	251.14
725.92	250.92
726.25	250.74
726.58	250.58
726.91	250.39
727.24	250.31
727.57	250.04
727.91	249.83
728.24	249.71
728.57	249.43
728.90	249.24
729.23	248.92
729.56	249.02
729.89	248.87
730.22	248.59
730.55	248.46
730.89	248.30
731.22	248.08
731.55	248.00
731.88	247.89
732.21	247.58
732.54	247.39
732.87	247.21
733.20	247.03
733.53	246.85
733.86	246.72
734.19	246.43
734.52	246.39
734.85	246.60
735.18	246.36
735.51	246.36
735.84	246.21
736.17	246.14
736.50	245.71
736.83	246.12
737.16	246.01
737.49	245.93
737.82	245.74
738.15	245.70
738.48	245.60
738.81	245.34
739.14	245.19
739.47	245.08
739.80	244.95
740.13	244.93
740.46	244.70
740.79	244.43
741.12	244.28
741.45	244.05
741.78	243.57
742.11	243.53
742.44	243.31
742.77	243.22
743.10	242.99
743.43	242.81
743.75	242.18
744.08	242.68
744.41	242.47
744.74	242.35
745.07	242.14
745.40	241.93
745.73	242.00
746.06	241.87
746.39	241.72
746.71	241.54
747.04	241.34
747.37	241.23
747.70	241.16
748.03	241.06
748.36	241.01
748.68	240.95
749.01	240.62
749.34	240.40
749.67	240.22
750.00	240.21
750.33	240.42
750.65	240.30
750.98	239.56
751.31	239.48
751.64	239.29
751.97	239.44
752.29	239.33
752.62	238.98
752.95	238.86
753.28	238.70
753.60	238.59
753.93	238.55
754.26	238.46
754.59	238.22
754.91	238.02
755.24	237.92
755.57	237.77
755.90	237.69
756.22	237.62
756.55	237.50
756.88	237.34
757.20	236.90
757.53	236.73
757.86	236.59
758.19	236.45
758.51	236.36
758.84	235.93
759.17	235.79
759.49	235.80
759.82	235.94
760.15	236.00
760.47	235.88
760.80	235.65
761.13	235.68
761.45	235.59
761.78	235.54
762.11	235.47
762.43	235.33
762.76	235.28
763.08	235.27
763.41	235.16
763.74	235.06
764.06	235.01
764.39	235.00
764.71	234.96
765.04	234.85
765.37	234.80
765.69	234.82
766.02	234.78
766.34	234.70
766.67	234.45
767.00	234.46
767.32	234.59
767.65	234.86
767.97	234.73
768.30	234.66
768.62	234.59
768.95	234.44
769.27	234.43
769.60	234.45
769.92	234.31
770.25	234.21
770.57	234.10
770.90	234.10
771.22	233.90
771.55	233.84
771.87	233.84
772.20	233.71
772.52	234.03
772.85	234.54
773.17	234.44
773.50	234.37
773.82	234.20
774.15	233.93
774.47	233.59
774.80	233.44
775.12	233.54
775.45	233.51
775.77	233.51
776.09	233.40
776.42	233.32
776.74	233.41
777.07	233.29
777.39	233.25
777.72	233.13
778.04	233.19
778.36	233.14
778.69	233.05
779.01	233.10
779.33	232.62
779.66	231.99
779.98	231.92
780.31	231.82
780.63	231.93
780.95	231.98
781.28	231.92
781.60	231.85
781.92	231.67
782.25	231.61
782.57	231.52
782.89	231.48
783.22	231.41
783.54	231.23
783.86	231.30
784.19	231.25
784.51	231.36
784.83	231.25
785.16	231.16
785.48	231.11
785.80	231.00
786.12	231.04
786.45	230.98
786.77	230.97
787.09	230.98
787.42	230.81
787.74	230.85
788.06	230.92
788.38	230.88
788.71	230.77
789.03	230.68
789.35	230.66
789.67	230.57
789.99	230.56
790.32	230.47
790.64	230.49
790.96	230.85
791.28	230.65
791.61	230.58
791.93	230.60
792.25	230.56
792.57	230.90
792.89	230.75
793.21	230.80
793.54	230.66
793.86	230.56
794.18	230.52
794.50	230.36
794.82	230.26
795.14	230.31
795.47	230.43
795.79	230.40
796.11	230.27
796.43	230.22
796.75	230.10
797.07	230.08
797.39	229.97
797.71	229.54
798.04	229.50
798.36	229.46
798.68	229.35
799.00	229.34
799.32	228.98
799.64	229.05
799.96	229.00
800.28	229.09
800.60	228.95
800.92	228.99
801.24	228.93
801.56	228.89
801.89	228.74
802.21	228.71
802.53	228.64
802.85	228.70
803.17	228.90
803.49	228.82
803.81	228.81
804.13	228.81
804.45	228.79
804.77	228.76
805.09	228.73
805.41	228.67
805.73	228.66
806.05	228.58
806.37	228.56
806.69	228.47
807.01	228.39
807.33	228.51
807.65	228.29
807.97	228.46
808.28	228.45
808.60	228.44
808.92	228.37
809.24	228.66
809.56	228.62
809.88	228.44
810.20	228.46
810.52	228.50
810.84	228.37
811.16	228.30
811.48	228.23
811.80	228.45
812.12	228.43
812.43	228.49
812.75	228.54
813.07	228.46
813.39	228.50
813.71	228.50
814.03	228.37
814.35	228.42
814.67	228.26
814.98	228.19
815.30	228.17
815.62	228.08
815.94	227.78
816.26	228.01
816.58	227.90
816.89	227.90
817.21	227.78
817.53	227.83
817.85	227.87
