SpectraSuite Data File
++++++++++++++++++++++++++++++++++++
Date: Wed Sep 04 17:50:12 EDT 2013
User: lab3
Dark Spectrum Present: Yes
Reference Spectrum Present: No
Number of Sampled Component Spectra: 1
Spectrometers: USB2E7196
Integration Time (usec): 170000 (USB2E7196)
Spectra Averaged: 20 (USB2E7196)
Boxcar Smoothing: 10 (USB2E7196)
Correct for Electrical Dark: No (USB2E7196)
Strobe/Lamp Enabled: No (USB2E7196)
Correct for Detector Non-linearity: No (USB2E7196)
Correct for Stray Light: No (USB2E7196)
Number of Pixels in Processed Spectrum: 2048
>>>>>Begin Processed Spectral Data<<<<<
339.09	0.00
339.48	211.65
339.86	215.55
340.24	215.85
340.63	217.20
341.01	225.80
341.39	219.95
341.78	222.40
342.16	222.95
342.54	224.20
342.93	212.39
343.31	223.05
343.69	223.62
344.07	224.04
344.46	224.53
344.84	224.97
345.22	224.90
345.60	225.25
345.99	225.40
346.37	225.52
346.75	225.62
347.13	225.69
347.52	225.74
347.90	225.95
348.28	226.04
348.66	226.14
349.05	226.04
349.43	226.16
349.81	226.19
350.19	226.26
350.57	226.28
350.96	226.39
351.34	226.56
351.72	226.62
352.10	226.72
352.48	226.75
352.87	226.78
353.25	226.87
353.63	226.82
354.01	226.89
354.39	226.96
354.77	226.97
355.15	227.16
355.54	227.13
355.92	227.01
356.30	227.08
356.68	227.39
357.06	227.45
357.44	227.39
357.82	227.48
358.20	227.94
358.58	227.96
358.97	228.00
359.35	228.22
359.73	228.33
360.11	228.34
360.49	228.40
360.87	228.45
361.25	228.50
361.63	228.76
362.01	228.80
362.39	228.82
362.77	228.90
363.15	228.85
363.53	228.93
363.91	228.96
364.29	228.95
364.67	228.53
365.05	228.58
365.43	228.69
365.81	228.76
366.19	228.64
366.57	228.88
366.95	228.89
367.33	228.78
367.71	228.85
368.09	229.00
368.47	228.98
368.85	229.00
369.23	229.15
369.61	228.93
369.99	229.04
370.37	229.11
370.75	229.35
371.13	229.33
371.51	229.26
371.89	229.32
372.27	229.33
372.65	229.32
373.03	229.28
373.41	229.20
373.78	229.18
374.16	228.84
374.54	228.67
374.92	228.58
375.30	228.48
375.68	228.32
376.06	228.31
376.44	228.29
376.82	228.28
377.19	228.19
377.57	228.12
377.95	227.99
378.33	227.91
378.71	227.59
379.09	227.51
379.47	227.44
379.84	227.29
380.22	227.22
380.60	227.11
380.98	227.05
381.36	226.93
381.73	226.79
382.11	226.77
382.49	226.67
382.87	226.58
383.25	226.48
383.62	227.00
384.00	226.76
384.38	226.63
384.76	226.54
385.13	226.63
385.51	226.61
385.89	226.47
386.27	226.34
386.64	226.35
387.02	226.26
387.40	226.23
387.78	226.21
388.15	226.16
388.53	226.12
388.91	226.01
389.29	225.99
389.66	226.00
390.04	225.96
390.42	225.97
390.79	226.02
391.17	226.01
391.55	225.48
391.92	225.52
392.30	225.62
392.68	225.57
393.05	225.52
393.43	225.57
393.81	225.58
394.18	225.60
394.56	225.60
394.94	225.79
395.31	225.73
395.69	225.95
396.06	226.04
396.44	226.10
396.82	226.07
397.19	226.38
397.57	226.36
397.95	226.45
398.32	226.43
398.70	226.49
399.07	226.60
399.45	226.65
399.82	226.70
400.20	226.65
400.58	226.71
400.95	226.59
401.33	226.70
401.70	227.20
402.08	227.37
402.45	227.49
402.83	227.67
403.20	227.86
403.58	227.93
403.95	228.04
404.33	228.26
404.71	228.63
405.08	229.03
405.46	229.28
405.83	229.57
406.21	229.82
406.58	230.08
406.96	230.31
407.33	230.70
407.70	231.09
408.08	231.84
408.45	232.32
408.83	232.82
409.20	233.21
409.58	233.34
409.95	233.86
410.33	234.40
410.70	234.82
411.08	235.53
411.45	236.14
411.82	236.81
412.20	237.61
412.57	238.42
412.95	238.74
413.32	239.62
413.69	240.52
414.07	241.45
414.44	242.48
414.82	243.59
415.19	244.78
415.56	246.02
415.94	246.99
416.31	248.42
416.68	249.89
417.06	251.55
417.43	253.20
417.81	254.90
418.18	256.81
418.55	258.77
418.93	260.76
419.30	262.80
419.67	264.96
420.04	267.19
420.42	269.60
420.79	272.73
421.16	275.53
421.54	278.55
421.91	281.55
422.28	284.56
422.66	287.81
423.03	291.33
423.40	294.59
423.77	298.20
424.15	301.76
424.52	305.55
424.89	309.68
425.26	313.60
425.64	317.38
426.01	321.45
426.38	325.69
426.75	330.15
427.13	334.70
427.50	339.49
427.87	344.35
428.24	349.18
428.61	353.61
428.99	358.89
429.36	364.35
429.73	369.85
430.10	375.35
430.47	380.92
430.85	386.45
431.22	392.66
431.59	399.35
431.96	405.55
432.33	412.27
432.70	418.78
433.08	426.56
433.45	433.98
433.82	441.29
434.19	449.39
434.56	457.41
434.93	465.10
435.30	472.66
435.68	481.19
436.05	489.47
436.42	497.77
436.79	505.32
437.16	513.47
437.53	522.10
437.90	530.81
438.27	539.40
438.64	548.08
439.01	556.17
439.38	563.39
439.75	570.47
440.13	578.57
440.50	586.15
440.87	592.19
441.24	598.44
441.61	605.43
441.98	610.57
442.35	616.34
442.72	622.38
443.09	628.24
443.46	631.63
443.83	634.04
444.20	636.00
444.57	638.80
444.94	639.86
445.31	641.07
445.68	642.44
446.05	642.65
446.42	641.57
446.79	640.21
447.16	638.58
447.53	637.31
447.90	633.67
448.27	629.90
448.64	625.19
449.01	621.52
449.37	615.30
449.74	609.23
450.11	602.49
450.48	594.71
450.85	586.77
451.22	580.00
451.59	573.41
451.96	567.15
452.33	559.00
452.70	551.87
453.07	543.31
453.43	534.18
453.80	525.70
454.17	517.66
454.54	510.01
454.91	501.81
455.28	493.85
455.65	486.40
456.02	479.72
456.38	473.32
456.75	465.72
457.12	459.24
457.49	453.15
457.86	446.81
458.23	441.69
458.59	436.08
458.96	430.43
459.33	425.43
459.70	420.35
460.07	416.32
460.43	411.62
460.80	407.22
461.17	403.48
461.54	399.63
461.91	395.88
462.27	392.07
462.64	388.89
463.01	385.50
463.38	382.26
463.74	378.25
464.11	375.29
464.48	372.64
464.85	369.91
465.21	367.77
465.58	365.40
465.95	362.48
466.32	360.22
466.68	357.90
467.05	355.66
467.42	353.48
467.78	351.09
468.15	348.90
468.52	347.42
468.88	345.27
469.25	343.28
469.62	341.76
469.98	340.21
470.35	338.68
470.72	337.20
471.08	335.53
471.45	334.33
471.82	333.07
472.18	331.68
472.55	330.64
472.92	329.26
473.28	328.17
473.65	327.14
474.02	326.10
474.38	325.23
474.75	324.46
475.11	323.56
475.48	322.96
475.85	322.32
476.21	321.65
476.58	321.25
476.94	321.00
477.31	320.49
477.67	320.04
478.04	319.65
478.41	319.40
478.77	319.65
479.14	319.26
479.50	319.06
479.87	318.96
480.23	319.00
480.60	318.94
480.96	318.95
481.33	319.32
481.69	319.54
482.06	319.79
482.42	320.02
482.79	320.42
483.15	320.89
483.52	321.63
483.88	322.15
484.25	322.68
484.61	323.22
484.98	323.91
485.34	324.95
485.71	325.93
486.07	326.86
486.44	327.50
486.80	328.68
487.17	329.80
487.53	331.20
487.90	332.60
488.26	334.23
488.62	335.98
488.99	337.42
489.35	339.12
489.72	341.01
490.08	343.00
490.44	344.96
490.81	347.22
491.17	349.20
491.54	351.53
491.90	353.95
492.26	356.67
492.63	359.47
492.99	362.20
493.36	365.27
493.72	368.53
494.08	372.00
494.45	375.72
494.81	379.61
495.17	383.48
495.54	387.59
495.90	391.83
496.26	396.18
496.63	400.93
496.99	405.83
497.35	410.77
497.72	416.20
498.08	421.72
498.44	427.32
498.80	433.49
499.17	439.62
499.53	446.01
499.89	452.46
500.26	459.20
500.62	466.19
500.98	473.59
501.34	481.06
501.71	488.72
502.07	496.34
502.43	504.46
502.79	512.97
503.16	521.74
503.52	530.65
503.88	539.90
504.24	549.43
504.60	559.16
504.97	569.39
505.33	579.55
505.69	590.57
506.05	601.58
506.41	612.74
506.78	624.44
507.14	636.44
507.50	648.83
507.86	661.48
508.22	674.48
508.59	687.33
508.95	700.90
509.31	715.07
509.67	729.41
510.03	743.70
510.39	758.32
510.75	773.21
511.12	788.36
511.48	803.98
511.84	819.78
512.20	835.84
512.56	852.19
512.92	868.81
513.28	885.53
513.64	902.47
514.00	919.92
514.37	937.52
514.73	955.40
515.09	973.59
515.45	992.06
515.81	1010.17
516.17	1029.06
516.53	1047.58
516.89	1066.03
517.25	1085.37
517.61	1105.54
517.97	1125.76
518.33	1145.64
518.69	1166.01
519.05	1186.45
519.41	1206.81
519.77	1227.83
520.13	1248.46
520.49	1268.95
520.85	1291.09
521.21	1312.12
521.57	1333.26
521.93	1353.87
522.29	1375.00
522.65	1395.56
523.01	1416.37
523.37	1436.98
523.73	1457.90
524.09	1478.44
524.45	1498.82
524.81	1519.24
525.17	1539.89
525.53	1559.83
525.89	1580.46
526.25	1601.03
526.61	1621.05
526.97	1641.71
527.33	1662.70
527.68	1684.28
528.04	1705.70
528.40	1725.25
528.76	1746.27
529.12	1766.35
529.48	1786.98
529.84	1806.76
530.20	1827.56
530.56	1848.13
530.91	1869.05
531.27	1889.27
531.63	1909.76
531.99	1930.46
532.35	1950.23
532.71	1969.85
533.07	1990.57
533.42	2010.48
533.78	2030.12
534.14	2049.69
534.50	2068.72
534.86	2087.86
535.21	2105.22
535.57	2123.10
535.93	2140.48
536.29	2157.83
536.65	2176.00
537.00	2193.57
537.36	2211.08
537.72	2227.52
538.08	2244.38
538.44	2260.68
538.79	2276.52
539.15	2292.80
539.51	2308.48
539.87	2323.55
540.22	2337.08
540.58	2351.02
540.94	2363.78
541.29	2376.20
541.65	2388.83
542.01	2401.11
542.37	2411.15
542.72	2422.09
543.08	2432.49
543.44	2443.84
543.79	2453.95
544.15	2463.44
544.51	2473.20
544.87	2482.62
545.22	2491.11
545.58	2498.41
545.94	2505.29
546.29	2511.87
546.65	2517.88
547.01	2523.38
547.36	2528.93
547.72	2534.67
548.07	2538.63
548.43	2543.77
548.79	2548.01
549.14	2551.94
549.50	2555.83
549.86	2559.54
550.21	2563.05
550.57	2566.59
550.92	2567.85
551.28	2569.07
551.64	2570.97
551.99	2572.47
552.35	2574.04
552.70	2576.34
553.06	2578.18
553.41	2579.45
553.77	2580.90
554.13	2582.17
554.48	2583.23
554.84	2584.24
555.19	2585.26
555.55	2586.74
555.90	2586.17
556.26	2585.65
556.61	2583.86
556.97	2581.53
557.32	2580.80
557.68	2579.45
558.03	2577.99
558.39	2576.53
558.74	2575.51
559.10	2572.70
559.45	2568.68
559.81	2564.30
560.16	2558.66
560.52	2553.24
560.87	2548.67
561.23	2543.17
561.58	2537.32
561.94	2530.75
562.29	2523.71
562.64	2516.66
563.00	2508.30
563.35	2501.76
563.71	2495.03
564.06	2488.69
564.42	2482.33
564.77	2475.54
565.12	2468.01
565.48	2460.11
565.83	2452.30
566.19	2444.25
566.54	2436.25
566.89	2428.96
567.25	2420.90
567.60	2413.78
567.96	2406.38
568.31	2398.67
568.66	2390.46
569.02	2381.68
569.37	2373.30
569.72	2365.56
570.08	2356.18
570.43	2346.90
570.78	2337.76
571.14	2328.40
571.49	2318.42
571.84	2308.67
572.20	2298.02
572.55	2287.93
572.90	2277.11
573.26	2266.79
573.61	2255.78
573.96	2244.62
574.31	2232.18
574.67	2220.52
575.02	2208.06
575.37	2195.41
575.72	2181.98
576.08	2169.76
576.43	2157.29
576.78	2144.45
577.13	2131.00
577.49	2118.48
577.84	2106.56
578.19	2094.44
578.54	2081.70
578.90	2069.75
579.25	2057.50
579.60	2044.79
579.95	2031.94
580.30	2018.73
580.66	2005.56
581.01	1992.09
581.36	1978.44
581.71	1965.91
582.06	1952.91
582.42	1940.38
582.77	1928.08
583.12	1916.26
583.47	1903.88
583.82	1891.85
584.17	1879.70
584.53	1868.00
584.88	1855.12
585.23	1842.21
585.58	1828.25
585.93	1815.16
586.28	1801.98
586.63	1788.42
586.98	1774.46
587.34	1761.28
587.69	1748.41
588.04	1735.98
588.39	1724.17
588.74	1712.06
589.09	1700.18
589.44	1687.80
589.79	1675.62
590.14	1663.78
590.49	1651.86
590.84	1640.01
591.19	1628.10
591.54	1616.33
591.89	1603.88
592.25	1593.67
592.60	1582.20
592.95	1570.87
593.30	1559.26
593.65	1547.09
594.00	1535.02
594.35	1525.40
594.70	1513.69
595.05	1502.50
595.40	1490.40
595.75	1478.45
596.10	1467.28
596.45	1455.90
596.80	1445.07
597.15	1433.88
597.50	1422.12
597.85	1410.88
598.19	1399.26
598.54	1387.82
598.89	1376.37
599.24	1366.23
599.59	1355.05
599.94	1344.39
600.29	1334.34
600.64	1324.26
600.99	1314.15
601.34	1304.66
601.69	1293.60
602.04	1283.92
602.39	1274.22
602.74	1265.18
603.08	1255.94
603.43	1246.67
603.78	1237.16
604.13	1227.72
604.48	1218.15
604.83	1208.45
605.18	1198.65
605.53	1189.30
605.87	1180.19
606.22	1171.88
606.57	1162.71
606.92	1153.40
607.27	1144.66
607.62	1135.68
607.96	1127.22
608.31	1119.44
608.66	1111.10
609.01	1102.66
609.36	1094.30
609.70	1085.77
610.05	1077.26
610.40	1069.07
610.75	1060.59
611.10	1052.60
611.44	1044.08
611.79	1036.04
612.14	1028.50
612.49	1020.88
612.83	1013.64
613.18	1006.09
613.53	998.44
613.88	990.66
614.22	982.90
614.57	974.97
614.92	967.21
615.27	959.73
615.61	951.86
615.96	944.48
616.31	936.97
616.65	929.99
617.00	922.98
617.35	915.82
617.70	908.70
618.04	901.62
618.39	894.64
618.74	888.44
619.08	881.71
619.43	874.65
619.78	867.66
620.12	860.59
620.47	853.73
620.82	846.54
621.16	839.88
621.51	833.75
621.85	827.71
622.20	821.33
622.55	814.75
622.89	808.58
623.24	802.30
623.59	796.12
623.93	789.95
624.28	783.96
624.62	778.49
624.97	772.61
625.32	766.94
625.66	761.09
626.01	754.98
626.35	749.29
626.70	744.06
627.04	739.01
627.39	733.42
627.73	728.09
628.08	723.10
628.43	717.69
628.77	712.26
629.12	706.98
629.46	702.21
629.81	697.58
630.15	692.82
630.50	687.97
630.84	683.30
631.19	678.57
631.53	673.91
631.88	668.64
632.22	663.88
632.57	659.52
632.91	654.93
633.26	650.57
633.60	646.02
633.95	641.32
634.29	636.63
634.64	632.42
634.98	627.73
635.32	623.41
635.67	619.51
636.01	615.47
636.36	611.26
636.70	607.24
637.05	602.93
637.39	598.79
637.73	594.61
638.08	590.60
638.42	586.39
638.77	582.09
639.11	577.92
639.45	573.75
639.80	569.31
640.14	565.37
640.49	561.54
640.83	557.82
641.17	554.30
641.52	550.57
641.86	547.01
642.20	543.95
642.55	540.34
642.89	536.70
643.23	533.27
643.58	529.99
643.92	526.43
644.26	523.15
644.61	520.10
644.95	516.94
645.29	513.59
645.64	510.46
645.98	507.51
646.32	504.69
646.66	501.60
647.01	498.69
647.35	495.98
647.69	493.06
648.04	490.28
648.38	487.45
648.72	484.58
649.06	481.48
649.41	478.52
649.75	475.73
650.09	472.93
650.43	469.96
650.78	467.15
651.12	464.39
651.46	461.67
651.80	458.74
652.14	456.12
652.49	453.71
652.83	451.16
653.17	448.61
653.51	445.93
653.85	443.65
654.20	441.22
654.54	438.55
654.88	435.88
655.22	433.64
655.56	431.15
655.90	428.88
656.25	426.77
656.59	424.55
656.93	422.26
657.27	420.18
657.61	417.88
657.95	415.79
658.29	413.56
658.64	411.46
658.98	409.35
659.32	407.10
659.66	404.92
660.00	402.86
660.34	400.80
660.68	398.87
661.02	396.76
661.36	394.87
661.70	392.93
662.05	391.14
662.39	389.18
662.73	387.53
663.07	386.02
663.41	384.26
663.75	382.29
664.09	380.50
664.43	378.58
664.77	376.97
665.11	375.17
665.45	373.68
665.79	372.05
666.13	370.31
666.47	368.67
666.81	367.09
667.15	365.45
667.49	364.08
667.83	362.63
668.17	361.22
668.51	359.80
668.85	358.40
669.19	357.21
669.53	355.75
669.87	354.22
670.21	352.58
670.55	351.15
670.89	350.04
671.23	348.83
671.57	347.49
671.91	346.16
672.25	344.83
672.58	343.45
672.92	342.01
673.26	340.85
673.60	339.68
673.94	338.45
674.28	337.30
674.62	336.00
674.96	334.71
675.30	333.42
675.64	332.23
675.97	331.04
676.31	329.70
676.65	328.45
676.99	327.40
677.33	326.32
677.67	325.23
678.01	323.86
678.34	322.70
678.68	321.72
679.02	320.64
679.36	319.63
679.70	318.63
680.04	317.62
680.37	316.60
680.71	315.68
681.05	314.68
681.39	313.72
681.73	312.76
682.06	311.89
682.40	311.10
682.74	310.28
683.08	309.62
683.42	308.75
683.75	307.99
684.09	307.10
684.43	306.36
684.77	305.60
685.10	304.94
685.44	304.16
685.78	303.34
686.12	302.57
686.45	301.83
686.79	301.03
687.13	300.56
687.46	299.82
687.80	299.17
688.14	298.47
688.48	297.86
688.81	297.19
689.15	296.61
689.49	295.83
689.82	295.17
690.16	294.27
690.50	293.49
690.83	292.74
691.17	291.98
691.51	291.18
691.84	290.54
692.18	289.80
692.52	289.12
692.85	288.50
693.19	288.13
693.52	287.50
693.86	286.89
694.20	286.13
694.53	285.62
694.87	284.86
695.21	284.22
695.54	283.54
695.88	282.87
696.21	282.14
696.55	281.63
696.88	280.91
697.22	280.25
697.56	279.83
697.89	279.32
698.23	278.87
698.56	278.26
698.90	277.80
699.23	277.26
699.57	276.83
699.90	276.28
700.24	275.55
700.58	275.16
700.91	274.78
701.25	274.65
701.58	274.52
701.92	274.24
702.25	273.84
702.59	273.34
702.92	272.91
703.26	272.51
703.59	272.10
703.93	272.08
704.26	271.77
704.60	271.34
704.93	270.90
705.26	270.44
705.60	270.20
705.93	269.64
706.27	269.38
706.60	269.04
706.94	268.85
707.27	268.49
707.61	268.12
707.94	267.63
708.27	266.86
708.61	266.19
708.94	265.72
709.28	265.35
709.61	264.97
709.94	264.63
710.28	264.26
710.61	263.81
710.95	263.05
711.28	262.97
711.61	262.60
711.95	262.37
712.28	261.94
712.61	261.51
712.95	261.40
713.28	261.26
713.61	260.83
713.95	260.35
714.28	260.01
714.61	259.56
714.95	259.27
715.28	258.88
715.61	258.43
715.95	258.06
716.28	257.63
716.61	257.47
716.95	257.10
717.28	256.78
717.61	256.48
717.94	256.15
718.28	255.50
718.61	255.18
718.94	254.76
719.27	254.56
719.61	254.26
719.94	253.91
720.27	253.34
720.60	253.04
720.94	252.80
721.27	252.48
721.60	252.30
721.93	252.07
722.27	251.92
722.60	251.80
722.93	251.55
723.26	251.48
723.59	251.14
723.93	251.08
724.26	250.93
724.59	250.75
724.92	250.61
725.25	250.59
725.59	250.48
725.92	250.36
726.25	250.10
726.58	250.03
726.91	249.83
727.24	249.73
727.57	249.55
727.91	249.22
728.24	249.23
728.57	249.00
728.90	248.87
729.23	248.64
729.56	248.68
729.89	248.53
730.22	248.26
730.55	248.02
730.89	247.78
731.22	247.59
731.55	247.38
731.88	247.20
732.21	246.93
732.54	246.60
732.87	246.46
733.20	246.37
733.53	246.11
733.86	245.84
734.19	245.60
734.52	245.54
734.85	245.75
735.18	245.44
735.51	245.42
735.84	245.22
736.17	245.13
736.50	244.65
736.83	245.07
737.16	244.89
737.49	244.78
737.82	244.55
738.15	244.48
738.48	244.33
738.81	244.18
739.14	243.95
739.47	243.77
739.80	243.62
740.13	243.50
740.46	243.29
740.79	243.19
741.12	243.08
741.45	242.86
741.78	242.45
742.11	242.40
742.44	242.15
742.77	242.13
743.10	242.04
743.43	241.96
743.75	241.31
744.08	241.82
744.41	241.69
744.74	241.56
745.07	241.20
745.40	241.10
745.73	241.19
746.06	241.16
746.39	241.22
746.71	241.03
747.04	240.83
747.37	240.67
747.70	240.66
748.03	240.54
748.36	240.44
748.68	240.31
749.01	240.14
749.34	240.03
749.67	239.94
750.00	239.79
750.33	240.00
750.65	239.89
750.98	239.25
751.31	239.10
751.64	239.10
751.97	239.38
752.29	239.27
752.62	238.92
752.95	238.75
753.28	238.48
753.60	238.30
753.93	238.35
754.26	238.34
754.59	238.02
754.91	237.84
755.24	237.73
755.57	237.63
755.90	237.48
756.22	237.35
756.55	237.16
756.88	237.01
757.20	236.51
757.53	236.30
757.86	236.14
758.19	236.10
758.51	235.88
758.84	235.53
759.17	235.43
759.49	235.32
759.82	235.40
760.15	235.40
760.47	235.33
760.80	235.10
761.13	235.07
761.45	234.97
761.78	234.85
762.11	234.71
762.43	234.59
762.76	234.51
763.08	234.45
763.41	234.37
763.74	234.28
764.06	234.23
764.39	234.15
764.71	234.06
765.04	233.91
765.37	233.81
765.69	233.67
766.02	233.54
766.34	233.44
766.67	233.20
767.00	233.23
767.32	233.47
767.65	233.66
767.97	233.50
768.30	233.56
768.62	233.59
768.95	233.48
769.27	233.42
769.60	233.41
769.92	233.32
770.25	233.13
770.57	233.02
770.90	232.94
771.22	232.84
771.55	232.78
771.87	232.81
772.20	232.65
772.52	233.02
772.85	233.62
773.17	233.57
773.50	233.56
773.82	233.44
774.15	233.07
774.47	232.70
774.80	232.65
775.12	232.45
775.45	232.39
775.77	232.34
776.09	232.33
776.42	232.23
776.74	232.29
777.07	232.29
777.39	232.23
777.72	232.14
778.04	232.21
778.36	232.07
778.69	232.00
779.01	232.12
779.33	231.63
779.66	230.99
779.98	230.97
780.31	230.94
780.63	231.09
780.95	231.16
781.28	231.11
781.60	231.04
781.92	231.06
782.25	230.99
782.57	230.98
782.89	230.83
783.22	230.82
783.54	230.62
783.86	230.55
784.19	230.52
784.51	230.67
784.83	230.54
785.16	230.57
785.48	230.50
785.80	230.41
786.12	230.45
786.45	230.34
786.77	230.34
787.09	230.25
787.42	230.00
787.74	229.96
788.06	229.94
788.38	229.89
788.71	229.79
789.03	229.77
789.35	229.82
789.67	229.68
789.99	229.61
790.32	229.58
790.64	229.60
790.96	229.93
791.28	229.77
791.61	229.75
791.93	229.69
792.25	229.64
792.57	229.99
792.89	229.91
793.21	230.00
793.54	229.79
793.86	229.70
794.18	229.64
794.50	229.61
794.82	229.69
795.14	229.81
795.47	229.89
795.79	229.86
796.11	229.64
796.43	229.65
796.75	229.68
797.07	229.67
797.39	229.63
797.71	229.25
798.04	229.22
798.36	229.17
798.68	229.17
799.00	229.15
799.32	228.84
799.64	228.82
799.96	228.75
800.28	228.86
800.60	228.80
800.92	228.88
801.24	228.75
801.56	228.70
801.89	228.56
802.21	228.55
802.53	228.44
802.85	228.62
803.17	228.87
803.49	228.80
803.81	228.77
804.13	228.71
804.45	228.62
804.77	228.61
805.09	228.65
805.41	228.56
805.73	228.51
806.05	228.37
806.37	228.39
806.69	228.29
807.01	228.30
807.33	228.32
807.65	228.19
807.97	228.41
808.28	228.38
808.60	228.31
808.92	228.28
809.24	228.63
809.56	228.51
809.88	228.27
810.20	228.26
810.52	228.38
810.84	228.36
811.16	228.38
811.48	228.36
811.80	228.45
812.12	228.48
812.43	228.58
812.75	228.65
813.07	228.57
813.39	228.67
813.71	228.60
814.03	228.57
814.35	228.52
814.67	228.31
814.98	228.25
815.30	228.30
815.62	228.21
815.94	227.87
816.26	228.13
816.58	228.13
816.89	228.15
817.21	228.01
817.53	228.08
817.85	228.06
