SpectraSuite Data File
++++++++++++++++++++++++++++++++++++
Date: Wed Sep 04 17:50:29 EDT 2013
User: lab3
Dark Spectrum Present: Yes
Reference Spectrum Present: No
Number of Sampled Component Spectra: 1
Spectrometers: USB2E7196
Integration Time (usec): 170000 (USB2E7196)
Spectra Averaged: 20 (USB2E7196)
Boxcar Smoothing: 10 (USB2E7196)
Correct for Electrical Dark: No (USB2E7196)
Strobe/Lamp Enabled: No (USB2E7196)
Correct for Detector Non-linearity: No (USB2E7196)
Correct for Stray Light: No (USB2E7196)
Number of Pixels in Processed Spectrum: 2048
>>>>>Begin Processed Spectral Data<<<<<
339.09	0.00
339.48	212.80
339.86	214.40
340.24	215.70
340.63	217.55
341.01	225.55
341.39	218.80
341.78	221.65
342.16	223.00
342.54	222.00
342.93	211.93
343.31	222.64
343.69	223.20
344.07	223.62
344.46	224.02
344.84	224.43
345.22	224.48
345.60	224.82
345.99	225.05
346.37	225.14
346.75	225.34
347.13	225.41
347.52	225.46
347.90	225.58
348.28	225.63
348.66	225.82
349.05	225.78
349.43	225.86
349.81	225.92
350.19	225.99
350.57	225.99
350.96	226.06
351.34	226.11
351.72	226.21
352.10	226.36
352.48	226.51
352.87	226.52
353.25	226.50
353.63	226.45
354.01	226.43
354.39	226.55
354.77	226.57
355.15	226.75
355.54	226.79
355.92	226.83
356.30	226.82
356.68	227.25
357.06	227.34
357.44	227.33
357.82	227.29
358.20	227.76
358.58	227.91
358.97	228.01
359.35	228.20
359.73	228.29
360.11	228.32
360.49	228.37
360.87	228.41
361.25	228.58
361.63	228.83
362.01	228.90
362.39	228.92
362.77	228.98
363.15	229.01
363.53	228.97
363.91	228.98
364.29	229.06
364.67	228.62
365.05	228.63
365.43	228.71
365.81	228.78
366.19	228.59
366.57	228.73
366.95	228.67
367.33	228.57
367.71	228.55
368.09	228.63
368.47	228.60
368.85	228.58
369.23	228.62
369.61	228.44
369.99	228.65
370.37	228.69
370.75	228.90
371.13	228.82
371.51	228.80
371.89	228.79
372.27	228.87
372.65	228.91
373.03	228.86
373.41	228.79
373.78	228.80
374.16	228.56
374.54	228.37
374.92	228.32
375.30	228.22
375.68	228.11
376.06	228.11
376.44	228.04
376.82	228.07
377.19	227.97
377.57	227.99
377.95	227.70
378.33	227.62
378.71	227.30
379.09	227.29
379.47	227.29
379.84	227.14
380.22	226.94
380.60	226.77
380.98	226.66
381.36	226.61
381.73	226.50
382.11	226.45
382.49	226.46
382.87	226.35
383.25	226.34
383.62	226.82
384.00	226.70
384.38	226.63
384.76	226.64
385.13	226.77
385.51	226.70
385.89	226.60
386.27	226.60
386.64	226.66
387.02	226.64
387.40	226.57
387.78	226.58
388.15	226.63
388.53	226.54
388.91	226.54
389.29	226.47
389.66	226.50
390.04	226.47
390.42	226.51
390.79	226.56
391.17	226.50
391.55	226.06
391.92	226.02
392.30	226.06
392.68	225.98
393.05	225.90
393.43	225.95
393.81	226.00
394.18	225.90
394.56	225.84
394.94	225.87
395.31	225.91
395.69	226.07
396.06	226.14
396.44	226.27
396.82	226.34
397.19	226.66
397.57	226.61
397.95	226.76
398.32	226.67
398.70	226.76
399.07	226.95
399.45	226.98
399.82	227.11
400.20	227.16
400.58	227.21
400.95	227.18
401.33	227.32
401.70	227.85
402.08	228.05
402.45	228.25
402.83	228.52
403.20	228.68
403.58	228.75
403.95	228.89
404.33	229.10
404.71	229.22
405.08	229.68
405.46	229.93
405.83	230.22
406.21	230.54
406.58	230.83
406.96	231.05
407.33	231.39
407.70	231.67
408.08	232.43
408.45	232.88
408.83	233.35
409.20	233.70
409.58	233.76
409.95	234.29
410.33	234.81
410.70	235.20
411.08	235.78
411.45	236.37
411.82	237.00
412.20	237.77
412.57	238.81
412.95	239.05
413.32	239.96
413.69	240.77
414.07	241.71
414.44	242.64
414.82	243.74
415.19	244.90
415.56	246.07
415.94	246.99
416.31	248.36
416.68	249.79
417.06	251.46
417.43	253.07
417.81	254.76
418.18	256.60
418.55	258.45
418.93	260.40
419.30	262.56
419.67	264.77
420.04	266.93
420.42	269.20
420.79	272.26
421.16	275.09
421.54	278.07
421.91	281.01
422.28	284.09
422.66	287.35
423.03	290.77
423.40	294.21
423.77	297.80
424.15	301.35
424.52	305.07
424.89	309.21
425.26	313.16
425.64	316.87
426.01	320.95
426.38	325.24
426.75	329.70
427.13	334.22
427.50	338.98
427.87	343.89
428.24	348.73
428.61	353.19
428.99	358.30
429.36	363.67
429.73	369.08
430.10	374.62
430.47	380.21
430.85	385.75
431.22	391.76
431.59	398.51
431.96	404.83
432.33	411.64
432.70	418.18
433.08	426.09
433.45	433.62
433.82	440.97
434.19	449.30
434.56	457.48
434.93	465.06
435.30	472.75
435.68	481.30
436.05	489.72
436.42	498.05
436.79	505.72
437.16	514.15
437.53	522.97
437.90	531.66
438.27	540.23
438.64	549.22
439.01	557.46
439.38	564.47
439.75	571.59
440.13	579.72
440.50	587.27
440.87	593.31
441.24	599.50
441.61	606.60
441.98	611.58
442.35	617.28
442.72	623.26
443.09	629.04
443.46	632.39
443.83	634.67
444.20	636.56
444.57	639.19
444.94	640.23
445.31	641.28
445.68	642.60
446.05	642.70
446.42	641.32
446.79	640.04
447.16	638.62
447.53	637.34
447.90	633.54
448.27	629.79
448.64	624.87
449.01	621.37
449.37	615.09
449.74	609.05
450.11	602.27
450.48	594.53
450.85	586.56
451.22	579.77
451.59	573.27
451.96	567.01
452.33	559.15
452.70	551.85
453.07	543.29
453.43	534.27
453.80	526.04
454.17	518.02
454.54	510.40
454.91	502.21
455.28	494.18
455.65	486.85
456.02	480.12
456.38	473.85
456.75	466.03
457.12	459.55
457.49	453.31
457.86	446.87
458.23	441.84
458.59	436.25
458.96	430.63
459.33	425.47
459.70	420.47
460.07	416.30
460.43	411.63
460.80	407.35
461.17	403.66
461.54	399.61
461.91	395.96
462.27	392.05
462.64	388.81
463.01	385.30
463.38	382.04
463.74	377.96
464.11	374.94
464.48	372.30
464.85	369.44
465.21	367.30
465.58	365.10
465.95	362.24
466.32	359.95
466.68	357.61
467.05	355.49
467.42	353.25
467.78	350.91
468.15	348.73
468.52	347.07
468.88	344.72
469.25	342.76
469.62	341.20
469.98	339.59
470.35	338.05
470.72	336.69
471.08	334.90
471.45	333.75
471.82	332.51
472.18	331.09
472.55	330.11
472.92	328.73
473.28	327.64
473.65	326.57
474.02	325.46
474.38	324.61
474.75	323.80
475.11	322.97
475.48	322.40
475.85	321.83
476.21	321.13
476.58	320.60
476.94	320.35
477.31	319.85
477.67	319.48
478.04	319.19
478.41	318.96
478.77	319.29
479.14	319.03
479.50	318.90
479.87	318.97
480.23	319.01
480.60	319.11
480.96	319.16
481.33	319.57
481.69	319.81
482.06	320.16
482.42	320.36
482.79	320.82
483.15	321.21
483.52	321.80
483.88	322.35
484.25	323.01
484.61	323.60
484.98	324.32
485.34	325.29
485.71	326.27
486.07	327.20
486.44	327.87
486.80	328.91
487.17	330.05
487.53	331.43
487.90	332.73
488.26	334.39
488.62	336.00
488.99	337.62
489.35	339.41
489.72	341.22
490.08	343.27
490.44	345.29
490.81	347.52
491.17	349.73
491.54	352.26
491.90	354.76
492.26	357.45
492.63	360.24
492.99	363.10
493.36	366.15
493.72	369.43
494.08	372.82
494.45	376.47
494.81	380.42
495.17	384.32
495.54	388.49
495.90	392.72
496.26	397.24
496.63	401.88
496.99	406.60
497.35	411.61
497.72	416.87
498.08	422.22
498.44	427.81
498.80	433.82
499.17	439.82
499.53	446.17
499.89	452.83
500.26	459.79
500.62	466.78
500.98	474.22
501.34	481.57
501.71	489.20
502.07	497.12
502.43	504.97
502.79	513.32
503.16	522.00
503.52	530.87
503.88	539.98
504.24	549.55
504.60	559.59
504.97	570.05
505.33	580.52
505.69	591.59
506.05	602.73
506.41	613.92
506.78	625.58
507.14	637.60
507.50	649.80
507.86	662.18
508.22	674.99
508.59	687.85
508.95	701.59
509.31	715.76
509.67	729.86
510.03	744.30
510.39	758.96
510.75	773.98
511.12	788.98
511.48	804.69
511.84	820.32
512.20	836.18
512.56	852.34
512.92	869.03
513.28	885.86
513.64	902.82
514.00	920.22
514.37	937.87
514.73	956.00
515.09	974.18
515.45	992.49
515.81	1010.67
516.17	1029.49
516.53	1047.98
516.89	1066.47
517.25	1085.75
517.61	1105.71
517.97	1125.75
518.33	1145.58
518.69	1165.99
519.05	1186.32
519.41	1206.90
519.77	1227.69
520.13	1248.36
520.49	1268.90
520.85	1290.94
521.21	1312.04
521.57	1333.22
521.93	1353.56
522.29	1374.51
522.65	1395.23
523.01	1416.01
523.37	1436.82
523.73	1457.55
524.09	1478.17
524.45	1498.53
524.81	1519.29
525.17	1539.77
525.53	1560.02
525.89	1580.73
526.25	1601.45
526.61	1621.71
526.97	1642.52
527.33	1663.86
527.68	1685.52
528.04	1706.71
528.40	1726.00
528.76	1746.77
529.12	1766.92
529.48	1788.07
529.84	1807.75
530.20	1828.42
530.56	1849.02
530.91	1869.60
531.27	1889.91
531.63	1910.10
531.99	1930.58
532.35	1950.48
532.71	1970.71
533.07	1991.43
533.42	2011.18
533.78	2030.67
534.14	2050.32
534.50	2069.10
534.86	2087.93
535.21	2105.19
535.57	2123.45
535.93	2140.91
536.29	2158.64
536.65	2176.58
537.00	2193.73
537.36	2211.09
537.72	2227.59
538.08	2244.52
538.44	2261.10
538.79	2276.87
539.15	2293.19
539.51	2309.22
539.87	2324.20
540.22	2337.68
540.58	2351.87
540.94	2365.00
541.29	2377.51
541.65	2389.78
542.01	2402.28
542.37	2412.66
542.72	2423.53
543.08	2433.67
543.44	2445.33
543.79	2455.05
544.15	2464.69
544.51	2474.65
544.87	2484.25
545.22	2492.57
545.58	2499.83
545.94	2507.00
546.29	2513.91
546.65	2520.14
547.01	2525.76
547.36	2531.45
547.72	2537.03
548.07	2540.50
548.43	2545.62
548.79	2550.28
549.14	2554.39
549.50	2558.11
549.86	2562.02
550.21	2565.23
550.57	2568.70
550.92	2569.89
551.28	2571.16
551.64	2573.42
551.99	2575.00
552.35	2576.20
552.70	2578.21
553.06	2580.14
553.41	2580.88
553.77	2582.37
554.13	2583.99
554.48	2585.30
554.84	2586.27
555.19	2587.54
555.55	2589.10
555.90	2588.52
556.26	2587.55
556.61	2585.94
556.97	2583.38
557.32	2582.28
557.68	2581.22
558.03	2579.63
558.39	2578.23
558.74	2577.11
559.10	2573.80
559.45	2570.17
559.81	2566.11
560.16	2560.62
560.52	2555.46
560.87	2551.14
561.23	2545.99
561.58	2539.84
561.94	2532.63
562.29	2525.20
562.64	2517.88
563.00	2509.93
563.35	2502.70
563.71	2495.95
564.06	2489.63
564.42	2483.25
564.77	2476.60
565.12	2469.11
565.48	2461.10
565.83	2452.96
566.19	2445.04
566.54	2437.60
566.89	2429.52
567.25	2421.64
567.60	2414.75
567.96	2407.35
568.31	2399.52
568.66	2390.69
569.02	2381.80
569.37	2373.93
569.72	2366.42
570.08	2357.10
570.43	2347.66
570.78	2338.93
571.14	2329.54
571.49	2319.49
571.84	2309.98
572.20	2298.94
572.55	2288.91
572.90	2278.37
573.26	2268.39
573.61	2257.42
573.96	2245.84
574.31	2233.95
574.67	2222.14
575.02	2209.44
575.37	2196.90
575.72	2183.43
576.08	2171.39
576.43	2158.79
576.78	2145.88
577.13	2132.26
577.49	2119.85
577.84	2107.79
578.19	2095.64
578.54	2083.28
578.90	2071.44
579.25	2059.22
579.60	2047.25
579.95	2034.25
580.30	2020.94
580.66	2007.50
581.01	1994.05
581.36	1980.25
581.71	1967.90
582.06	1954.97
582.42	1942.61
582.77	1929.99
583.12	1918.40
583.47	1906.27
583.82	1894.29
584.17	1882.03
584.53	1870.31
584.88	1857.49
585.23	1844.73
585.58	1831.02
585.93	1817.66
586.28	1804.37
586.63	1790.46
586.98	1776.05
587.34	1762.87
587.69	1750.25
588.04	1738.12
588.39	1726.38
588.74	1714.53
589.09	1702.43
589.44	1689.85
589.79	1677.76
590.14	1666.02
590.49	1653.81
590.84	1641.67
591.19	1630.01
591.54	1618.05
591.89	1605.80
592.25	1595.73
592.60	1584.27
592.95	1572.84
593.30	1561.17
593.65	1549.25
594.00	1537.57
594.35	1527.88
594.70	1516.18
595.05	1504.62
595.40	1492.40
595.75	1480.48
596.10	1469.25
596.45	1457.86
596.80	1447.13
597.15	1435.76
597.50	1423.94
597.85	1412.80
598.19	1401.34
598.54	1389.69
598.89	1378.49
599.24	1368.22
599.59	1356.49
599.94	1345.76
600.29	1335.53
600.64	1325.35
600.99	1314.78
601.34	1305.33
601.69	1294.45
602.04	1284.97
602.39	1275.47
602.74	1266.62
603.08	1257.21
603.43	1247.95
603.78	1238.40
604.13	1229.26
604.48	1219.92
604.83	1210.45
605.18	1200.60
605.53	1191.12
605.87	1182.10
606.22	1173.80
606.57	1164.66
606.92	1155.51
607.27	1146.62
607.62	1137.86
607.96	1129.48
608.31	1121.67
608.66	1113.25
609.01	1104.76
609.36	1096.41
609.70	1087.89
610.05	1079.12
610.40	1070.78
610.75	1062.31
611.10	1054.03
611.44	1045.06
611.79	1037.05
612.14	1029.35
612.49	1021.70
612.83	1014.39
613.18	1006.66
613.53	998.91
613.88	990.92
614.22	983.25
614.57	975.57
614.92	967.73
615.27	960.26
615.61	952.53
615.96	944.81
616.31	937.49
616.65	930.25
617.00	923.11
617.35	915.89
617.70	908.70
618.04	901.66
618.39	894.86
618.74	888.76
619.08	881.88
619.43	874.88
619.78	868.09
620.12	861.00
620.47	854.19
620.82	847.07
621.16	840.43
621.51	834.09
621.85	827.80
622.20	821.31
622.55	814.68
622.89	808.47
623.24	802.43
623.59	795.95
623.93	789.69
624.28	783.70
624.62	778.32
624.97	772.75
625.32	767.02
625.66	761.13
626.01	755.01
626.35	749.37
626.70	743.89
627.04	738.73
627.39	733.14
627.73	728.02
628.08	722.96
628.43	717.67
628.77	712.45
629.12	707.36
629.46	702.67
629.81	698.15
630.15	693.25
630.50	688.42
630.84	683.78
631.19	679.07
631.53	674.48
631.88	669.31
632.22	664.51
632.57	660.28
632.91	655.59
633.26	651.35
633.60	646.90
633.95	642.29
634.29	637.50
634.64	633.25
634.98	628.40
635.32	624.05
635.67	619.98
636.01	615.87
636.36	611.53
636.70	607.48
637.05	603.18
637.39	599.22
637.73	595.20
638.08	591.16
638.42	587.02
638.77	582.74
639.11	578.43
639.45	574.21
639.80	569.70
640.14	565.79
640.49	561.71
640.83	557.99
641.17	554.43
641.52	550.75
641.86	547.31
642.20	544.45
642.55	540.85
642.89	537.34
643.23	533.89
643.58	530.83
643.92	527.40
644.26	524.08
644.61	520.73
644.95	517.29
645.29	514.10
645.64	511.18
645.98	508.15
646.32	505.32
646.66	502.34
647.01	499.38
647.35	496.63
647.69	493.86
648.04	491.08
648.38	488.25
648.72	485.51
649.06	482.32
649.41	479.13
649.75	476.09
650.09	473.19
650.43	470.31
650.78	467.38
651.12	464.52
651.46	461.80
651.80	459.24
652.14	456.55
652.49	454.11
652.83	451.55
653.17	448.98
653.51	446.35
653.85	443.86
654.20	441.54
654.54	438.95
654.88	436.48
655.22	434.15
655.56	431.78
655.90	429.43
656.25	427.30
656.59	425.11
656.93	423.07
657.27	421.05
657.61	418.69
657.95	416.40
658.29	414.32
658.64	412.19
658.98	409.84
659.32	407.77
659.66	405.51
660.00	403.27
660.34	401.22
660.68	399.17
661.02	397.14
661.36	395.14
661.70	393.10
662.05	391.22
662.39	389.32
662.73	387.57
663.07	385.94
663.41	384.05
663.75	382.13
664.09	380.35
664.43	378.43
664.77	376.84
665.11	375.15
665.45	373.41
665.79	371.84
666.13	370.18
666.47	368.45
666.81	366.74
667.15	365.22
667.49	363.74
667.83	362.43
668.17	360.95
668.51	359.48
668.85	358.17
669.19	356.97
669.53	355.44
669.87	353.96
670.21	352.47
670.55	351.03
670.89	349.86
671.23	348.43
671.57	347.03
671.91	345.70
672.25	344.35
672.58	343.09
672.92	341.62
673.26	340.47
673.60	339.26
673.94	338.16
674.28	336.91
674.62	335.71
674.96	334.38
675.30	333.24
675.64	332.08
675.97	330.86
676.31	329.43
676.65	328.21
676.99	327.20
677.33	326.06
677.67	325.11
678.01	323.85
678.34	322.79
678.68	321.83
679.02	320.70
679.36	319.65
679.70	318.60
680.04	317.75
680.37	316.76
680.71	315.78
681.05	314.81
681.39	313.91
681.73	313.00
682.06	312.12
682.40	311.29
682.74	310.44
683.08	309.80
683.42	308.92
683.75	308.09
684.09	307.12
684.43	306.32
684.77	305.40
685.10	304.59
685.44	303.89
685.78	303.06
686.12	302.26
686.45	301.44
686.79	300.70
687.13	299.94
687.46	299.18
687.80	298.61
688.14	297.86
688.48	297.16
688.81	296.34
689.15	295.72
689.49	294.93
689.82	294.26
690.16	293.26
690.50	292.62
690.83	291.96
691.17	291.18
691.51	290.50
691.84	289.94
692.18	289.26
692.52	288.47
692.85	287.96
693.19	287.60
693.52	287.09
693.86	286.42
694.20	285.77
694.53	285.17
694.87	284.39
695.21	283.72
695.54	283.07
695.88	282.52
696.21	281.71
696.55	281.06
696.88	280.38
697.22	279.88
697.56	279.35
697.89	278.76
698.23	278.26
698.56	277.63
698.90	277.15
699.23	276.55
699.57	276.18
699.90	275.56
700.24	274.87
700.58	274.33
700.91	273.86
701.25	273.79
701.58	273.66
701.92	273.37
702.25	273.00
702.59	272.52
702.92	272.12
703.26	271.80
703.59	271.38
703.93	271.45
704.26	271.10
704.60	270.67
704.93	270.23
705.26	269.88
705.60	269.63
705.93	269.05
706.27	268.81
706.60	268.52
706.94	268.34
707.27	267.88
707.61	267.61
707.94	267.24
708.27	266.50
708.61	265.78
708.94	265.39
709.28	265.00
709.61	264.61
709.94	264.30
710.28	263.95
710.61	263.63
710.95	262.80
711.28	262.69
711.61	262.39
711.95	262.19
712.28	261.76
712.61	261.38
712.95	261.40
713.28	261.26
713.61	260.78
713.95	260.25
714.28	260.09
714.61	259.67
714.95	259.27
715.28	258.89
715.61	258.54
715.95	258.21
716.28	257.83
716.61	257.68
716.95	257.24
717.28	256.88
717.61	256.54
717.94	256.29
718.28	255.64
718.61	255.33
718.94	254.89
719.27	254.66
719.61	254.37
719.94	253.92
720.27	253.47
720.60	253.20
720.94	252.99
721.27	252.68
721.60	252.53
721.93	252.36
722.27	252.24
722.60	252.04
722.93	251.83
723.26	251.68
723.59	251.36
723.93	251.20
724.26	251.03
724.59	250.89
724.92	250.65
725.25	250.63
725.59	250.41
725.92	250.32
726.25	250.10
726.58	250.00
726.91	249.84
727.24	249.71
727.57	249.51
727.91	249.22
728.24	249.08
728.57	248.88
728.90	248.77
729.23	248.54
729.56	248.63
729.89	248.44
730.22	248.23
730.55	248.00
730.89	247.84
731.22	247.69
731.55	247.50
731.88	247.35
732.21	247.08
732.54	246.82
732.87	246.61
733.20	246.48
733.53	246.29
733.86	246.10
734.19	245.86
734.52	245.79
734.85	246.02
735.18	245.76
735.51	245.68
735.84	245.49
736.17	245.48
736.50	245.08
736.83	245.41
737.16	245.25
737.49	245.19
737.82	245.05
738.15	244.94
738.48	244.72
738.81	244.56
739.14	244.35
739.47	244.21
739.80	244.00
740.13	243.88
740.46	243.65
740.79	243.45
741.12	243.26
741.45	243.04
741.78	242.65
742.11	242.73
742.44	242.50
742.77	242.43
743.10	242.09
743.43	241.90
743.75	241.29
744.08	241.85
744.41	241.54
744.74	241.36
745.07	241.14
745.40	241.16
745.73	241.19
746.06	241.13
746.39	241.06
746.71	240.90
747.04	240.69
747.37	240.47
747.70	240.36
748.03	240.30
748.36	240.22
748.68	239.97
749.01	239.66
749.34	239.56
749.67	239.42
750.00	239.41
750.33	239.71
750.65	239.60
750.98	238.82
751.31	238.78
751.64	238.70
751.97	238.83
752.29	238.62
752.62	238.33
752.95	238.09
753.28	237.97
753.60	237.90
753.93	237.95
754.26	237.97
754.59	237.78
754.91	237.60
755.24	237.42
755.57	237.38
755.90	237.30
756.22	237.17
756.55	237.02
756.88	236.78
757.20	236.34
757.53	236.07
757.86	235.94
758.19	235.81
758.51	235.70
758.84	235.37
759.17	235.21
759.49	235.07
759.82	235.26
760.15	235.17
760.47	235.04
760.80	234.78
761.13	234.75
761.45	234.65
761.78	234.64
762.11	234.60
762.43	234.45
762.76	234.35
763.08	234.28
763.41	234.17
763.74	234.16
764.06	234.04
764.39	234.06
764.71	234.00
765.04	233.93
765.37	233.82
765.69	233.70
766.02	233.65
766.34	233.63
766.67	233.43
767.00	233.44
767.32	233.67
767.65	233.94
767.97	233.89
768.30	233.87
768.62	233.75
768.95	233.63
769.27	233.54
769.60	233.56
769.92	233.39
770.25	233.20
770.57	233.01
770.90	232.97
771.22	232.85
771.55	232.80
771.87	232.73
772.20	232.67
772.52	233.03
772.85	233.49
773.17	233.42
773.50	233.31
773.82	233.20
774.15	232.94
774.47	232.54
774.80	232.34
775.12	232.27
775.45	232.25
775.77	232.28
776.09	232.26
776.42	232.17
776.74	232.26
777.07	232.32
777.39	232.34
777.72	232.22
778.04	232.21
778.36	232.17
778.69	232.25
779.01	232.29
779.33	231.91
779.66	231.40
779.98	231.35
780.31	231.34
780.63	231.47
780.95	231.50
781.28	231.50
781.60	231.45
781.92	231.39
782.25	231.32
782.57	231.26
782.89	231.16
783.22	231.07
783.54	230.91
783.86	230.87
784.19	230.82
784.51	230.93
784.83	230.87
785.16	230.77
785.48	230.64
785.80	230.59
786.12	230.55
786.45	230.52
786.77	230.45
787.09	230.38
787.42	230.16
787.74	230.06
788.06	230.00
788.38	229.94
788.71	229.89
789.03	229.83
789.35	229.82
789.67	229.78
789.99	229.75
790.32	229.75
790.64	229.82
790.96	230.15
791.28	229.94
791.61	229.90
791.93	229.92
792.25	229.95
792.57	230.26
792.89	230.10
793.21	230.06
793.54	230.11
793.86	230.00
794.18	229.97
794.50	229.88
794.82	229.86
795.14	229.92
795.47	230.04
795.79	230.00
796.11	229.86
796.43	229.84
796.75	229.84
797.07	229.84
797.39	229.74
797.71	229.45
798.04	229.46
798.36	229.45
798.68	229.39
799.00	229.41
799.32	229.08
799.64	229.12
799.96	229.10
800.28	229.16
800.60	229.13
800.92	229.18
801.24	229.22
801.56	229.20
801.89	229.10
802.21	229.10
802.53	229.10
802.85	229.20
803.17	229.44
803.49	229.34
803.81	229.24
804.13	229.16
804.45	229.01
804.77	229.07
805.09	229.04
805.41	228.95
805.73	228.82
806.05	228.71
806.37	228.72
806.69	228.70
807.01	228.60
807.33	228.65
807.65	228.46
807.97	228.64
808.28	228.58
808.60	228.60
808.92	228.50
809.24	228.73
809.56	228.64
809.88	228.44
810.20	228.51
810.52	228.63
810.84	228.55
811.16	228.55
811.48	228.51
811.80	228.70
812.12	228.66
812.43	228.69
812.75	228.74
813.07	228.65
813.39	228.63
813.71	228.56
814.03	228.53
814.35	228.56
814.67	228.32
814.98	228.25
815.30	228.26
815.62	228.15
815.94	227.87
816.26	228.03
816.58	227.90
816.89	227.87
817.21	227.69
817.53	227.73
817.85	227.75
