SpectraSuite Data File
++++++++++++++++++++++++++++++++++++
Date: Wed Sep 04 17:56:17 EDT 2013
User: lab3
Dark Spectrum Present: Yes
Reference Spectrum Present: No
Number of Sampled Component Spectra: 1
Spectrometers: USB2E7196
Integration Time (usec): 170000 (USB2E7196)
Spectra Averaged: 20 (USB2E7196)
Boxcar Smoothing: 10 (USB2E7196)
Correct for Electrical Dark: No (USB2E7196)
Strobe/Lamp Enabled: No (USB2E7196)
Correct for Detector Non-linearity: No (USB2E7196)
Correct for Stray Light: No (USB2E7196)
Number of Pixels in Processed Spectrum: 2048
>>>>>Begin Processed Spectral Data<<<<<
339.09	0.00
339.48	212.00
339.86	213.90
340.24	215.85
340.63	218.60
341.01	226.15
341.39	220.75
341.78	222.40
342.16	224.70
342.54	224.15
342.93	212.72
343.31	223.39
343.69	223.97
344.07	224.45
344.46	224.95
344.84	225.36
345.22	225.31
345.60	225.65
345.99	225.76
346.37	225.78
346.75	225.85
347.13	225.88
347.52	225.95
347.90	226.12
348.28	226.11
348.66	226.24
349.05	226.13
349.43	226.17
349.81	226.19
350.19	226.22
350.57	226.29
350.96	226.37
351.34	226.52
351.72	226.72
352.10	226.88
352.48	226.89
352.87	226.82
353.25	226.90
353.63	226.81
354.01	226.87
354.39	227.04
354.77	227.12
355.15	227.31
355.54	227.34
355.92	227.29
356.30	227.34
356.68	227.63
357.06	227.66
357.44	227.65
357.82	227.79
358.20	228.20
358.58	228.23
358.97	228.36
359.35	228.56
359.73	228.60
360.11	228.65
360.49	228.67
360.87	228.83
361.25	228.97
361.63	229.22
362.01	229.31
362.39	229.31
362.77	229.35
363.15	229.38
363.53	229.44
363.91	229.46
364.29	229.55
364.67	229.22
365.05	229.28
365.43	229.38
365.81	229.43
366.19	229.33
366.57	229.55
366.95	229.53
367.33	229.37
367.71	229.42
368.09	229.57
368.47	229.65
368.85	229.62
369.23	229.66
369.61	229.47
369.99	229.65
370.37	229.68
370.75	229.93
371.13	229.75
371.51	229.72
371.89	229.78
372.27	229.82
372.65	229.77
373.03	229.76
373.41	229.66
373.78	229.60
374.16	229.28
374.54	229.10
374.92	228.99
375.30	228.91
375.68	228.77
376.06	228.64
376.44	228.52
376.82	228.52
377.19	228.47
377.57	228.47
377.95	228.27
378.33	228.13
378.71	227.72
379.09	227.71
379.47	227.66
379.84	227.51
380.22	227.31
380.60	227.17
380.98	227.10
381.36	227.04
381.73	226.92
382.11	226.95
382.49	226.91
382.87	226.73
383.25	226.72
383.62	227.26
384.00	227.05
384.38	227.05
384.76	227.08
385.13	227.22
385.51	227.14
385.89	227.04
386.27	227.08
386.64	227.17
387.02	227.11
387.40	227.06
387.78	227.03
388.15	227.05
388.53	227.00
388.91	227.00
389.29	226.90
389.66	226.93
390.04	226.87
390.42	226.89
390.79	226.96
391.17	226.91
391.55	226.30
391.92	226.35
392.30	226.31
392.68	226.11
393.05	226.03
393.43	226.05
393.81	226.09
394.18	225.97
394.56	225.98
394.94	226.10
395.31	226.08
395.69	226.26
396.06	226.37
396.44	226.41
396.82	226.42
397.19	226.75
397.57	226.75
397.95	226.88
398.32	226.73
398.70	226.85
399.07	227.02
399.45	227.10
399.82	227.19
400.20	227.29
400.58	227.39
400.95	227.32
401.33	227.44
401.70	227.81
402.08	228.02
402.45	228.12
402.83	228.42
403.20	228.56
403.58	228.59
403.95	228.82
404.33	229.11
404.71	229.26
405.08	229.64
405.46	229.87
405.83	230.16
406.21	230.52
406.58	230.74
406.96	231.05
407.33	231.37
407.70	231.78
408.08	232.51
408.45	233.06
408.83	233.48
409.20	233.88
409.58	234.03
409.95	234.53
410.33	235.08
410.70	235.35
411.08	236.01
411.45	236.64
411.82	237.18
412.20	237.96
412.57	238.99
412.95	239.37
413.32	240.30
413.69	241.12
414.07	242.10
414.44	243.17
414.82	244.08
415.19	245.30
415.56	246.47
415.94	247.54
416.31	248.88
416.68	250.35
417.06	252.00
417.43	253.71
417.81	255.49
418.18	257.29
418.55	259.26
418.93	261.25
419.30	263.35
419.67	265.62
420.04	267.89
420.42	270.15
420.79	273.17
421.16	275.90
421.54	278.91
421.91	281.88
422.28	284.93
422.66	288.28
423.03	291.75
423.40	295.07
423.77	298.63
424.15	302.26
424.52	306.00
424.89	310.17
425.26	314.17
425.64	318.00
426.01	322.19
426.38	326.73
426.75	331.24
427.13	335.94
427.50	340.61
427.87	345.42
428.24	350.47
428.61	355.03
428.99	360.35
429.36	365.90
429.73	371.40
430.10	376.85
430.47	382.69
430.85	388.22
431.22	394.48
431.59	401.24
431.96	407.55
432.33	414.51
432.70	421.14
433.08	428.95
433.45	436.35
433.82	443.72
434.19	451.84
434.56	460.03
434.93	467.66
435.30	475.48
435.68	484.13
436.05	492.47
436.42	500.76
436.79	508.43
437.16	516.78
437.53	525.60
437.90	534.42
438.27	542.77
438.64	551.89
439.01	560.21
439.38	567.38
439.75	574.39
440.13	582.44
440.50	589.98
440.87	596.16
441.24	602.53
441.61	609.56
441.98	614.60
442.35	620.19
442.72	626.20
443.09	631.98
443.46	635.41
443.83	637.73
444.20	639.83
444.57	642.65
444.94	643.64
445.31	644.71
445.68	646.10
446.05	646.40
446.42	644.97
446.79	643.40
447.16	641.70
447.53	640.54
447.90	636.81
448.27	633.10
448.64	628.20
449.01	624.43
449.37	618.31
449.74	612.16
450.11	605.56
450.48	597.80
450.85	589.95
451.22	583.08
451.59	576.51
451.96	570.03
452.33	561.83
452.70	554.60
453.07	546.03
453.43	536.84
453.80	528.43
454.17	520.35
454.54	512.70
454.91	504.56
455.28	496.63
455.65	489.17
456.02	482.24
456.38	475.83
456.75	468.11
457.12	461.58
457.49	455.35
457.86	448.82
458.23	443.63
458.59	437.79
458.96	431.97
459.33	426.74
459.70	421.71
460.07	417.54
460.43	412.66
460.80	408.23
461.17	404.40
461.54	400.38
461.91	396.60
462.27	392.76
462.64	389.56
463.01	385.92
463.38	382.67
463.74	378.68
464.11	375.73
464.48	373.10
464.85	370.22
465.21	368.05
465.58	365.89
465.95	363.01
466.32	360.81
466.68	358.56
467.05	356.41
467.42	354.29
467.78	352.00
468.15	349.94
468.52	348.46
468.88	346.35
469.25	344.45
469.62	342.96
469.98	341.34
470.35	339.77
470.72	338.32
471.08	336.56
471.45	335.53
471.82	334.25
472.18	332.81
472.55	331.79
472.92	330.48
473.28	329.31
473.65	328.23
474.02	327.20
474.38	326.37
474.75	325.65
475.11	324.70
475.48	324.15
475.85	323.54
476.21	322.83
476.58	322.28
476.94	321.97
477.31	321.53
477.67	321.11
478.04	320.77
478.41	320.63
478.77	321.01
479.14	320.63
479.50	320.47
479.87	320.47
480.23	320.54
480.60	320.64
480.96	320.61
481.33	320.95
481.69	321.18
482.06	321.42
482.42	321.73
482.79	322.16
483.15	322.55
483.52	323.18
483.88	323.71
484.25	324.40
484.61	324.99
484.98	325.60
485.34	326.65
485.71	327.64
486.07	328.56
486.44	329.10
486.80	330.25
487.17	331.42
487.53	332.81
487.90	334.15
488.26	335.77
488.62	337.48
488.99	339.05
489.35	340.80
489.72	342.72
490.08	344.69
490.44	346.73
490.81	348.91
491.17	351.00
491.54	353.31
491.90	355.81
492.26	358.46
492.63	361.33
492.99	364.08
493.36	367.12
493.72	370.44
494.08	373.87
494.45	377.56
494.81	381.40
495.17	385.31
495.54	389.54
495.90	393.75
496.26	398.17
496.63	402.82
496.99	407.49
497.35	412.51
497.72	417.63
498.08	423.06
498.44	428.67
498.80	434.84
499.17	440.94
499.53	447.11
499.89	453.80
500.26	460.54
500.62	467.56
500.98	474.95
501.34	482.24
501.71	490.04
502.07	497.75
502.43	505.76
502.79	514.05
503.16	522.69
503.52	531.58
503.88	540.78
504.24	550.50
504.60	560.51
504.97	570.85
505.33	581.30
505.69	592.40
506.05	603.51
506.41	614.65
506.78	626.41
507.14	638.53
507.50	650.88
507.86	663.51
508.22	676.32
508.59	689.32
508.95	703.04
509.31	717.21
509.67	731.78
510.03	746.08
510.39	760.89
510.75	775.84
511.12	791.02
511.48	806.67
511.84	822.30
512.20	838.38
512.56	854.55
512.92	871.50
513.28	888.20
513.64	905.50
514.00	923.05
514.37	940.85
514.73	959.16
515.09	977.19
515.45	995.67
515.81	1014.22
516.17	1032.95
516.53	1051.54
516.89	1070.08
517.25	1089.32
517.61	1109.98
517.97	1130.39
518.33	1150.71
518.69	1171.02
519.05	1191.69
519.41	1212.33
519.77	1233.18
520.13	1254.19
520.49	1274.86
520.85	1297.34
521.21	1318.39
521.57	1339.65
521.93	1360.52
522.29	1381.70
522.65	1402.57
523.01	1423.37
523.37	1444.13
523.73	1465.41
524.09	1486.34
524.45	1507.01
524.81	1527.89
525.17	1548.11
525.53	1568.41
525.89	1589.00
526.25	1610.16
526.61	1630.42
526.97	1651.82
527.33	1673.05
527.68	1694.81
528.04	1716.17
528.40	1735.64
528.76	1756.76
529.12	1777.28
529.48	1798.02
529.84	1818.25
530.20	1839.25
530.56	1860.03
530.91	1881.22
531.27	1901.91
531.63	1922.48
531.99	1943.33
532.35	1963.21
532.71	1983.63
533.07	2004.47
533.42	2024.36
533.78	2044.15
534.14	2064.11
534.50	2082.99
534.86	2102.90
535.21	2120.37
535.57	2138.83
535.93	2156.71
536.29	2174.40
536.65	2192.32
537.00	2210.05
537.36	2227.62
537.72	2244.43
538.08	2261.74
538.44	2278.11
538.79	2294.35
539.15	2310.95
539.51	2327.00
539.87	2342.12
540.22	2356.24
540.58	2370.56
540.94	2383.85
541.29	2396.63
541.65	2409.29
542.01	2421.86
542.37	2431.68
542.72	2442.74
543.08	2453.12
543.44	2464.56
543.79	2474.61
544.15	2484.67
544.51	2494.54
544.87	2503.82
545.22	2512.34
545.58	2520.02
545.94	2527.33
546.29	2533.79
546.65	2539.80
547.01	2545.15
547.36	2550.84
547.72	2556.08
548.07	2559.74
548.43	2565.35
548.79	2569.80
549.14	2573.74
549.50	2577.50
549.86	2581.93
550.21	2585.77
550.57	2589.69
550.92	2591.53
551.28	2593.06
551.64	2595.60
551.99	2597.43
552.35	2599.38
552.70	2601.77
553.06	2603.36
553.41	2604.38
553.77	2605.77
554.13	2607.37
554.48	2609.16
554.84	2610.46
555.19	2611.80
555.55	2613.83
555.90	2612.81
556.26	2612.16
556.61	2610.76
556.97	2608.81
557.32	2608.08
557.68	2607.01
558.03	2605.39
558.39	2603.57
558.74	2602.36
559.10	2598.75
559.45	2595.34
559.81	2590.45
560.16	2584.95
560.52	2580.45
560.87	2576.23
561.23	2571.26
561.58	2565.10
561.94	2557.84
562.29	2550.67
562.64	2543.54
563.00	2535.22
563.35	2528.90
563.71	2522.23
564.06	2515.96
564.42	2509.59
564.77	2502.52
565.12	2494.74
565.48	2486.75
565.83	2478.95
566.19	2471.28
566.54	2463.62
566.89	2455.66
567.25	2448.12
567.60	2441.03
567.96	2433.33
568.31	2425.31
568.66	2416.41
569.02	2407.81
569.37	2399.93
569.72	2392.22
570.08	2382.84
570.43	2373.53
570.78	2364.43
571.14	2355.10
571.49	2344.79
571.84	2334.90
572.20	2324.02
572.55	2313.85
572.90	2303.19
573.26	2293.23
573.61	2281.89
573.96	2270.55
574.31	2258.36
574.67	2246.54
575.02	2233.75
575.37	2221.06
575.72	2207.71
576.08	2195.76
576.43	2183.11
576.78	2170.03
577.13	2156.50
577.49	2144.10
577.84	2132.38
578.19	2120.17
578.54	2107.32
578.90	2095.54
579.25	2083.19
579.60	2070.74
579.95	2057.76
580.30	2044.51
580.66	2030.74
581.01	2017.26
581.36	2003.77
581.71	1991.22
582.06	1978.23
582.42	1965.88
582.77	1953.25
583.12	1941.41
583.47	1929.28
583.82	1917.51
584.17	1905.61
584.53	1893.77
584.88	1880.78
585.23	1867.39
585.58	1853.09
585.93	1840.04
586.28	1826.65
586.63	1812.64
586.98	1798.22
587.34	1785.14
587.69	1771.90
588.04	1759.24
588.39	1747.28
588.74	1734.78
589.09	1722.73
589.44	1710.13
589.79	1697.98
590.14	1685.87
590.49	1673.76
590.84	1661.35
591.19	1649.35
591.54	1636.85
591.89	1624.68
592.25	1614.54
592.60	1603.08
592.95	1591.92
593.30	1579.97
593.65	1567.95
594.00	1556.08
594.35	1546.31
594.70	1534.27
595.05	1522.79
595.40	1510.61
595.75	1498.71
596.10	1487.63
596.45	1475.87
596.80	1465.27
597.15	1453.58
597.50	1441.64
597.85	1430.34
598.19	1418.61
598.54	1406.90
598.89	1395.74
599.24	1385.05
599.59	1373.25
599.94	1362.24
600.29	1351.70
600.64	1341.26
600.99	1330.61
601.34	1320.81
601.69	1309.70
602.04	1299.93
602.39	1290.20
602.74	1281.20
603.08	1271.89
603.43	1262.50
603.78	1252.79
604.13	1243.00
604.48	1233.44
604.83	1224.00
605.18	1214.17
605.53	1204.60
605.87	1195.28
606.22	1186.59
606.57	1177.27
606.92	1167.76
607.27	1159.05
607.62	1150.40
607.96	1141.96
608.31	1133.80
608.66	1125.42
609.01	1116.93
609.36	1108.35
609.70	1099.84
610.05	1091.32
610.40	1082.81
610.75	1074.21
611.10	1066.02
611.44	1057.21
611.79	1048.86
612.14	1040.86
612.49	1033.03
612.83	1025.47
613.18	1017.71
613.53	1010.01
613.88	1002.00
614.22	994.38
614.57	986.07
614.92	978.10
615.27	970.46
615.61	962.93
615.96	955.39
616.31	947.99
616.65	940.98
617.00	933.77
617.35	926.42
617.70	919.10
618.04	911.91
618.39	905.00
618.74	898.75
619.08	892.05
619.43	884.99
619.78	877.81
620.12	870.77
620.47	863.98
620.82	856.82
621.16	850.14
621.51	843.74
621.85	837.59
622.20	830.93
622.55	824.28
622.89	817.74
623.24	811.35
623.59	804.89
623.93	798.70
624.28	792.50
624.62	786.82
624.97	780.98
625.32	774.95
625.66	768.95
626.01	762.66
626.35	757.05
626.70	751.57
627.04	746.44
627.39	741.07
627.73	735.57
628.08	730.36
628.43	724.97
628.77	719.49
629.12	714.33
629.46	709.49
629.81	704.74
630.15	700.11
630.50	695.19
630.84	690.40
631.19	685.52
631.53	680.92
631.88	675.65
632.22	670.89
632.57	666.62
632.91	661.94
633.26	657.38
633.60	652.80
633.95	648.21
634.29	643.43
634.64	638.95
634.98	634.40
635.32	630.12
635.67	626.00
636.01	621.88
636.36	617.43
636.70	613.40
637.05	609.19
637.39	604.95
637.73	600.81
638.08	596.76
638.42	592.44
638.77	587.95
639.11	583.62
639.45	579.14
639.80	574.55
640.14	570.52
640.49	566.65
640.83	562.68
641.17	558.99
641.52	555.38
641.86	551.75
642.20	548.37
642.55	544.62
642.89	541.00
643.23	537.43
643.58	534.30
643.92	530.64
644.26	527.04
644.61	523.77
644.95	520.43
645.29	516.96
645.64	513.92
645.98	510.88
646.32	508.05
646.66	505.06
647.01	502.31
647.35	499.53
647.69	496.65
648.04	493.93
648.38	491.09
648.72	487.98
649.06	484.82
649.41	481.63
649.75	478.60
650.09	475.78
650.43	472.81
650.78	469.89
651.12	467.01
651.46	464.20
651.80	461.27
652.14	458.64
652.49	456.12
652.83	453.51
653.17	450.85
653.51	448.05
653.85	445.66
654.20	443.13
654.54	440.43
654.88	437.91
655.22	435.61
655.56	433.20
655.90	430.89
656.25	428.81
656.59	426.68
656.93	424.48
657.27	422.37
657.61	420.09
657.95	417.85
658.29	415.80
658.64	413.79
658.98	411.65
659.32	409.33
659.66	407.13
660.00	405.01
660.34	403.08
660.68	401.10
661.02	399.07
661.36	397.09
661.70	395.10
662.05	393.17
662.39	391.24
662.73	389.35
663.07	387.75
663.41	385.80
663.75	383.92
664.09	382.10
664.43	380.20
664.77	378.53
665.11	376.66
665.45	374.95
665.79	373.33
666.13	371.61
666.47	370.01
666.81	368.41
667.15	366.67
667.49	365.03
667.83	363.76
668.17	362.15
668.51	360.72
668.85	359.40
669.19	358.27
669.53	356.59
669.87	355.10
670.21	353.50
670.55	352.14
670.89	350.99
671.23	349.66
671.57	348.30
671.91	347.01
672.25	345.74
672.58	344.40
672.92	342.90
673.26	341.63
673.60	340.44
673.94	339.28
674.28	338.22
674.62	337.16
674.96	335.77
675.30	334.67
675.64	333.38
675.97	332.19
676.31	330.75
676.65	329.60
676.99	328.56
677.33	327.38
677.67	326.28
678.01	324.98
678.34	323.92
678.68	322.91
679.02	321.77
679.36	320.78
679.70	319.80
680.04	318.95
680.37	318.07
680.71	317.05
681.05	316.19
681.39	315.26
681.73	314.29
682.06	313.39
682.40	312.56
682.74	311.77
683.08	310.92
683.42	310.13
683.75	309.35
684.09	308.39
684.43	307.60
684.77	306.68
685.10	305.87
685.44	305.03
685.78	304.16
686.12	303.37
686.45	302.57
686.79	301.68
687.13	300.98
687.46	300.21
687.80	299.58
688.14	298.65
688.48	297.87
688.81	297.13
689.15	296.55
689.49	295.68
689.82	294.94
690.16	294.09
690.50	293.33
690.83	292.59
691.17	291.84
691.51	291.18
691.84	290.59
692.18	289.85
692.52	289.17
692.85	288.59
693.19	288.21
693.52	287.53
693.86	286.91
694.20	286.25
694.53	285.70
694.87	284.98
695.21	284.40
695.54	283.84
695.88	283.16
696.21	282.34
696.55	281.72
696.88	281.01
697.22	280.38
697.56	279.83
697.89	279.23
698.23	278.81
698.56	278.23
698.90	277.81
699.23	277.31
699.57	276.89
699.90	276.20
700.24	275.47
700.58	275.08
700.91	274.67
701.25	274.51
701.58	274.35
701.92	274.03
702.25	273.57
702.59	273.04
702.92	272.58
703.26	272.23
703.59	271.89
703.93	271.97
704.26	271.61
704.60	271.24
704.93	270.82
705.26	270.32
705.60	269.96
705.93	269.38
706.27	269.11
706.60	268.80
706.94	268.74
707.27	268.42
707.61	268.06
707.94	267.66
708.27	266.95
708.61	266.14
708.94	265.75
709.28	265.43
709.61	265.03
709.94	264.72
710.28	264.40
710.61	264.05
710.95	263.28
711.28	263.25
711.61	262.83
711.95	262.70
712.28	262.33
712.61	261.96
712.95	261.87
713.28	261.80
713.61	261.34
713.95	260.84
714.28	260.47
714.61	260.02
714.95	259.62
715.28	259.19
715.61	258.93
715.95	258.58
716.28	258.13
716.61	257.89
716.95	257.55
717.28	257.27
717.61	256.92
717.94	256.60
718.28	255.95
718.61	255.62
718.94	255.20
719.27	254.96
719.61	254.77
719.94	254.42
720.27	253.85
720.60	253.59
720.94	253.32
721.27	253.14
721.60	253.08
721.93	252.86
722.27	252.80
722.60	252.63
722.93	252.39
723.26	252.30
723.59	251.97
723.93	251.78
724.26	251.54
724.59	251.33
724.92	251.21
725.25	251.20
725.59	250.99
725.92	250.81
726.25	250.57
726.58	250.35
726.91	250.04
727.24	249.84
727.57	249.63
727.91	249.31
728.24	249.14
728.57	248.87
728.90	248.75
729.23	248.47
729.56	248.45
729.89	248.26
730.22	248.07
730.55	247.90
730.89	247.74
731.22	247.52
731.55	247.39
731.88	247.19
732.21	246.82
732.54	246.60
732.87	246.38
733.20	246.24
733.53	246.05
733.86	245.98
734.19	245.75
734.52	245.71
734.85	245.96
735.18	245.66
735.51	245.67
735.84	245.52
736.17	245.55
736.50	245.10
736.83	245.42
737.16	245.20
737.49	245.07
737.82	244.86
738.15	244.82
738.48	244.65
738.81	244.44
739.14	244.29
739.47	244.20
739.80	244.05
740.13	243.99
740.46	243.74
740.79	243.51
741.12	243.41
741.45	243.18
741.78	242.73
742.11	242.77
742.44	242.43
742.77	242.43
743.10	242.14
743.43	241.95
743.75	241.33
744.08	241.85
744.41	241.75
744.74	241.61
745.07	241.39
745.40	241.32
745.73	241.42
746.06	241.32
746.39	241.19
746.71	240.98
747.04	240.77
747.37	240.73
747.70	240.70
748.03	240.59
748.36	240.55
748.68	240.45
749.01	240.15
749.34	240.10
749.67	239.93
750.00	239.95
750.33	240.26
750.65	240.23
750.98	239.54
751.31	239.43
751.64	239.32
751.97	239.44
752.29	239.24
752.62	238.91
752.95	238.74
753.28	238.61
753.60	238.60
753.93	238.61
754.26	238.46
754.59	238.24
754.91	238.11
755.24	238.00
755.57	237.87
755.90	237.82
756.22	237.71
756.55	237.52
756.88	237.26
757.20	236.79
757.53	236.55
757.86	236.43
758.19	236.43
758.51	236.35
758.84	236.03
759.17	235.93
759.49	235.85
759.82	236.02
760.15	235.96
760.47	235.82
760.80	235.61
761.13	235.62
761.45	235.49
761.78	235.40
762.11	235.30
762.43	235.25
762.76	235.14
763.08	235.08
763.41	235.05
763.74	235.08
764.06	235.08
764.39	235.07
764.71	235.00
765.04	234.78
765.37	234.71
765.69	234.60
766.02	234.49
766.34	234.45
766.67	234.29
767.00	234.32
767.32	234.57
767.65	234.74
767.97	234.62
768.30	234.60
768.62	234.59
768.95	234.41
769.27	234.32
769.60	234.36
769.92	234.19
770.25	234.00
770.57	233.83
770.90	233.75
771.22	233.64
771.55	233.53
771.87	233.49
772.20	233.34
772.52	233.67
772.85	234.20
773.17	234.10
773.50	233.98
773.82	233.81
774.15	233.44
774.47	233.14
774.80	233.04
775.12	232.99
775.45	232.87
775.77	232.90
776.09	232.88
776.42	232.82
776.74	232.92
777.07	232.84
777.39	232.82
777.72	232.68
778.04	232.70
778.36	232.60
778.69	232.59
779.01	232.65
779.33	232.25
779.66	231.69
779.98	231.59
780.31	231.58
780.63	231.77
780.95	231.83
781.28	231.82
781.60	231.76
781.92	231.71
782.25	231.66
782.57	231.57
782.89	231.42
783.22	231.36
783.54	231.17
783.86	231.21
784.19	231.15
784.51	231.33
784.83	231.28
785.16	231.24
785.48	231.19
785.80	231.11
786.12	231.10
786.45	231.11
786.77	231.13
787.09	231.05
787.42	230.81
787.74	230.78
788.06	230.72
788.38	230.64
788.71	230.51
789.03	230.54
789.35	230.60
789.67	230.53
789.99	230.50
790.32	230.42
790.64	230.40
790.96	230.73
791.28	230.41
791.61	230.30
791.93	230.30
792.25	230.27
792.57	230.60
792.89	230.48
793.21	230.44
793.54	230.40
793.86	230.20
794.18	230.20
794.50	230.09
794.82	230.05
795.14	230.05
795.47	230.24
795.79	230.16
796.11	230.07
796.43	230.09
796.75	230.02
797.07	230.07
797.39	230.01
797.71	229.62
798.04	229.72
798.36	229.79
798.68	229.80
799.00	229.81
799.32	229.55
799.64	229.60
799.96	229.53
800.28	229.64
800.60	229.71
800.92	229.67
801.24	229.63
801.56	229.64
801.89	229.61
802.21	229.62
802.53	229.53
802.85	229.56
803.17	229.67
803.49	229.65
803.81	229.63
804.13	229.65
804.45	229.57
804.77	229.56
805.09	229.50
805.41	229.40
805.73	229.28
806.05	229.14
806.37	229.08
806.69	229.10
807.01	228.97
807.33	229.00
807.65	228.83
807.97	229.04
808.28	228.99
808.60	228.99
808.92	228.77
809.24	229.10
809.56	229.01
809.88	228.92
810.20	228.85
810.52	228.91
810.84	228.78
811.16	228.76
811.48	228.76
811.80	228.92
812.12	228.90
812.43	228.96
812.75	228.97
813.07	229.04
813.39	228.99
813.71	228.95
814.03	228.86
814.35	228.94
814.67	228.70
814.98	228.63
815.30	228.64
815.62	228.75
815.94	228.38
816.26	228.53
816.58	228.35
816.89	228.40
817.21	228.19
817.53	228.21
817.85	228.26
