SpectraSuite Data File
++++++++++++++++++++++++++++++++++++
Date: Wed Sep 04 17:53:20 EDT 2013
User: lab3
Dark Spectrum Present: Yes
Reference Spectrum Present: No
Number of Sampled Component Spectra: 1
Spectrometers: USB2E7196
Integration Time (usec): 170000 (USB2E7196)
Spectra Averaged: 20 (USB2E7196)
Boxcar Smoothing: 10 (USB2E7196)
Correct for Electrical Dark: No (USB2E7196)
Strobe/Lamp Enabled: No (USB2E7196)
Correct for Detector Non-linearity: No (USB2E7196)
Correct for Stray Light: No (USB2E7196)
Number of Pixels in Processed Spectrum: 2048
>>>>>Begin Processed Spectral Data<<<<<
339.09	0.00
339.48	213.70
339.86	214.90
340.24	215.00
340.63	217.15
341.01	225.50
341.39	220.55
341.78	222.95
342.16	224.00
342.54	222.85
342.93	212.51
343.31	223.20
343.69	223.71
344.07	224.20
344.46	224.75
344.84	225.14
345.22	225.20
345.60	225.44
345.99	225.64
346.37	225.73
346.75	225.91
347.13	225.94
347.52	226.06
347.90	226.23
348.28	226.24
348.66	226.39
349.05	226.28
349.43	226.36
349.81	226.40
350.19	226.47
350.57	226.52
350.96	226.61
351.34	226.70
351.72	226.82
352.10	226.93
352.48	226.97
352.87	227.04
353.25	227.03
353.63	227.05
354.01	227.05
354.39	227.18
354.77	227.15
355.15	227.35
355.54	227.33
355.92	227.23
356.30	227.28
356.68	227.59
357.06	227.74
357.44	227.70
357.82	227.75
358.20	228.15
358.58	228.20
358.97	228.24
359.35	228.40
359.73	228.53
360.11	228.57
360.49	228.53
360.87	228.59
361.25	228.73
361.63	228.97
362.01	229.05
362.39	228.98
362.77	229.14
363.15	229.13
363.53	229.22
363.91	229.34
364.29	229.41
364.67	229.01
365.05	229.01
365.43	229.12
365.81	229.18
366.19	229.11
366.57	229.32
366.95	229.38
367.33	229.26
367.71	229.25
368.09	229.36
368.47	229.45
368.85	229.38
369.23	229.48
369.61	229.26
369.99	229.47
370.37	229.57
370.75	229.73
371.13	229.62
371.51	229.52
371.89	229.55
372.27	229.53
372.65	229.51
373.03	229.54
373.41	229.54
373.78	229.52
374.16	229.24
374.54	229.08
374.92	228.97
375.30	228.99
375.68	228.92
376.06	228.88
376.44	228.81
376.82	228.87
377.19	228.79
377.57	228.72
377.95	228.45
378.33	228.30
378.71	227.95
379.09	227.95
379.47	227.97
379.84	227.75
380.22	227.70
380.60	227.55
380.98	227.44
381.36	227.32
381.73	227.25
382.11	227.24
382.49	227.14
382.87	226.99
383.25	227.00
383.62	227.45
384.00	227.24
384.38	227.23
384.76	227.26
385.13	227.32
385.51	227.29
385.89	227.20
386.27	227.21
386.64	227.32
387.02	227.20
387.40	227.06
387.78	227.10
388.15	226.97
388.53	226.97
388.91	226.90
389.29	226.78
389.66	226.78
390.04	226.65
390.42	226.73
390.79	226.78
391.17	226.62
391.55	226.06
391.92	226.08
392.30	226.13
392.68	225.98
393.05	226.02
393.43	226.05
393.81	226.05
394.18	226.01
394.56	225.97
394.94	226.17
395.31	226.15
395.69	226.31
396.06	226.45
396.44	226.57
396.82	226.56
397.19	226.88
397.57	226.80
397.95	226.99
398.32	226.83
398.70	226.86
399.07	227.04
399.45	227.10
399.82	227.17
400.20	227.10
400.58	227.18
400.95	227.05
401.33	227.21
401.70	227.62
402.08	227.70
402.45	227.81
402.83	227.95
403.20	228.17
403.58	228.20
403.95	228.41
404.33	228.55
404.71	228.71
405.08	229.12
405.46	229.39
405.83	229.62
406.21	229.97
406.58	230.30
406.96	230.55
407.33	230.85
407.70	231.21
408.08	232.01
408.45	232.49
408.83	232.97
409.20	233.35
409.58	233.47
409.95	234.09
410.33	234.64
410.70	235.02
411.08	235.69
411.45	236.37
411.82	236.99
412.20	237.76
412.57	238.79
412.95	239.24
413.32	240.14
413.69	240.92
414.07	241.90
414.44	242.93
414.82	243.98
415.19	245.22
415.56	246.44
415.94	247.40
416.31	248.84
416.68	250.23
417.06	251.91
417.43	253.68
417.81	255.38
418.18	257.20
418.55	259.19
418.93	261.25
419.30	263.39
419.67	265.59
420.04	267.87
420.42	270.15
420.79	273.06
421.16	275.78
421.54	278.88
421.91	281.78
422.28	284.85
422.66	288.20
423.03	291.72
423.40	295.11
423.77	298.70
424.15	302.23
424.52	306.02
424.89	310.22
425.26	314.18
425.64	317.93
426.01	322.12
426.38	326.53
426.75	331.10
427.13	335.60
427.50	340.35
427.87	345.18
428.24	350.13
428.61	354.70
428.99	360.07
429.36	365.49
429.73	370.94
430.10	376.45
430.47	382.01
430.85	387.56
431.22	393.65
431.59	400.50
431.96	406.75
432.33	413.65
432.70	420.23
433.08	428.04
433.45	435.52
433.82	442.84
434.19	450.91
434.56	458.79
434.93	466.46
435.30	474.15
435.68	482.83
436.05	491.32
436.42	499.68
436.79	507.36
437.16	515.70
437.53	524.62
437.90	533.27
438.27	541.89
438.64	550.75
439.01	559.05
439.38	565.98
439.75	573.18
440.13	581.26
440.50	588.73
440.87	594.63
441.24	600.98
441.61	607.90
441.98	612.99
442.35	618.86
442.72	624.93
443.09	630.80
443.46	634.20
443.83	636.30
444.20	638.21
444.57	640.87
444.94	641.78
445.31	642.77
445.68	644.18
446.05	644.14
446.42	642.77
446.79	641.32
447.16	639.81
447.53	638.49
447.90	634.58
448.27	630.97
448.64	626.30
449.01	622.61
449.37	616.61
449.74	610.65
450.11	603.78
450.48	596.03
450.85	587.92
451.22	581.00
451.59	574.50
451.96	568.15
452.33	559.92
452.70	552.75
453.07	544.18
453.43	535.14
453.80	526.89
454.17	518.90
454.54	511.15
454.91	503.01
455.28	495.05
455.65	487.69
456.02	480.92
456.38	474.51
456.75	466.75
457.12	460.11
457.49	453.74
457.86	447.45
458.23	442.32
458.59	436.76
458.96	431.14
459.33	426.03
459.70	421.01
460.07	417.03
460.43	412.33
460.80	407.96
461.17	404.12
461.54	400.13
461.91	396.40
462.27	392.60
462.64	389.33
463.01	385.79
463.38	382.57
463.74	378.48
464.11	375.56
464.48	372.93
464.85	370.16
465.21	368.08
465.58	365.61
465.95	362.70
466.32	360.44
466.68	358.10
467.05	355.89
467.42	353.68
467.78	351.46
468.15	349.36
468.52	347.78
468.88	345.61
469.25	343.75
469.62	342.30
469.98	340.67
470.35	339.19
470.72	337.72
471.08	335.97
471.45	334.78
471.82	333.49
472.18	332.06
472.55	331.03
472.92	329.65
473.28	328.74
473.65	327.70
474.02	326.60
474.38	325.68
474.75	324.99
475.11	324.15
475.48	323.45
475.85	322.91
476.21	322.28
476.58	321.81
476.94	321.41
477.31	320.88
477.67	320.45
478.04	320.02
478.41	319.72
478.77	320.07
479.14	319.69
479.50	319.47
479.87	319.50
480.23	319.50
480.60	319.45
480.96	319.34
481.33	319.66
481.69	319.83
482.06	320.12
482.42	320.42
482.79	320.79
483.15	321.14
483.52	321.73
483.88	322.24
484.25	322.75
484.61	323.35
484.98	323.99
485.34	324.95
485.71	326.02
486.07	327.07
486.44	327.59
486.80	328.65
487.17	329.84
487.53	331.30
487.90	332.75
488.26	334.45
488.62	336.17
488.99	337.65
489.35	339.46
489.72	341.30
490.08	343.19
490.44	345.25
490.81	347.51
491.17	349.66
491.54	352.11
491.90	354.69
492.26	357.36
492.63	360.28
492.99	363.10
493.36	366.07
493.72	369.33
494.08	372.81
494.45	376.49
494.81	380.42
495.17	384.18
495.54	388.32
495.90	392.54
496.26	396.96
496.63	401.57
496.99	406.29
497.35	411.37
497.72	416.65
498.08	422.05
498.44	427.76
498.80	433.68
499.17	439.77
499.53	446.10
499.89	452.82
500.26	459.53
500.62	466.51
500.98	473.91
501.34	481.29
501.71	489.08
502.07	497.01
502.43	505.08
502.79	513.39
503.16	522.09
503.52	531.18
503.88	540.35
504.24	550.13
504.60	560.12
504.97	570.49
505.33	580.87
505.69	591.92
506.05	602.94
506.41	614.15
506.78	625.76
507.14	637.70
507.50	649.96
507.86	662.49
508.22	675.53
508.59	688.60
508.95	702.24
509.31	716.36
509.67	730.65
510.03	744.93
510.39	759.74
510.75	774.64
511.12	789.74
511.48	805.37
511.84	821.09
512.20	836.98
512.56	852.88
512.92	869.69
513.28	886.40
513.64	903.57
514.00	921.06
514.37	938.97
514.73	957.01
515.09	975.10
515.45	993.76
515.81	1012.13
516.17	1030.84
516.53	1049.66
516.89	1068.11
517.25	1087.26
517.61	1107.48
517.97	1127.70
518.33	1147.49
518.69	1167.55
519.05	1188.18
519.41	1208.74
519.77	1229.78
520.13	1250.89
520.49	1271.37
520.85	1293.67
521.21	1314.82
521.57	1336.07
521.93	1356.75
522.29	1377.94
522.65	1398.53
523.01	1419.00
523.37	1439.72
523.73	1460.73
524.09	1480.90
524.45	1501.62
524.81	1522.53
525.17	1542.83
525.53	1563.38
525.89	1584.61
526.25	1605.48
526.61	1625.47
526.97	1646.26
527.33	1667.35
527.68	1688.77
528.04	1710.12
528.40	1729.42
528.76	1750.51
529.12	1770.91
529.48	1791.81
529.84	1811.66
530.20	1832.51
530.56	1853.38
530.91	1874.15
531.27	1894.13
531.63	1914.71
531.99	1935.27
532.35	1955.05
532.71	1975.09
533.07	1995.23
533.42	2014.77
533.78	2034.36
534.14	2054.26
534.50	2073.30
534.86	2092.45
535.21	2109.75
535.57	2128.12
535.93	2146.06
536.29	2163.35
536.65	2181.24
537.00	2198.50
537.36	2216.30
537.72	2232.96
538.08	2250.09
538.44	2266.62
538.79	2283.48
539.15	2300.02
539.51	2315.65
539.87	2330.89
540.22	2345.13
540.58	2359.86
540.94	2373.37
541.29	2386.23
541.65	2398.57
542.01	2411.05
542.37	2421.60
542.72	2432.74
543.08	2443.16
543.44	2454.85
543.79	2465.13
544.15	2475.21
544.51	2485.31
544.87	2494.60
545.22	2503.13
545.58	2510.49
545.94	2517.62
546.29	2523.90
546.65	2530.28
547.01	2536.19
547.36	2541.88
547.72	2547.17
548.07	2550.65
548.43	2555.60
548.79	2560.03
549.14	2564.18
549.50	2567.89
549.86	2571.84
550.21	2575.57
550.57	2578.85
550.92	2579.81
551.28	2581.03
551.64	2582.54
551.99	2584.34
552.35	2585.71
552.70	2587.77
553.06	2589.61
553.41	2590.91
553.77	2592.58
554.13	2594.11
554.48	2595.60
554.84	2597.03
555.19	2598.23
555.55	2599.94
555.90	2599.27
556.26	2598.75
556.61	2597.36
556.97	2595.19
557.32	2594.37
557.68	2593.15
558.03	2591.83
558.39	2590.70
558.74	2589.87
559.10	2587.18
559.45	2583.64
559.81	2579.32
560.16	2574.13
560.52	2569.55
560.87	2565.00
561.23	2559.46
561.58	2553.26
561.94	2546.34
562.29	2538.78
562.64	2531.74
563.00	2523.45
563.35	2517.00
563.71	2510.35
564.06	2504.06
564.42	2497.92
564.77	2491.24
565.12	2483.62
565.48	2475.92
565.83	2467.97
566.19	2459.86
566.54	2452.15
566.89	2443.92
567.25	2436.51
567.60	2429.31
567.96	2421.50
568.31	2413.44
568.66	2404.87
569.02	2395.75
569.37	2387.57
569.72	2379.97
570.08	2370.90
570.43	2361.47
570.78	2351.93
571.14	2342.23
571.49	2332.00
571.84	2322.19
572.20	2310.92
572.55	2300.91
572.90	2290.05
573.26	2279.87
573.61	2268.62
573.96	2257.46
574.31	2245.39
574.67	2233.40
575.02	2220.88
575.37	2208.15
575.72	2194.92
576.08	2182.70
576.43	2170.66
576.78	2157.55
577.13	2143.91
577.49	2131.11
577.84	2119.33
578.19	2107.49
578.54	2094.89
578.90	2083.15
579.25	2070.57
579.60	2058.16
579.95	2045.04
580.30	2032.02
580.66	2018.36
581.01	2004.90
581.36	1990.74
581.71	1978.32
582.06	1965.38
582.42	1953.02
582.77	1940.19
583.12	1928.24
583.47	1916.10
583.82	1903.79
584.17	1891.85
584.53	1880.18
584.88	1867.48
585.23	1854.54
585.58	1840.39
585.93	1827.27
586.28	1813.75
586.63	1799.98
586.98	1786.08
587.34	1773.23
587.69	1759.94
588.04	1747.50
588.39	1735.63
588.74	1723.51
589.09	1711.37
589.44	1698.59
589.79	1686.29
590.14	1674.68
590.49	1662.60
590.84	1650.59
591.19	1638.74
591.54	1626.65
591.89	1614.15
592.25	1603.79
592.60	1592.27
592.95	1581.07
593.30	1569.66
593.65	1558.03
594.00	1546.23
594.35	1536.54
594.70	1524.65
595.05	1513.36
595.40	1501.52
595.75	1489.70
596.10	1478.73
596.45	1467.36
596.80	1456.62
597.15	1445.18
597.50	1433.39
597.85	1422.26
598.19	1410.57
598.54	1399.01
598.89	1387.76
599.24	1377.40
599.59	1365.77
599.94	1354.75
600.29	1344.41
600.64	1333.97
600.99	1323.28
601.34	1313.66
601.69	1302.43
602.04	1292.88
602.39	1283.14
602.74	1273.82
603.08	1264.35
603.43	1255.23
603.78	1245.62
604.13	1236.22
604.48	1226.75
604.83	1217.02
605.18	1207.15
605.53	1197.91
605.87	1188.73
606.22	1180.20
606.57	1170.95
606.92	1161.77
607.27	1153.07
607.62	1144.34
607.96	1135.72
608.31	1127.65
608.66	1119.40
609.01	1110.95
609.36	1102.40
609.70	1094.01
610.05	1085.58
610.40	1077.15
610.75	1068.51
611.10	1060.09
611.44	1051.53
611.79	1043.47
612.14	1035.72
612.49	1027.99
612.83	1020.72
613.18	1013.11
613.53	1005.38
613.88	997.42
614.22	989.79
614.57	982.03
614.92	974.20
615.27	966.62
615.61	959.06
615.96	951.52
616.31	944.07
616.65	936.86
617.00	929.45
617.35	922.35
617.70	915.30
618.04	907.87
618.39	900.94
618.74	894.48
619.08	887.74
619.43	880.95
619.78	873.93
620.12	866.71
620.47	859.93
620.82	852.70
621.16	845.99
621.51	839.61
621.85	833.32
622.20	826.68
622.55	819.88
622.89	813.37
623.24	806.99
623.59	800.56
623.93	794.42
624.28	788.41
624.62	782.62
624.97	776.79
625.32	771.25
625.66	765.18
626.01	758.96
626.35	753.37
626.70	747.76
627.04	742.53
627.39	736.96
627.73	731.64
628.08	726.58
628.43	721.18
628.77	715.48
629.12	710.18
629.46	705.43
629.81	700.80
630.15	696.00
630.50	691.13
630.84	686.24
631.19	681.32
631.53	676.76
631.88	671.69
632.22	666.74
632.57	662.15
632.91	657.76
633.26	653.62
633.60	648.92
633.95	644.26
634.29	639.51
634.64	634.98
634.98	630.22
635.32	625.84
635.67	621.96
636.01	618.09
636.36	613.74
636.70	609.79
637.05	605.71
637.39	601.48
637.73	597.39
638.08	593.60
638.42	589.55
638.77	585.19
639.11	580.60
639.45	576.50
639.80	572.27
640.14	568.18
640.49	564.11
640.83	560.30
641.17	556.59
641.52	553.02
641.86	549.41
642.20	546.23
642.55	542.65
642.89	539.09
643.23	535.50
643.58	532.48
643.92	528.74
644.26	525.34
644.61	522.47
644.95	519.04
645.29	515.62
645.64	512.47
645.98	509.54
646.32	506.79
646.66	503.65
647.01	500.63
647.35	497.93
647.69	495.04
648.04	492.24
648.38	489.52
648.72	486.62
649.06	483.77
649.41	480.70
649.75	477.69
650.09	474.71
650.43	471.93
650.78	468.93
651.12	466.26
651.46	463.43
651.80	460.45
652.14	457.86
652.49	455.41
652.83	452.83
653.17	450.22
653.51	447.53
653.85	445.24
654.20	442.88
654.54	440.23
654.88	437.71
655.22	435.60
655.56	433.12
655.90	430.79
656.25	428.50
656.59	426.25
656.93	424.10
657.27	422.14
657.61	419.73
657.95	417.54
658.29	415.23
658.64	413.21
658.98	410.98
659.32	408.81
659.66	406.56
660.00	404.45
660.34	402.43
660.68	400.43
661.02	398.36
661.36	396.33
661.70	394.31
662.05	392.34
662.39	390.22
662.73	388.47
663.07	386.91
663.41	385.01
663.75	383.07
664.09	381.29
664.43	379.27
664.77	377.64
665.11	375.81
665.45	374.19
665.79	372.55
666.13	370.96
666.47	369.24
666.81	367.60
667.15	365.95
667.49	364.36
667.83	363.02
668.17	361.41
668.51	359.93
668.85	358.58
669.19	357.48
669.53	356.01
669.87	354.45
670.21	352.87
670.55	351.53
670.89	350.50
671.23	349.04
671.57	347.63
671.91	346.20
672.25	344.90
672.58	343.71
672.92	342.19
673.26	340.86
673.60	339.65
673.94	338.44
674.28	337.34
674.62	336.18
674.96	334.88
675.30	333.81
675.64	332.62
675.97	331.39
676.31	329.91
676.65	328.68
676.99	327.74
677.33	326.52
677.67	325.42
678.01	324.04
678.34	323.04
678.68	322.12
679.02	321.07
679.36	320.10
679.70	318.97
680.04	318.05
680.37	317.15
680.71	316.18
681.05	315.29
681.39	314.25
681.73	313.27
682.06	312.36
682.40	311.44
682.74	310.69
683.08	310.01
683.42	309.19
683.75	308.46
684.09	307.43
684.43	306.60
684.77	305.75
685.10	305.01
685.44	304.25
685.78	303.49
686.12	302.76
686.45	301.99
686.79	301.28
687.13	300.78
687.46	300.02
687.80	299.38
688.14	298.47
688.48	297.86
688.81	297.15
689.15	296.54
689.49	295.79
689.82	295.06
690.16	294.18
690.50	293.46
690.83	292.65
691.17	291.89
691.51	291.26
691.84	290.71
692.18	289.99
692.52	289.38
692.85	288.77
693.19	288.38
693.52	287.73
693.86	287.01
694.20	286.34
694.53	285.66
694.87	285.10
695.21	284.50
695.54	283.85
695.88	283.21
696.21	282.49
696.55	281.98
696.88	281.38
697.22	280.77
697.56	280.35
697.89	279.82
698.23	279.43
698.56	278.85
698.90	278.35
699.23	277.81
699.57	277.19
699.90	276.59
700.24	275.93
700.58	275.52
700.91	275.16
701.25	275.05
701.58	274.98
701.92	274.61
702.25	274.29
702.59	273.79
702.92	273.44
703.26	273.10
703.59	272.67
703.93	272.65
704.26	272.30
704.60	271.85
704.93	271.38
705.26	270.92
705.60	270.57
705.93	269.99
706.27	269.83
706.60	269.53
706.94	269.31
707.27	268.89
707.61	268.51
707.94	268.06
708.27	267.25
708.61	266.52
708.94	266.04
709.28	265.55
709.61	265.13
709.94	264.66
710.28	264.25
710.61	263.85
710.95	262.99
711.28	262.93
711.61	262.53
711.95	262.26
712.28	261.84
712.61	261.52
712.95	261.50
713.28	261.19
713.61	260.79
713.95	260.25
714.28	259.97
714.61	259.50
714.95	259.17
715.28	258.76
715.61	258.34
715.95	258.01
716.28	257.65
716.61	257.40
716.95	257.07
717.28	256.70
717.61	256.39
717.94	256.11
718.28	255.40
718.61	255.08
718.94	254.73
719.27	254.43
719.61	254.19
719.94	253.81
720.27	253.37
720.60	253.04
720.94	252.83
721.27	252.53
721.60	252.40
721.93	252.16
722.27	252.05
722.60	252.00
722.93	251.67
723.26	251.60
723.59	251.36
723.93	251.15
724.26	250.98
724.59	250.72
724.92	250.53
725.25	250.53
725.59	250.33
725.92	250.20
726.25	250.05
726.58	249.84
726.91	249.60
727.24	249.49
727.57	249.31
727.91	249.02
728.24	248.90
728.57	248.63
728.90	248.48
729.23	248.18
729.56	248.14
729.89	248.09
730.22	247.85
730.55	247.62
730.89	247.50
731.22	247.33
731.55	247.13
731.88	247.01
732.21	246.71
732.54	246.57
732.87	246.42
733.20	246.23
733.53	246.00
733.86	245.83
734.19	245.56
734.52	245.50
734.85	245.69
735.18	245.50
735.51	245.56
735.84	245.38
736.17	245.40
736.50	245.04
736.83	245.37
737.16	245.30
737.49	245.20
737.82	245.03
738.15	245.00
738.48	244.92
738.81	244.75
739.14	244.57
739.47	244.26
739.80	244.08
740.13	244.05
740.46	243.91
740.79	243.73
741.12	243.55
741.45	243.30
741.78	242.91
742.11	242.93
742.44	242.66
742.77	242.54
743.10	242.20
743.43	242.02
743.75	241.42
744.08	241.82
744.41	241.62
744.74	241.48
745.07	241.08
745.40	241.01
745.73	241.02
746.06	240.94
746.39	240.98
746.71	240.84
747.04	240.54
747.37	240.40
747.70	240.44
748.03	240.37
748.36	240.43
748.68	240.36
749.01	240.08
749.34	239.93
749.67	239.91
750.00	240.01
750.33	240.28
750.65	240.25
750.98	239.56
751.31	239.55
751.64	239.46
751.97	239.77
752.29	239.54
752.62	239.19
752.95	239.09
753.28	238.88
753.60	238.73
753.93	238.87
754.26	238.82
754.59	238.50
754.91	238.32
755.24	238.05
755.57	237.89
755.90	237.75
756.22	237.66
756.55	237.49
756.88	237.21
757.20	236.74
757.53	236.43
757.86	236.28
758.19	236.12
758.51	236.02
758.84	235.57
759.17	235.44
759.49	235.47
759.82	235.55
760.15	235.55
760.47	235.49
760.80	235.29
761.13	235.22
761.45	235.04
761.78	235.02
762.11	234.94
762.43	234.78
762.76	234.59
763.08	234.56
763.41	234.50
763.74	234.51
764.06	234.45
764.39	234.41
764.71	234.35
765.04	234.26
765.37	234.16
765.69	234.11
766.02	234.08
766.34	233.92
766.67	233.70
767.00	233.63
767.32	233.85
767.65	234.01
767.97	233.91
768.30	234.05
768.62	234.00
768.95	233.94
769.27	233.87
769.60	233.97
769.92	233.75
770.25	233.60
770.57	233.44
770.90	233.35
771.22	233.22
771.55	233.21
771.87	233.18
772.20	233.10
772.52	233.49
772.85	234.01
773.17	234.03
773.50	233.98
773.82	233.87
774.15	233.52
774.47	233.17
774.80	233.04
775.12	232.96
775.45	232.85
775.77	232.80
776.09	232.78
776.42	232.71
776.74	232.88
777.07	232.78
777.39	232.75
777.72	232.65
778.04	232.73
778.36	232.54
778.69	232.49
779.01	232.51
779.33	231.97
779.66	231.37
779.98	231.17
780.31	231.15
780.63	231.33
780.95	231.38
781.28	231.36
781.60	231.34
781.92	231.30
782.25	231.24
782.57	231.28
782.89	231.26
783.22	231.12
783.54	230.91
783.86	230.90
784.19	230.80
784.51	230.88
784.83	230.77
785.16	230.73
785.48	230.71
785.80	230.67
786.12	230.72
786.45	230.73
786.77	230.83
787.09	230.73
787.42	230.53
787.74	230.48
788.06	230.48
788.38	230.44
788.71	230.35
789.03	230.30
789.35	230.28
789.67	230.20
789.99	230.28
790.32	230.23
790.64	230.31
790.96	230.67
791.28	230.49
791.61	230.42
791.93	230.54
792.25	230.47
792.57	230.77
792.89	230.70
793.21	230.67
793.54	230.61
793.86	230.61
794.18	230.57
794.50	230.51
794.82	230.48
795.14	230.56
795.47	230.62
795.79	230.68
796.11	230.59
796.43	230.57
796.75	230.55
797.07	230.63
797.39	230.56
797.71	230.18
798.04	230.27
798.36	230.28
798.68	230.18
799.00	230.23
799.32	229.98
799.64	230.05
799.96	230.00
800.28	230.05
800.60	229.93
800.92	229.96
801.24	229.88
801.56	229.93
801.89	229.81
802.21	229.75
802.53	229.64
802.85	229.71
803.17	229.94
803.49	229.89
803.81	229.82
804.13	229.76
804.45	229.81
804.77	229.82
805.09	229.76
805.41	229.74
805.73	229.62
806.05	229.43
806.37	229.36
806.69	229.38
807.01	229.37
807.33	229.42
807.65	229.35
807.97	229.53
808.28	229.42
808.60	229.44
808.92	229.35
809.24	229.60
809.56	229.46
809.88	229.22
810.20	229.18
810.52	229.20
810.84	229.14
811.16	229.01
811.48	228.97
811.80	229.19
812.12	229.25
812.43	229.35
812.75	229.41
813.07	229.38
813.39	229.36
813.71	229.30
814.03	229.30
814.35	229.22
814.67	228.99
814.98	228.97
815.30	228.90
815.62	228.99
815.94	228.72
816.26	228.95
816.58	228.85
816.89	228.96
817.21	228.86
817.53	228.91
817.85	228.83
