SpectraSuite Data File
++++++++++++++++++++++++++++++++++++
Date: Wed Sep 04 17:48:13 EDT 2013
User: lab3
Dark Spectrum Present: Yes
Reference Spectrum Present: No
Number of Sampled Component Spectra: 1
Spectrometers: USB2E7196
Integration Time (usec): 170000 (USB2E7196)
Spectra Averaged: 20 (USB2E7196)
Boxcar Smoothing: 10 (USB2E7196)
Correct for Electrical Dark: No (USB2E7196)
Strobe/Lamp Enabled: No (USB2E7196)
Correct for Detector Non-linearity: No (USB2E7196)
Correct for Stray Light: No (USB2E7196)
Number of Pixels in Processed Spectrum: 2048
>>>>>Begin Processed Spectral Data<<<<<
339.09	0.00
339.48	212.25
339.86	214.25
340.24	215.75
340.63	218.05
341.01	226.50
341.39	219.75
341.78	221.90
342.16	223.10
342.54	223.10
342.93	212.07
343.31	222.70
343.69	223.16
344.07	223.65
344.46	224.12
344.84	224.48
345.22	224.38
345.60	224.64
345.99	224.86
346.37	224.94
346.75	224.97
347.13	225.09
347.52	225.11
347.90	225.35
348.28	225.45
348.66	225.65
349.05	225.61
349.43	225.74
349.81	225.85
350.19	225.87
350.57	225.93
350.96	226.04
351.34	226.24
351.72	226.48
352.10	226.57
352.48	226.59
352.87	226.59
353.25	226.64
353.63	226.69
354.01	226.70
354.39	226.80
354.77	226.92
355.15	227.08
355.54	227.08
355.92	226.96
356.30	226.98
356.68	227.28
357.06	227.28
357.44	227.16
357.82	227.13
358.20	227.56
358.58	227.58
358.97	227.67
359.35	227.76
359.73	227.88
360.11	227.92
360.49	228.05
360.87	228.14
361.25	228.29
361.63	228.50
362.01	228.63
362.39	228.60
362.77	228.72
363.15	228.65
363.53	228.67
363.91	228.75
364.29	228.75
364.67	228.32
365.05	228.37
365.43	228.50
365.81	228.71
366.19	228.64
366.57	228.85
366.95	228.81
367.33	228.68
367.71	228.66
368.09	228.75
368.47	228.69
368.85	228.65
369.23	228.71
369.61	228.56
369.99	228.62
370.37	228.73
370.75	228.86
371.13	228.87
371.51	228.89
371.89	228.90
372.27	228.92
372.65	228.95
373.03	228.96
373.41	228.90
373.78	228.79
374.16	228.52
374.54	228.36
374.92	228.33
375.30	228.36
375.68	228.19
376.06	228.18
376.44	228.08
376.82	228.09
377.19	228.05
377.57	227.98
377.95	227.77
378.33	227.67
378.71	227.37
379.09	227.37
379.47	227.25
379.84	227.12
380.22	227.01
380.60	226.86
380.98	226.74
381.36	226.67
381.73	226.51
382.11	226.45
382.49	226.39
382.87	226.25
383.25	226.10
383.62	226.62
384.00	226.39
384.38	226.40
384.76	226.47
385.13	226.49
385.51	226.48
385.89	226.32
386.27	226.29
386.64	226.30
387.02	226.13
387.40	226.05
387.78	226.05
388.15	226.07
388.53	226.00
388.91	225.95
389.29	225.90
389.66	225.95
390.04	225.88
390.42	225.93
390.79	225.97
391.17	226.00
391.55	225.43
391.92	225.50
392.30	225.55
392.68	225.36
393.05	225.41
393.43	225.34
393.81	225.36
394.18	225.34
394.56	225.38
394.94	225.57
395.31	225.59
395.69	225.75
396.06	225.83
396.44	225.95
396.82	226.00
397.19	226.25
397.57	226.25
397.95	226.40
398.32	226.29
398.70	226.33
399.07	226.52
399.45	226.60
399.82	226.65
400.20	226.66
400.58	226.76
400.95	226.67
401.33	226.94
401.70	227.47
402.08	227.60
402.45	227.76
402.83	227.87
403.20	228.14
403.58	228.23
403.95	228.46
404.33	228.69
404.71	228.90
405.08	229.38
405.46	229.60
405.83	229.85
406.21	230.16
406.58	230.52
406.96	230.73
407.33	231.13
407.70	231.49
408.08	232.20
408.45	232.63
408.83	233.12
409.20	233.49
409.58	233.62
409.95	234.23
410.33	234.79
410.70	235.23
411.08	235.81
411.45	236.44
411.82	236.98
412.20	237.82
412.57	238.79
412.95	239.13
413.32	240.05
413.69	240.76
414.07	241.73
414.44	242.71
414.82	243.78
415.19	244.93
415.56	246.13
415.94	247.19
416.31	248.60
416.68	250.04
417.06	251.72
417.43	253.42
417.81	255.12
418.18	256.88
418.55	258.76
418.93	260.73
419.30	262.85
419.67	265.15
420.04	267.30
420.42	269.53
420.79	272.55
421.16	275.22
421.54	278.32
421.91	281.35
422.28	284.38
422.66	287.64
423.03	291.00
423.40	294.30
423.77	297.82
424.15	301.47
424.52	305.19
424.89	309.20
425.26	313.06
425.64	316.69
426.01	320.80
426.38	325.09
426.75	329.56
427.13	334.02
427.50	338.56
427.87	343.36
428.24	348.30
428.61	352.75
428.99	357.94
429.36	363.35
429.73	368.70
430.10	374.15
430.47	379.72
430.85	385.34
431.22	391.46
431.59	397.97
431.96	404.00
432.33	410.80
432.70	417.35
433.08	425.08
433.45	432.44
433.82	439.77
434.19	447.87
434.56	455.81
434.93	463.44
435.30	471.07
435.68	479.65
436.05	487.88
436.42	496.09
436.79	503.70
437.16	511.96
437.53	520.63
437.90	529.09
438.27	537.49
438.64	546.22
439.01	554.41
439.38	561.61
439.75	568.79
440.13	576.62
440.50	584.03
440.87	590.05
441.24	596.34
441.61	603.07
441.98	608.06
442.35	613.69
442.72	619.55
443.09	625.23
443.46	628.45
443.83	630.89
444.20	632.87
444.57	635.49
444.94	636.46
445.31	637.57
445.68	639.08
446.05	639.24
446.42	637.99
446.79	636.62
447.16	634.98
447.53	633.73
447.90	630.06
448.27	626.58
448.64	621.71
449.01	618.25
449.37	612.22
449.74	606.41
450.11	599.85
450.48	592.17
450.85	584.43
451.22	577.82
451.59	571.15
451.96	565.00
452.33	557.03
452.70	549.71
453.07	541.18
453.43	532.14
453.80	523.98
454.17	516.10
454.54	508.52
454.91	500.59
455.28	492.72
455.65	485.50
456.02	478.72
456.38	472.50
456.75	464.71
457.12	458.37
457.49	452.12
457.86	445.83
458.23	440.81
458.59	435.25
458.96	429.46
459.33	424.39
459.70	419.33
460.07	415.38
460.43	410.87
460.80	406.55
461.17	402.87
461.54	398.85
461.91	394.98
462.27	391.15
462.64	387.82
463.01	384.32
463.38	381.07
463.74	377.05
464.11	374.15
464.48	371.51
464.85	368.72
465.21	366.66
465.58	364.38
465.95	361.58
466.32	359.31
466.68	357.15
467.05	355.05
467.42	352.88
467.78	350.56
468.15	348.50
468.52	347.04
468.88	344.89
469.25	342.99
469.62	341.68
469.98	340.07
470.35	338.58
470.72	337.10
471.08	335.36
471.45	334.15
471.82	332.85
472.18	331.48
472.55	330.43
472.92	329.05
473.28	327.86
473.65	326.83
474.02	325.78
474.38	324.90
474.75	324.10
475.11	323.14
475.48	322.49
475.85	321.94
476.21	321.19
476.58	320.65
476.94	320.27
477.31	319.70
477.67	319.29
478.04	319.01
478.41	318.81
478.77	319.08
479.14	318.64
479.50	318.52
479.87	318.47
480.23	318.42
480.60	318.36
480.96	318.41
481.33	318.78
481.69	318.94
482.06	319.25
482.42	319.57
482.79	319.97
483.15	320.43
483.52	320.96
483.88	321.47
484.25	321.98
484.61	322.65
484.98	323.37
485.34	324.24
485.71	325.14
486.07	326.10
486.44	326.77
486.80	327.96
487.17	329.05
487.53	330.61
487.90	332.05
488.26	333.69
488.62	335.37
488.99	336.85
489.35	338.68
489.72	340.61
490.08	342.52
490.44	344.52
490.81	346.73
491.17	348.90
491.54	351.35
491.90	353.95
492.26	356.64
492.63	359.43
492.99	362.31
493.36	365.40
493.72	368.76
494.08	372.13
494.45	375.88
494.81	379.71
495.17	383.46
495.54	387.59
495.90	391.85
496.26	396.23
496.63	400.82
496.99	405.56
497.35	410.52
497.72	415.86
498.08	421.32
498.44	426.97
498.80	433.04
499.17	439.03
499.53	445.30
499.89	451.83
500.26	458.68
500.62	465.60
500.98	472.87
501.34	480.21
501.71	487.99
502.07	495.71
502.43	503.91
502.79	512.22
503.16	521.04
503.52	530.04
503.88	539.27
504.24	548.90
504.60	558.70
504.97	568.94
505.33	579.27
505.69	590.22
506.05	601.11
506.41	612.40
506.78	623.95
507.14	635.92
507.50	648.26
507.86	660.57
508.22	673.45
508.59	686.40
508.95	699.96
509.31	713.89
509.67	728.24
510.03	742.31
510.39	756.97
510.75	771.64
511.12	786.66
511.48	802.11
511.84	817.70
512.20	833.81
512.56	849.94
512.92	866.58
513.28	883.32
513.64	900.38
514.00	917.58
514.37	935.10
514.73	953.10
515.09	971.02
515.45	989.35
515.81	1007.52
516.17	1026.32
516.53	1044.77
516.89	1063.30
517.25	1082.30
517.61	1102.41
517.97	1122.48
518.33	1142.30
518.69	1162.45
519.05	1182.68
519.41	1203.19
519.77	1223.87
520.13	1244.45
520.49	1265.10
520.85	1287.12
521.21	1308.15
521.57	1328.91
521.93	1349.44
522.29	1370.41
522.65	1390.87
523.01	1411.62
523.37	1432.36
523.73	1453.01
524.09	1473.37
524.45	1493.88
524.81	1514.42
525.17	1534.63
525.53	1554.95
525.89	1575.56
526.25	1596.12
526.61	1616.15
526.97	1636.88
527.33	1657.90
527.68	1679.21
528.04	1700.12
528.40	1719.39
528.76	1740.31
529.12	1760.88
529.48	1781.74
529.84	1801.33
530.20	1822.22
530.56	1842.56
530.91	1863.04
531.27	1883.00
531.63	1903.15
531.99	1923.38
532.35	1943.14
532.71	1963.14
533.07	1983.36
533.42	2002.81
533.78	2022.32
534.14	2041.97
534.50	2060.80
534.86	2079.68
535.21	2097.18
535.57	2115.05
535.93	2132.53
536.29	2149.63
536.65	2167.29
537.00	2184.38
537.36	2201.78
537.72	2217.87
538.08	2235.08
538.44	2251.23
538.79	2267.58
539.15	2283.75
539.51	2299.28
539.87	2314.19
540.22	2327.66
540.58	2341.42
540.94	2354.70
541.29	2366.95
541.65	2379.31
542.01	2391.42
542.37	2400.99
542.72	2411.68
543.08	2421.72
543.44	2432.93
543.79	2442.76
544.15	2452.23
544.51	2461.89
544.87	2471.21
545.22	2479.63
545.58	2486.88
545.94	2493.93
546.29	2499.78
546.65	2505.77
547.01	2511.19
547.36	2516.47
547.72	2521.93
548.07	2525.92
548.43	2530.55
548.79	2534.81
549.14	2538.59
549.50	2541.99
549.86	2546.04
550.21	2549.30
550.57	2552.71
550.92	2553.77
551.28	2554.86
551.64	2557.17
551.99	2558.92
552.35	2560.17
552.70	2562.01
553.06	2563.30
553.41	2564.14
553.77	2565.74
554.13	2567.11
554.48	2568.39
554.84	2569.54
555.19	2570.34
555.55	2571.51
555.90	2570.66
556.26	2569.94
556.61	2568.22
556.97	2566.09
557.32	2565.52
557.68	2564.49
558.03	2563.00
558.39	2561.58
558.74	2560.69
559.10	2557.21
559.45	2553.34
559.81	2548.90
560.16	2543.39
560.52	2538.21
560.87	2534.06
561.23	2528.82
561.58	2523.19
561.94	2516.43
562.29	2508.98
562.64	2502.17
563.00	2494.06
563.35	2487.53
563.71	2480.80
564.06	2474.35
564.42	2467.64
564.77	2460.71
565.12	2452.58
565.48	2444.97
565.83	2437.09
566.19	2428.74
566.54	2420.86
566.89	2412.82
567.25	2405.01
567.60	2398.01
567.96	2390.64
568.31	2382.39
568.66	2373.55
569.02	2364.25
569.37	2355.91
569.72	2348.48
570.08	2339.16
570.43	2329.57
570.78	2320.75
571.14	2311.42
571.49	2301.56
571.84	2292.30
572.20	2281.61
572.55	2271.75
572.90	2260.85
573.26	2250.61
573.61	2239.88
573.96	2228.37
574.31	2216.58
574.67	2204.85
575.02	2192.39
575.37	2179.82
575.72	2166.77
576.08	2154.65
576.43	2142.42
576.78	2129.39
577.13	2115.67
577.49	2103.18
577.84	2091.45
578.19	2079.53
578.54	2067.02
578.90	2055.02
579.25	2042.51
579.60	2029.98
579.95	2017.37
580.30	2004.43
580.66	1991.05
581.01	1977.88
581.36	1964.41
581.71	1951.92
582.06	1939.04
582.42	1926.85
582.77	1914.20
583.12	1902.39
583.47	1890.57
583.82	1878.83
584.17	1867.13
584.53	1855.65
584.88	1842.87
585.23	1830.25
585.58	1816.17
585.93	1803.14
586.28	1790.11
586.63	1776.74
586.98	1762.75
587.34	1749.68
587.69	1736.56
588.04	1724.48
588.39	1712.31
588.74	1700.53
589.09	1688.52
589.44	1676.16
589.79	1664.22
590.14	1652.75
590.49	1640.94
590.84	1629.02
591.19	1617.12
591.54	1605.01
591.89	1592.81
592.25	1582.86
592.60	1571.53
592.95	1560.40
593.30	1548.65
593.65	1536.93
594.00	1525.05
594.35	1515.68
594.70	1504.07
595.05	1492.76
595.40	1480.84
595.75	1469.22
596.10	1458.07
596.45	1446.97
596.80	1436.55
597.15	1425.33
597.50	1413.66
597.85	1402.37
598.19	1390.98
598.54	1379.42
598.89	1368.38
599.24	1358.28
599.59	1346.85
599.94	1336.23
600.29	1326.18
600.64	1316.21
600.99	1305.80
601.34	1296.53
601.69	1285.24
602.04	1275.82
602.39	1266.47
602.74	1257.47
603.08	1248.19
603.43	1239.07
603.78	1229.52
604.13	1219.96
604.48	1210.28
604.83	1200.62
605.18	1191.12
605.53	1181.91
605.87	1173.06
606.22	1164.78
606.57	1155.45
606.92	1146.16
607.27	1137.30
607.62	1128.57
607.96	1120.17
608.31	1112.49
608.66	1104.05
609.01	1095.69
609.36	1087.16
609.70	1078.85
610.05	1070.36
610.40	1062.19
610.75	1053.79
611.10	1045.70
611.44	1037.25
611.79	1029.37
612.14	1021.95
612.49	1014.18
612.83	1006.83
613.18	999.20
613.53	991.41
613.88	983.74
614.22	976.29
614.57	968.54
614.92	960.85
615.27	953.46
615.61	945.80
615.96	938.41
616.31	931.10
616.65	923.96
617.00	916.84
617.35	909.82
617.70	902.72
618.04	895.66
618.39	888.73
618.74	882.52
619.08	875.83
619.43	868.99
619.78	862.31
620.12	855.22
620.47	848.41
620.82	841.74
621.16	835.17
621.51	828.96
621.85	822.90
622.20	816.57
622.55	810.00
622.89	803.69
623.24	797.44
623.59	791.42
623.93	785.41
624.28	779.45
624.62	774.10
624.97	768.57
625.32	763.04
625.66	757.41
626.01	751.32
626.35	746.04
626.70	740.55
627.04	735.38
627.39	729.97
627.73	724.83
628.08	719.62
628.43	714.45
628.77	709.05
629.12	703.80
629.46	699.01
629.81	694.52
630.15	689.93
630.50	685.22
630.84	680.36
631.19	675.73
631.53	671.15
631.88	665.80
632.22	660.90
632.57	656.58
632.91	651.90
633.26	647.69
633.60	643.15
633.95	638.65
634.29	633.96
634.64	629.58
634.98	625.02
635.32	620.75
635.67	616.67
636.01	612.70
636.36	608.55
636.70	604.53
637.05	600.34
637.39	596.26
637.73	592.28
638.08	588.49
638.42	584.40
638.77	580.23
639.11	576.06
639.45	571.86
639.80	567.40
640.14	563.53
640.49	559.51
640.83	555.53
641.17	551.99
641.52	548.44
641.86	544.91
642.20	541.84
642.55	538.20
642.89	534.66
643.23	531.20
643.58	528.21
643.92	524.60
644.26	521.27
644.61	518.09
644.95	514.78
645.29	511.43
645.64	508.33
645.98	505.33
646.32	502.66
646.66	499.63
647.01	496.90
647.35	494.16
647.69	491.40
648.04	488.77
648.38	485.95
648.72	483.00
649.06	480.06
649.41	476.95
649.75	474.19
650.09	471.39
650.43	468.60
650.78	465.55
651.12	462.86
651.46	460.10
651.80	457.28
652.14	454.55
652.49	452.10
652.83	449.49
653.17	446.81
653.51	444.07
653.85	441.81
654.20	439.35
654.54	436.78
654.88	434.16
655.22	431.93
655.56	429.65
655.90	427.44
656.25	425.20
656.59	423.01
656.93	420.85
657.27	418.96
657.61	416.54
657.95	414.45
658.29	412.25
658.64	410.22
658.98	408.08
659.32	406.00
659.66	403.81
660.00	401.82
660.34	399.97
660.68	397.94
661.02	395.86
661.36	393.91
661.70	391.98
662.05	390.13
662.39	388.14
662.73	386.25
663.07	384.65
663.41	382.84
663.75	380.95
664.09	379.19
664.43	377.03
664.77	375.36
665.11	373.62
665.45	371.97
665.79	370.41
666.13	368.74
666.47	367.14
666.81	365.43
667.15	363.77
667.49	362.25
667.83	361.03
668.17	359.61
668.51	358.12
668.85	356.80
669.19	355.75
669.53	354.22
669.87	352.75
670.21	351.15
670.55	349.83
670.89	348.75
671.23	347.31
671.57	346.07
671.91	344.75
672.25	343.48
672.58	342.28
672.92	340.85
673.26	339.59
673.60	338.27
673.94	337.21
674.28	336.24
674.62	335.06
674.96	333.78
675.30	332.62
675.64	331.44
675.97	330.19
676.31	328.80
676.65	327.66
676.99	326.78
677.33	325.71
677.67	324.75
678.01	323.47
678.34	322.46
678.68	321.54
679.02	320.55
679.36	319.58
679.70	318.61
680.04	317.74
680.37	316.87
680.71	315.98
681.05	315.03
681.39	314.00
681.73	313.12
682.06	312.06
682.40	311.20
682.74	310.44
683.08	309.72
683.42	308.77
683.75	308.05
684.09	307.02
684.43	306.21
684.77	305.33
685.10	304.47
685.44	303.71
685.78	302.81
686.12	302.04
686.45	301.23
686.79	300.36
687.13	299.56
687.46	298.81
687.80	298.27
688.14	297.55
688.48	296.80
688.81	296.01
689.15	295.47
689.49	294.72
689.82	294.05
690.16	293.21
690.50	292.66
690.83	291.96
691.17	291.29
691.51	290.56
691.84	289.95
692.18	289.38
692.52	288.68
692.85	288.19
693.19	287.81
693.52	287.13
693.86	286.54
694.20	285.99
694.53	285.47
694.87	284.76
695.21	284.07
695.54	283.54
695.88	282.84
696.21	282.05
696.55	281.40
696.88	280.73
697.22	280.13
697.56	279.58
697.89	278.95
698.23	278.45
698.56	277.93
698.90	277.47
699.23	276.89
699.57	276.40
699.90	275.79
700.24	275.14
700.58	274.73
700.91	274.30
701.25	274.10
701.58	273.82
701.92	273.46
702.25	273.10
702.59	272.59
702.92	272.22
703.26	271.97
703.59	271.55
703.93	271.52
704.26	271.17
704.60	270.77
704.93	270.25
705.26	269.76
705.60	269.41
705.93	268.86
706.27	268.67
706.60	268.39
706.94	268.18
707.27	267.72
707.61	267.34
707.94	267.02
708.27	266.27
708.61	265.56
708.94	265.02
709.28	264.58
709.61	264.15
709.94	263.79
710.28	263.34
710.61	263.08
710.95	262.28
711.28	262.29
711.61	261.86
711.95	261.66
712.28	261.31
712.61	260.96
712.95	260.82
713.28	260.55
713.61	260.07
713.95	259.58
714.28	259.27
714.61	258.88
714.95	258.42
715.28	258.00
715.61	257.67
715.95	257.42
716.28	257.10
716.61	256.88
716.95	256.55
717.28	256.26
717.61	255.89
717.94	255.63
718.28	254.94
718.61	254.63
718.94	254.32
719.27	254.04
719.61	253.76
719.94	253.45
720.27	253.03
720.60	252.78
720.94	252.60
721.27	252.36
721.60	252.24
721.93	252.07
722.27	252.08
722.60	251.99
722.93	251.73
723.26	251.61
723.59	251.28
723.93	251.12
724.26	250.92
724.59	250.68
724.92	250.49
725.25	250.37
725.59	250.19
725.92	250.02
726.25	249.81
726.58	249.65
726.91	249.44
727.24	249.34
727.57	249.22
727.91	248.95
728.24	248.86
728.57	248.64
728.90	248.46
729.23	248.13
729.56	248.20
729.89	247.99
730.22	247.68
730.55	247.58
730.89	247.44
731.22	247.18
731.55	247.08
731.88	246.89
732.21	246.67
732.54	246.50
732.87	246.31
733.20	246.20
733.53	245.98
733.86	245.87
734.19	245.56
734.52	245.42
734.85	245.52
735.18	245.28
735.51	245.25
735.84	245.18
736.17	245.15
736.50	244.66
736.83	245.11
737.16	245.02
737.49	244.86
737.82	244.69
738.15	244.71
738.48	244.50
738.81	244.46
739.14	244.32
739.47	244.11
739.80	243.99
740.13	243.95
740.46	243.78
740.79	243.52
741.12	243.50
741.45	243.31
741.78	242.87
742.11	242.88
742.44	242.56
742.77	242.48
743.10	242.29
743.43	242.13
743.75	241.51
744.08	242.02
744.41	241.87
744.74	241.69
745.07	241.46
745.40	241.48
745.73	241.42
746.06	241.22
746.39	241.18
746.71	240.99
747.04	240.70
747.37	240.56
747.70	240.46
748.03	240.27
748.36	240.17
748.68	240.08
749.01	239.79
749.34	239.71
749.67	239.46
750.00	239.39
750.33	239.60
750.65	239.48
750.98	238.72
751.31	238.58
751.64	238.49
751.97	238.61
752.29	238.42
752.62	238.11
752.95	238.04
753.28	237.92
753.60	237.78
753.93	237.86
754.26	237.79
754.59	237.59
754.91	237.49
755.24	237.28
755.57	237.23
755.90	237.12
756.22	236.93
756.55	236.84
756.88	236.67
757.20	236.32
757.53	236.04
757.86	235.89
758.19	235.83
758.51	235.72
758.84	235.39
759.17	235.25
759.49	235.20
759.82	235.29
760.15	235.16
760.47	235.09
760.80	234.83
761.13	234.80
761.45	234.72
761.78	234.65
762.11	234.58
762.43	234.40
762.76	234.28
763.08	234.29
763.41	234.20
763.74	234.12
764.06	234.03
764.39	234.10
764.71	234.03
765.04	233.95
765.37	233.86
765.69	233.79
766.02	233.74
766.34	233.62
766.67	233.38
767.00	233.44
767.32	233.62
767.65	233.85
767.97	233.77
768.30	233.71
768.62	233.65
768.95	233.64
769.27	233.59
769.60	233.55
769.92	233.44
770.25	233.36
770.57	233.15
770.90	233.08
771.22	232.90
771.55	232.87
771.87	232.85
772.20	232.78
772.52	233.08
772.85	233.56
773.17	233.51
773.50	233.50
773.82	233.33
774.15	233.05
774.47	232.70
774.80	232.63
775.12	232.58
775.45	232.48
775.77	232.42
776.09	232.41
776.42	232.43
776.74	232.52
777.07	232.43
777.39	232.52
777.72	232.43
778.04	232.44
778.36	232.41
778.69	232.35
779.01	232.25
779.33	231.82
779.66	231.19
779.98	231.15
780.31	231.07
780.63	231.23
780.95	231.27
781.28	231.24
781.60	231.11
781.92	231.05
782.25	230.95
782.57	230.92
782.89	230.89
783.22	230.77
783.54	230.56
783.86	230.55
784.19	230.44
784.51	230.51
784.83	230.41
785.16	230.29
785.48	230.25
785.80	230.30
786.12	230.31
786.45	230.24
786.77	230.20
787.09	230.15
787.42	229.94
787.74	229.93
788.06	229.87
788.38	229.85
788.71	229.79
789.03	229.83
789.35	229.79
789.67	229.69
789.99	229.76
790.32	229.74
790.64	229.78
790.96	230.07
791.28	229.91
791.61	229.94
791.93	230.00
792.25	229.91
792.57	230.18
792.89	230.04
793.21	230.17
793.54	230.12
793.86	230.01
794.18	230.12
794.50	230.03
794.82	229.99
795.14	230.05
795.47	230.15
795.79	230.11
796.11	230.07
796.43	230.03
796.75	230.00
797.07	229.98
797.39	229.95
797.71	229.68
798.04	229.69
798.36	229.63
798.68	229.59
799.00	229.63
799.32	229.36
799.64	229.47
799.96	229.37
800.28	229.45
800.60	229.53
800.92	229.49
801.24	229.38
801.56	229.54
801.89	229.46
802.21	229.45
802.53	229.41
802.85	229.45
803.17	229.68
803.49	229.52
803.81	229.56
804.13	229.49
804.45	229.38
804.77	229.46
805.09	229.43
805.41	229.37
805.73	229.28
806.05	229.17
806.37	229.08
806.69	229.10
807.01	229.07
807.33	229.06
807.65	228.89
807.97	229.11
808.28	228.90
808.60	228.92
808.92	228.84
809.24	229.05
809.56	229.00
809.88	228.83
810.20	228.96
810.52	228.92
810.84	228.91
811.16	228.82
811.48	228.70
811.80	228.89
812.12	228.89
812.43	229.03
812.75	229.13
813.07	229.15
813.39	229.19
813.71	229.10
814.03	229.02
814.35	228.93
814.67	228.75
814.98	228.74
815.30	228.70
815.62	228.60
815.94	228.37
816.26	228.57
816.58	228.42
816.89	228.33
817.21	228.19
817.53	228.21
817.85	228.29
