SpectraSuite Data File
++++++++++++++++++++++++++++++++++++
Date: Wed Sep 04 17:55:25 EDT 2013
User: lab3
Dark Spectrum Present: Yes
Reference Spectrum Present: No
Number of Sampled Component Spectra: 1
Spectrometers: USB2E7196
Integration Time (usec): 170000 (USB2E7196)
Spectra Averaged: 20 (USB2E7196)
Boxcar Smoothing: 10 (USB2E7196)
Correct for Electrical Dark: No (USB2E7196)
Strobe/Lamp Enabled: No (USB2E7196)
Correct for Detector Non-linearity: No (USB2E7196)
Correct for Stray Light: No (USB2E7196)
Number of Pixels in Processed Spectrum: 2048
>>>>>Begin Processed Spectral Data<<<<<
339.09	0.00
339.48	213.45
339.86	215.20
340.24	215.85
340.63	216.90
341.01	227.80
341.39	219.80
341.78	223.10
342.16	223.70
342.54	223.15
342.93	212.63
343.31	223.31
343.69	223.87
344.07	224.34
344.46	224.87
344.84	225.30
345.22	225.22
345.60	225.59
345.99	225.80
346.37	225.90
346.75	225.98
347.13	226.17
347.52	226.27
347.90	226.39
348.28	226.49
348.66	226.69
349.05	226.61
349.43	226.64
349.81	226.71
350.19	226.76
350.57	226.84
350.96	226.93
351.34	227.09
351.72	227.20
352.10	227.30
352.48	227.38
352.87	227.42
353.25	227.39
353.63	227.38
354.01	227.31
354.39	227.41
354.77	227.53
355.15	227.72
355.54	227.71
355.92	227.63
356.30	227.65
356.68	227.95
357.06	228.05
357.44	228.05
357.82	228.01
358.20	228.50
358.58	228.51
358.97	228.57
359.35	228.68
359.73	228.80
360.11	228.83
360.49	228.85
360.87	228.90
361.25	229.13
361.63	229.27
362.01	229.42
362.39	229.46
362.77	229.57
363.15	229.41
363.53	229.41
363.91	229.56
364.29	229.59
364.67	229.15
365.05	229.19
365.43	229.31
365.81	229.41
366.19	229.34
366.57	229.60
366.95	229.55
367.33	229.42
367.71	229.41
368.09	229.49
368.47	229.47
368.85	229.49
369.23	229.51
369.61	229.40
369.99	229.47
370.37	229.54
370.75	229.77
371.13	229.73
371.51	229.69
371.89	229.68
372.27	229.65
372.65	229.68
373.03	229.60
373.41	229.53
373.78	229.51
374.16	229.25
374.54	229.07
374.92	229.02
375.30	229.03
375.68	228.86
376.06	228.88
376.44	228.81
376.82	228.77
377.19	228.67
377.57	228.59
377.95	228.40
378.33	228.27
378.71	227.84
379.09	227.82
379.47	227.80
379.84	227.67
380.22	227.56
380.60	227.40
380.98	227.31
381.36	227.19
381.73	227.04
382.11	227.03
382.49	226.93
382.87	226.83
383.25	226.75
383.62	227.28
384.00	227.19
384.38	227.14
384.76	227.20
385.13	227.35
385.51	227.31
385.89	227.20
386.27	227.16
386.64	227.19
387.02	227.16
387.40	227.14
387.78	227.10
388.15	227.14
388.53	227.14
388.91	227.10
389.29	227.06
389.66	227.08
390.04	226.90
390.42	226.95
390.79	226.96
391.17	226.94
391.55	226.47
391.92	226.43
392.30	226.49
392.68	226.41
393.05	226.34
393.43	226.38
393.81	226.44
394.18	226.38
394.56	226.44
394.94	226.52
395.31	226.50
395.69	226.74
396.06	226.81
396.44	226.86
396.82	226.88
397.19	227.24
397.57	227.27
397.95	227.47
398.32	227.47
398.70	227.59
399.07	227.77
399.45	227.71
399.82	227.67
400.20	227.78
400.58	227.84
400.95	227.79
401.33	227.95
401.70	228.35
402.08	228.46
402.45	228.57
402.83	228.77
403.20	228.97
403.58	229.00
403.95	229.24
404.33	229.45
404.71	229.69
405.08	230.04
405.46	230.25
405.83	230.49
406.21	230.73
406.58	231.00
406.96	231.26
407.33	231.69
407.70	232.11
408.08	232.78
408.45	233.25
408.83	233.75
409.20	234.11
409.58	234.24
409.95	234.86
410.33	235.44
410.70	235.93
411.08	236.45
411.45	237.06
411.82	237.56
412.20	238.30
412.57	239.32
412.95	239.73
413.32	240.63
413.69	241.44
414.07	242.31
414.44	243.29
414.82	244.31
415.19	245.45
415.56	246.63
415.94	247.60
416.31	249.00
416.68	250.38
417.06	252.03
417.43	253.78
417.81	255.50
418.18	257.31
418.55	259.26
418.93	261.39
419.30	263.44
419.67	265.71
420.04	267.99
420.42	270.30
420.79	273.35
421.16	276.18
421.54	279.23
421.91	282.25
422.28	285.20
422.66	288.45
423.03	291.94
423.40	295.26
423.77	298.86
424.15	302.36
424.52	306.05
424.89	310.22
425.26	314.13
425.64	317.92
426.01	322.08
426.38	326.44
426.75	330.95
427.13	335.57
427.50	340.24
427.87	345.21
428.24	350.20
428.61	354.66
428.99	359.85
429.36	365.29
429.73	370.86
430.10	376.59
430.47	382.30
430.85	387.87
431.22	394.10
431.59	400.79
431.96	407.11
432.33	414.09
432.70	420.67
433.08	428.61
433.45	436.00
433.82	443.36
434.19	451.57
434.56	459.66
434.93	467.26
435.30	475.11
435.68	483.66
436.05	491.93
436.42	500.30
436.79	508.05
437.16	516.51
437.53	525.20
437.90	533.88
438.27	542.42
438.64	551.27
439.01	559.49
439.38	566.76
439.75	574.00
440.13	581.99
440.50	589.60
440.87	595.56
441.24	601.90
441.61	608.83
441.98	613.88
442.35	619.70
442.72	625.85
443.09	631.57
443.46	634.97
443.83	637.28
444.20	639.17
444.57	641.83
444.94	642.80
445.31	643.96
445.68	645.26
446.05	645.46
446.42	644.37
446.79	643.02
447.16	641.31
447.53	639.96
447.90	636.32
448.27	632.55
448.64	627.68
449.01	624.05
449.37	618.04
449.74	612.01
450.11	605.08
450.48	597.19
450.85	589.29
451.22	582.42
451.59	575.87
451.96	569.61
452.33	561.45
452.70	554.16
453.07	545.44
453.43	536.14
453.80	527.65
454.17	519.42
454.54	511.70
454.91	503.65
455.28	495.69
455.65	488.26
456.02	481.46
456.38	475.13
456.75	467.35
457.12	460.66
457.49	454.40
457.86	448.10
458.23	443.05
458.59	437.28
458.96	431.50
459.33	426.40
459.70	421.37
460.07	417.39
460.43	412.69
460.80	408.43
461.17	404.85
461.54	400.89
461.91	397.17
462.27	393.28
462.64	389.93
463.01	386.25
463.38	383.00
463.74	379.00
464.11	376.02
464.48	373.41
464.85	370.59
465.21	368.36
465.58	366.04
465.95	363.19
466.32	361.02
466.68	358.86
467.05	356.68
467.42	354.51
467.78	352.20
468.15	350.04
468.52	348.48
468.88	346.33
469.25	344.51
469.62	343.05
469.98	341.42
470.35	339.95
470.72	338.62
471.08	336.82
471.45	335.59
471.82	334.35
472.18	332.95
472.55	332.03
472.92	330.74
473.28	329.62
473.65	328.52
474.02	327.46
474.38	326.54
474.75	325.75
475.11	324.84
475.48	324.13
475.85	323.54
476.21	322.84
476.58	322.39
476.94	321.90
477.31	321.46
477.67	320.99
478.04	320.60
478.41	320.34
478.77	320.70
479.14	320.37
479.50	320.23
479.87	320.20
480.23	320.09
480.60	320.05
480.96	320.03
481.33	320.45
481.69	320.67
482.06	320.87
482.42	321.07
482.79	321.39
483.15	321.78
483.52	322.39
483.88	322.79
484.25	323.32
484.61	324.04
484.98	324.59
485.34	325.58
485.71	326.50
486.07	327.44
486.44	327.98
486.80	329.08
487.17	330.16
487.53	331.53
487.90	332.92
488.26	334.55
488.62	336.31
488.99	337.74
489.35	339.46
489.72	341.30
490.08	343.30
490.44	345.29
490.81	347.49
491.17	349.61
491.54	352.12
491.90	354.64
492.26	357.33
492.63	360.24
492.99	363.02
493.36	366.17
493.72	369.46
494.08	372.84
494.45	376.58
494.81	380.47
495.17	384.36
495.54	388.53
495.90	392.70
496.26	397.06
496.63	401.73
496.99	406.68
497.35	411.85
497.72	417.20
498.08	422.70
498.44	428.44
498.80	434.71
499.17	440.81
499.53	447.06
499.89	453.68
500.26	460.41
500.62	467.47
500.98	474.76
501.34	482.14
501.71	490.06
502.07	497.86
502.43	506.03
502.79	514.55
503.16	523.26
503.52	532.20
503.88	541.39
504.24	551.11
504.60	561.00
504.97	571.15
505.33	581.59
505.69	592.51
506.05	603.46
506.41	614.58
506.78	626.42
507.14	638.50
507.50	650.66
507.86	663.25
508.22	676.21
508.59	689.29
508.95	702.99
509.31	716.98
509.67	731.22
510.03	745.54
510.39	760.13
510.75	775.17
511.12	790.53
511.48	806.33
511.84	822.07
512.20	837.98
512.56	854.22
512.92	871.13
513.28	888.12
513.64	905.73
514.00	923.19
514.37	940.80
514.73	959.15
515.09	977.56
515.45	996.03
515.81	1014.32
516.17	1033.04
516.53	1051.70
516.89	1070.57
517.25	1089.99
517.61	1109.93
517.97	1130.15
518.33	1150.49
518.69	1170.73
519.05	1191.21
519.41	1211.84
519.77	1233.04
520.13	1254.01
520.49	1274.49
520.85	1296.58
521.21	1317.50
521.57	1338.83
521.93	1359.59
522.29	1380.58
522.65	1401.10
523.01	1421.84
523.37	1442.81
523.73	1463.94
524.09	1484.64
524.45	1505.10
524.81	1525.83
525.17	1546.84
525.53	1567.70
525.89	1588.22
526.25	1608.92
526.61	1629.23
526.97	1650.45
527.33	1671.55
527.68	1693.45
528.04	1714.90
528.40	1734.71
528.76	1755.28
529.12	1775.69
529.48	1796.25
529.84	1816.23
530.20	1837.48
530.56	1858.25
530.91	1879.29
531.27	1899.46
531.63	1919.76
531.99	1940.44
532.35	1960.57
532.71	1980.31
533.07	2000.64
533.42	2020.31
533.78	2040.37
534.14	2060.20
534.50	2078.82
534.86	2097.91
535.21	2115.05
535.57	2133.29
535.93	2150.87
536.29	2169.03
536.65	2187.42
537.00	2205.20
537.36	2222.76
537.72	2239.29
538.08	2256.57
538.44	2272.97
538.79	2290.09
539.15	2306.71
539.51	2322.67
539.87	2337.90
540.22	2352.07
540.58	2366.34
540.94	2379.74
541.29	2392.30
541.65	2405.00
542.01	2417.66
542.37	2428.00
542.72	2439.08
543.08	2449.55
543.44	2461.25
543.79	2471.17
544.15	2480.69
544.51	2490.82
544.87	2500.68
545.22	2509.14
545.58	2516.93
545.94	2523.98
546.29	2529.95
546.65	2536.23
547.01	2541.94
547.36	2547.60
547.72	2553.36
548.07	2557.41
548.43	2562.95
548.79	2567.73
549.14	2571.59
549.50	2575.82
549.86	2580.02
550.21	2583.63
550.57	2587.17
550.92	2588.63
551.28	2590.32
551.64	2592.66
551.99	2594.28
552.35	2595.61
552.70	2597.84
553.06	2599.39
553.41	2600.79
553.77	2602.40
554.13	2604.17
554.48	2605.32
554.84	2606.64
555.19	2607.71
555.55	2609.27
555.90	2608.29
556.26	2607.47
556.61	2605.84
556.97	2603.40
557.32	2602.68
557.68	2601.74
558.03	2600.24
558.39	2599.12
558.74	2598.11
559.10	2594.82
559.45	2591.40
559.81	2586.91
560.16	2581.54
560.52	2576.85
560.87	2572.65
561.23	2567.27
561.58	2561.44
561.94	2554.65
562.29	2547.41
562.64	2540.69
563.00	2532.28
563.35	2525.82
563.71	2519.18
564.06	2513.46
564.42	2506.88
564.77	2499.78
565.12	2492.30
565.48	2484.49
565.83	2476.24
566.19	2467.94
566.54	2459.98
566.89	2452.01
567.25	2444.59
567.60	2437.53
567.96	2429.71
568.31	2421.56
568.66	2412.69
569.02	2403.41
569.37	2395.45
569.72	2387.23
570.08	2377.51
570.43	2368.24
570.78	2358.93
571.14	2349.23
571.49	2338.41
571.84	2328.84
572.20	2318.08
572.55	2307.85
572.90	2296.89
573.26	2286.55
573.61	2275.57
573.96	2264.50
574.31	2252.31
574.67	2240.39
575.02	2227.97
575.37	2215.38
575.72	2201.90
576.08	2190.23
576.43	2177.69
576.78	2164.43
577.13	2151.11
577.49	2138.65
577.84	2126.73
578.19	2115.01
578.54	2102.63
578.90	2091.18
579.25	2078.67
579.60	2066.14
579.95	2053.30
580.30	2040.49
580.66	2027.09
581.01	2013.75
581.36	1999.78
581.71	1987.26
582.06	1974.16
582.42	1961.32
582.77	1948.53
583.12	1936.77
583.47	1924.38
583.82	1912.65
584.17	1900.74
584.53	1888.83
584.88	1876.15
585.23	1863.02
585.58	1848.64
585.93	1835.43
586.28	1821.88
586.63	1808.24
586.98	1794.38
587.34	1781.03
587.69	1767.45
588.04	1754.87
588.39	1742.72
588.74	1730.67
589.09	1718.53
589.44	1705.98
589.79	1693.88
590.14	1682.24
590.49	1670.20
590.84	1658.33
591.19	1646.30
591.54	1634.01
591.89	1621.91
592.25	1611.52
592.60	1600.04
592.95	1589.00
593.30	1576.90
593.65	1565.06
594.00	1552.90
594.35	1543.05
594.70	1531.34
595.05	1520.25
595.40	1508.09
595.75	1496.17
596.10	1484.82
596.45	1473.33
596.80	1462.46
597.15	1451.29
597.50	1439.40
597.85	1428.15
598.19	1416.26
598.54	1404.39
598.89	1393.16
599.24	1382.65
599.59	1370.95
599.94	1360.20
600.29	1349.62
600.64	1339.68
600.99	1328.87
601.34	1319.51
601.69	1308.27
602.04	1298.49
602.39	1288.74
602.74	1279.86
603.08	1270.25
603.43	1261.05
603.78	1251.39
604.13	1241.77
604.48	1232.14
604.83	1222.45
605.18	1212.37
605.53	1202.90
605.87	1193.79
606.22	1185.40
606.57	1175.97
606.92	1166.36
607.27	1157.50
607.62	1148.70
607.96	1139.91
608.31	1131.90
608.66	1123.51
609.01	1115.02
609.36	1106.49
609.70	1098.05
610.05	1089.23
610.40	1081.07
610.75	1072.43
611.10	1064.11
611.44	1055.36
611.79	1047.00
612.14	1039.09
612.49	1031.37
612.83	1023.92
613.18	1016.10
613.53	1008.13
613.88	1000.31
614.22	992.84
614.57	984.98
614.92	977.09
615.27	969.70
615.61	962.01
615.96	954.22
616.31	946.78
616.65	939.77
617.00	932.45
617.35	925.43
617.70	918.00
618.04	910.93
618.39	903.98
618.74	897.74
619.08	890.93
619.43	883.91
619.78	876.82
620.12	869.76
620.47	862.94
620.82	855.88
621.16	849.13
621.51	842.77
621.85	836.42
622.20	829.73
622.55	823.06
622.89	816.68
623.24	810.46
623.59	803.92
623.93	797.49
624.28	791.26
624.62	785.37
624.97	779.70
625.32	773.85
625.66	767.80
626.01	761.74
626.35	756.05
626.70	750.61
627.04	745.27
627.39	739.61
627.73	734.32
628.08	729.17
628.43	723.75
628.77	718.33
629.12	712.99
629.46	708.30
629.81	703.57
630.15	698.77
630.50	693.87
630.84	689.01
631.19	684.22
631.53	679.81
631.88	674.62
632.22	669.63
632.57	665.13
632.91	660.60
633.26	656.12
633.60	651.60
633.95	646.90
634.29	642.23
634.64	637.90
634.98	633.13
635.32	628.71
635.67	624.77
636.01	620.52
636.36	616.23
636.70	612.09
637.05	607.77
637.39	603.63
637.73	599.52
638.08	595.49
638.42	591.31
638.77	586.75
639.11	582.51
639.45	578.13
639.80	573.82
640.14	569.70
640.49	565.73
640.83	561.87
641.17	558.24
641.52	554.55
641.86	550.97
642.20	547.92
642.55	544.27
642.89	540.55
643.23	536.98
643.58	533.69
643.92	530.09
644.26	526.72
644.61	523.47
644.95	520.00
645.29	516.69
645.64	513.57
645.98	510.56
646.32	507.78
646.66	504.90
647.01	501.85
647.35	499.16
647.69	496.24
648.04	493.44
648.38	490.71
648.72	487.83
649.06	484.81
649.41	481.51
649.75	478.55
650.09	475.75
650.43	472.89
650.78	469.95
651.12	467.13
651.46	464.38
651.80	461.65
652.14	459.05
652.49	456.65
652.83	453.97
653.17	451.49
653.51	448.63
653.85	446.27
654.20	443.78
654.54	441.10
654.88	438.52
655.22	436.20
655.56	433.65
655.90	431.40
656.25	429.09
656.59	426.97
656.93	424.82
657.27	422.92
657.61	420.52
657.95	418.37
658.29	416.09
658.64	413.87
658.98	411.58
659.32	409.30
659.66	407.10
660.00	404.98
660.34	402.92
660.68	400.97
661.02	398.88
661.36	396.97
661.70	395.05
662.05	393.14
662.39	391.26
662.73	389.46
663.07	387.80
663.41	385.91
663.75	384.01
664.09	382.20
664.43	379.98
664.77	378.38
665.11	376.52
665.45	374.84
665.79	373.21
666.13	371.64
666.47	369.98
666.81	368.28
667.15	366.58
667.49	365.02
667.83	363.65
668.17	362.09
668.51	360.65
668.85	359.31
669.19	358.09
669.53	356.50
669.87	354.99
670.21	353.31
670.55	351.98
670.89	350.81
671.23	349.48
671.57	348.07
671.91	346.64
672.25	345.47
672.58	344.38
672.92	342.97
673.26	341.66
673.60	340.55
673.94	339.37
674.28	338.33
674.62	337.18
674.96	335.83
675.30	334.73
675.64	333.53
675.97	332.29
676.31	330.90
676.65	329.70
676.99	328.68
677.33	327.65
677.67	326.59
678.01	325.30
678.34	324.21
678.68	323.35
679.02	322.38
679.36	321.31
679.70	320.14
680.04	319.25
680.37	318.25
680.71	317.21
681.05	316.24
681.39	315.36
681.73	314.28
682.06	313.39
682.40	312.50
682.74	311.60
683.08	310.81
683.42	309.92
683.75	309.12
684.09	308.16
684.43	307.30
684.77	306.40
685.10	305.61
685.44	304.82
685.78	303.99
686.12	303.12
686.45	302.28
686.79	301.59
687.13	300.94
687.46	300.14
687.80	299.49
688.14	298.70
688.48	297.93
688.81	297.26
689.15	296.64
689.49	295.95
689.82	295.25
690.16	294.46
690.50	293.84
690.83	293.06
691.17	292.24
691.51	291.58
691.84	290.97
692.18	290.30
692.52	289.57
692.85	288.97
693.19	288.49
693.52	287.96
693.86	287.25
694.20	286.48
694.53	285.96
694.87	285.26
695.21	284.59
695.54	283.86
695.88	283.20
696.21	282.47
696.55	281.84
696.88	281.20
697.22	280.56
697.56	279.91
697.89	279.38
698.23	278.95
698.56	278.40
698.90	277.87
699.23	277.28
699.57	276.79
699.90	276.17
700.24	275.58
700.58	275.10
700.91	274.70
701.25	274.63
701.58	274.53
701.92	274.20
702.25	273.74
702.59	273.25
702.92	272.90
703.26	272.46
703.59	271.95
703.93	271.99
704.26	271.60
704.60	271.29
704.93	270.83
705.26	270.34
705.60	269.90
705.93	269.41
706.27	269.17
706.60	268.94
706.94	268.77
707.27	268.34
707.61	267.93
707.94	267.54
708.27	266.79
708.61	265.95
708.94	265.43
709.28	265.13
709.61	264.81
709.94	264.30
710.28	263.95
710.61	263.60
710.95	262.73
711.28	262.72
711.61	262.33
711.95	262.18
712.28	261.86
712.61	261.66
712.95	261.64
713.28	261.39
713.61	260.89
713.95	260.41
714.28	260.13
714.61	259.74
714.95	259.40
715.28	259.08
715.61	258.77
715.95	258.60
716.28	258.18
716.61	257.90
716.95	257.62
717.28	257.31
717.61	257.02
717.94	256.85
718.28	256.16
718.61	255.86
718.94	255.44
719.27	255.17
719.61	254.81
719.94	254.37
720.27	254.01
720.60	253.77
720.94	253.51
721.27	253.28
721.60	253.17
721.93	252.93
722.27	252.78
722.60	252.65
722.93	252.32
723.26	252.21
723.59	251.95
723.93	251.83
724.26	251.70
724.59	251.41
724.92	251.20
725.25	251.11
725.59	250.92
725.92	250.81
726.25	250.60
726.58	250.44
726.91	250.28
727.24	250.06
727.57	249.84
727.91	249.56
728.24	249.48
728.57	249.22
728.90	249.11
729.23	248.76
729.56	248.76
729.89	248.61
730.22	248.30
730.55	248.19
730.89	248.02
731.22	247.74
731.55	247.63
731.88	247.41
732.21	247.18
732.54	246.94
732.87	246.83
733.20	246.68
733.53	246.54
733.86	246.35
734.19	246.14
734.52	246.08
734.85	246.25
735.18	246.01
735.51	245.99
735.84	245.87
736.17	245.89
736.50	245.49
736.83	245.86
737.16	245.83
737.49	245.69
737.82	245.39
738.15	245.38
738.48	245.27
738.81	245.17
739.14	244.98
739.47	244.83
739.80	244.55
740.13	244.39
740.46	244.16
740.79	243.96
741.12	243.85
741.45	243.61
741.78	243.23
742.11	243.25
742.44	242.94
742.77	242.79
743.10	242.53
743.43	242.31
743.75	241.66
744.08	242.18
744.41	241.96
744.74	241.82
745.07	241.54
745.40	241.44
745.73	241.43
746.06	241.36
746.39	241.28
746.71	241.14
747.04	240.90
747.37	240.75
747.70	240.70
748.03	240.56
748.36	240.51
748.68	240.47
749.01	240.20
749.34	240.13
749.67	239.97
750.00	239.96
750.33	240.26
750.65	240.28
750.98	239.46
751.31	239.37
751.64	239.43
751.97	239.59
752.29	239.45
752.62	239.14
752.95	239.00
753.28	238.81
753.60	238.69
753.93	238.78
754.26	238.72
754.59	238.51
754.91	238.31
755.24	238.15
755.57	237.96
755.90	237.78
756.22	237.55
756.55	237.39
756.88	237.18
757.20	236.76
757.53	236.44
757.86	236.40
758.19	236.29
758.51	236.06
758.84	235.73
759.17	235.66
759.49	235.59
759.82	235.75
760.15	235.71
760.47	235.58
760.80	235.35
761.13	235.31
761.45	235.17
761.78	235.07
762.11	235.07
762.43	234.88
762.76	234.81
763.08	234.79
763.41	234.79
763.74	234.71
764.06	234.62
764.39	234.57
764.71	234.47
765.04	234.34
765.37	234.22
765.69	234.13
766.02	233.98
766.34	233.88
766.67	233.59
767.00	233.70
767.32	234.00
767.65	234.26
767.97	234.16
768.30	234.15
768.62	234.11
768.95	233.98
769.27	233.91
769.60	233.96
769.92	233.85
770.25	233.67
770.57	233.56
770.90	233.45
771.22	233.35
771.55	233.26
771.87	233.27
772.20	233.20
772.52	233.59
772.85	234.09
773.17	234.05
773.50	233.91
773.82	233.66
774.15	233.30
774.47	232.91
774.80	232.80
775.12	232.72
775.45	232.66
775.77	232.63
776.09	232.63
776.42	232.53
776.74	232.66
777.07	232.63
777.39	232.52
777.72	232.50
778.04	232.54
778.36	232.47
778.69	232.43
779.01	232.40
779.33	232.00
779.66	231.39
779.98	231.35
780.31	231.36
780.63	231.56
780.95	231.58
781.28	231.56
781.60	231.48
781.92	231.46
782.25	231.47
782.57	231.45
782.89	231.40
783.22	231.30
783.54	231.12
783.86	231.06
784.19	231.09
784.51	231.13
784.83	230.96
785.16	230.95
785.48	230.84
785.80	230.85
786.12	230.75
786.45	230.69
786.77	230.69
787.09	230.64
787.42	230.41
787.74	230.34
788.06	230.38
788.38	230.32
788.71	230.25
789.03	230.18
789.35	230.18
789.67	230.16
789.99	230.18
790.32	230.19
790.64	230.30
790.96	230.71
791.28	230.55
791.61	230.58
791.93	230.58
792.25	230.61
792.57	230.98
792.89	230.87
793.21	230.88
793.54	230.79
793.86	230.75
794.18	230.75
794.50	230.70
794.82	230.63
795.14	230.74
795.47	230.85
795.79	230.90
796.11	230.75
796.43	230.71
796.75	230.70
797.07	230.61
797.39	230.48
797.71	230.08
798.04	230.18
798.36	230.13
798.68	230.08
799.00	230.10
799.32	229.78
799.64	229.91
799.96	229.92
800.28	230.01
800.60	229.93
800.92	229.95
801.24	229.93
801.56	229.99
801.89	229.83
802.21	229.79
802.53	229.67
802.85	229.77
803.17	229.93
803.49	229.88
803.81	229.80
804.13	229.79
804.45	229.71
804.77	229.61
805.09	229.62
805.41	229.57
805.73	229.45
806.05	229.35
806.37	229.30
806.69	229.23
807.01	229.15
807.33	229.17
807.65	229.00
807.97	229.21
808.28	229.13
808.60	229.14
808.92	229.07
809.24	229.39
809.56	229.25
809.88	229.08
810.20	229.01
810.52	229.15
810.84	229.06
811.16	228.97
811.48	228.99
811.80	229.15
812.12	229.09
812.43	229.16
812.75	229.16
813.07	229.09
813.39	229.10
813.71	229.04
814.03	229.05
814.35	229.07
814.67	228.83
814.98	228.76
815.30	228.82
815.62	228.69
815.94	228.32
816.26	228.58
816.58	228.49
816.89	228.51
817.21	228.31
817.53	228.31
817.85	228.36
