SpectraSuite Data File
++++++++++++++++++++++++++++++++++++
Date: Wed Sep 04 17:55:28 EDT 2013
User: lab3
Dark Spectrum Present: Yes
Reference Spectrum Present: No
Number of Sampled Component Spectra: 1
Spectrometers: USB2E7196
Integration Time (usec): 170000 (USB2E7196)
Spectra Averaged: 20 (USB2E7196)
Boxcar Smoothing: 10 (USB2E7196)
Correct for Electrical Dark: No (USB2E7196)
Strobe/Lamp Enabled: No (USB2E7196)
Correct for Detector Non-linearity: No (USB2E7196)
Correct for Stray Light: No (USB2E7196)
Number of Pixels in Processed Spectrum: 2048
>>>>>Begin Processed Spectral Data<<<<<
339.09	0.00
339.48	213.30
339.86	215.65
340.24	216.10
340.63	217.85
341.01	226.55
341.39	219.15
341.78	222.95
342.16	224.75
342.54	222.90
342.93	212.55
343.31	223.26
343.69	223.78
344.07	224.23
344.46	224.76
344.84	225.12
345.22	225.05
345.60	225.36
345.99	225.56
346.37	225.61
346.75	225.72
347.13	225.69
347.52	225.81
347.90	226.03
348.28	226.10
348.66	226.18
349.05	226.12
349.43	226.22
349.81	226.27
350.19	226.32
350.57	226.35
350.96	226.49
351.34	226.62
351.72	226.68
352.10	226.70
352.48	226.66
352.87	226.71
353.25	226.74
353.63	226.70
354.01	226.69
354.39	226.78
354.77	226.85
355.15	227.10
355.54	227.04
355.92	226.97
356.30	227.09
356.68	227.41
357.06	227.46
357.44	227.49
357.82	227.55
358.20	227.95
358.58	228.01
358.97	228.10
359.35	228.20
359.73	228.39
360.11	228.52
360.49	228.63
360.87	228.73
361.25	228.88
361.63	229.17
362.01	229.25
362.39	229.26
362.77	229.37
363.15	229.36
363.53	229.48
363.91	229.51
364.29	229.54
364.67	229.20
365.05	229.20
365.43	229.27
365.81	229.30
366.19	229.22
366.57	229.45
366.95	229.44
367.33	229.37
367.71	229.40
368.09	229.50
368.47	229.54
368.85	229.51
369.23	229.57
369.61	229.35
369.99	229.55
370.37	229.60
370.75	229.80
371.13	229.75
371.51	229.69
371.89	229.78
372.27	229.77
372.65	229.76
373.03	229.69
373.41	229.64
373.78	229.60
374.16	229.29
374.54	229.12
374.92	229.08
375.30	229.04
375.68	228.87
376.06	228.78
376.44	228.60
376.82	228.54
377.19	228.48
377.57	228.49
377.95	228.26
378.33	228.13
378.71	227.75
379.09	227.69
379.47	227.65
379.84	227.46
380.22	227.32
380.60	227.22
380.98	227.20
381.36	227.19
381.73	227.14
382.11	227.20
382.49	227.18
382.87	226.98
383.25	226.99
383.62	227.47
384.00	227.35
384.38	227.29
384.76	227.43
385.13	227.57
385.51	227.56
385.89	227.43
386.27	227.48
386.64	227.55
387.02	227.44
387.40	227.38
387.78	227.40
388.15	227.41
388.53	227.37
388.91	227.31
389.29	227.17
389.66	227.09
390.04	226.94
390.42	226.91
390.79	226.98
391.17	226.90
391.55	226.37
391.92	226.34
392.30	226.48
392.68	226.37
393.05	226.31
393.43	226.27
393.81	226.30
394.18	226.24
394.56	226.24
394.94	226.45
395.31	226.41
395.69	226.62
396.06	226.70
396.44	226.76
396.82	226.82
397.19	227.13
397.57	227.20
397.95	227.43
398.32	227.40
398.70	227.51
399.07	227.66
399.45	227.71
399.82	227.84
400.20	227.82
400.58	227.83
400.95	227.74
401.33	227.90
401.70	228.33
402.08	228.44
402.45	228.63
402.83	228.81
403.20	229.00
403.58	229.03
403.95	229.28
404.33	229.51
404.71	229.71
405.08	230.13
405.46	230.40
405.83	230.64
406.21	230.90
406.58	231.13
406.96	231.34
407.33	231.76
407.70	232.19
408.08	232.96
408.45	233.46
408.83	233.91
409.20	234.29
409.58	234.44
409.95	235.05
410.33	235.55
410.70	235.87
411.08	236.55
411.45	237.21
411.82	237.75
412.20	238.50
412.57	239.52
412.95	239.82
413.32	240.65
413.69	241.41
414.07	242.31
414.44	243.26
414.82	244.40
415.19	245.50
415.56	246.58
415.94	247.60
416.31	249.08
416.68	250.55
417.06	252.25
417.43	253.93
417.81	255.67
418.18	257.43
418.55	259.49
418.93	261.42
419.30	263.45
419.67	265.61
420.04	267.91
420.42	270.20
420.79	273.33
421.16	276.12
421.54	279.17
421.91	282.21
422.28	285.40
422.66	288.63
423.03	292.10
423.40	295.49
423.77	298.99
424.15	302.46
424.52	306.30
424.89	310.42
425.26	314.30
425.64	318.05
426.01	322.27
426.38	326.58
426.75	331.10
427.13	335.69
427.50	340.55
427.87	345.40
428.24	350.36
428.61	354.85
428.99	360.16
429.36	365.57
429.73	371.06
430.10	376.44
430.47	382.15
430.85	387.81
431.22	394.01
431.59	400.80
431.96	407.11
432.33	414.00
432.70	420.57
433.08	428.69
433.45	436.15
433.82	443.55
434.19	451.75
434.56	459.72
434.93	467.42
435.30	475.03
435.68	483.70
436.05	492.03
436.42	500.36
436.79	507.97
437.16	516.35
437.53	525.01
437.90	533.74
438.27	542.31
438.64	551.18
439.01	559.50
439.38	566.79
439.75	573.90
440.13	581.88
440.50	589.64
440.87	595.51
441.24	601.84
441.61	608.75
441.98	613.90
442.35	619.91
442.72	625.97
443.09	631.89
443.46	635.32
443.83	637.64
444.20	639.75
444.57	642.47
444.94	643.48
445.31	644.71
445.68	646.15
446.05	646.31
446.42	645.06
446.79	643.67
447.16	641.88
447.53	640.60
447.90	636.99
448.27	633.07
448.64	628.18
449.01	624.59
449.37	618.44
449.74	612.32
450.11	605.32
450.48	597.43
450.85	589.39
451.22	582.35
451.59	575.86
451.96	569.46
452.33	561.41
452.70	554.21
453.07	545.55
453.43	536.49
453.80	527.93
454.17	519.88
454.54	512.23
454.91	504.13
455.28	496.21
455.65	488.69
456.02	481.94
456.38	475.65
456.75	467.70
457.12	461.15
457.49	454.89
457.86	448.56
458.23	443.51
458.59	437.84
458.96	432.15
459.33	426.93
459.70	421.74
460.07	417.55
460.43	412.87
460.80	408.54
461.17	404.77
461.54	400.96
461.91	397.11
462.27	393.08
462.64	389.80
463.01	386.20
463.38	382.88
463.74	378.85
464.11	375.87
464.48	373.32
464.85	370.52
465.21	368.37
465.58	366.13
465.95	363.30
466.32	361.15
466.68	358.87
467.05	356.67
467.42	354.57
467.78	352.27
468.15	350.05
468.52	348.45
468.88	346.18
469.25	344.25
469.62	342.80
469.98	341.21
470.35	339.70
470.72	338.20
471.08	336.46
471.45	335.28
471.82	333.99
472.18	332.49
472.55	331.47
472.92	330.15
473.28	329.05
473.65	327.92
474.02	326.74
474.38	325.98
474.75	325.21
475.11	324.35
475.48	323.70
475.85	323.03
476.21	322.43
476.58	322.02
476.94	321.56
477.31	321.03
477.67	320.61
478.04	320.22
478.41	320.00
478.77	320.32
479.14	319.92
479.50	319.66
479.87	319.76
480.23	319.75
480.60	319.68
480.96	319.69
481.33	320.06
481.69	320.25
482.06	320.33
482.42	320.54
482.79	320.86
483.15	321.43
483.52	322.09
483.88	322.51
484.25	323.05
484.61	323.76
484.98	324.43
485.34	325.40
485.71	326.38
486.07	327.35
486.44	327.97
486.80	329.12
487.17	330.39
487.53	331.78
487.90	333.11
488.26	334.80
488.62	336.42
488.99	337.90
489.35	339.73
489.72	341.66
490.08	343.73
490.44	345.75
490.81	347.88
491.17	350.05
491.54	352.54
491.90	355.13
492.26	357.81
492.63	360.74
492.99	363.50
493.36	366.63
493.72	370.00
494.08	373.54
494.45	377.17
494.81	381.06
495.17	384.93
495.54	389.18
495.90	393.40
496.26	397.85
496.63	402.55
496.99	407.34
497.35	412.45
497.72	417.61
498.08	423.06
498.44	428.76
498.80	434.84
499.17	440.87
499.53	447.06
499.89	453.73
500.26	460.36
500.62	467.36
500.98	474.80
501.34	482.23
501.71	489.92
502.07	497.73
502.43	505.83
502.79	514.26
503.16	522.90
503.52	531.90
503.88	541.26
504.24	550.85
504.60	560.82
504.97	571.14
505.33	581.65
505.69	592.80
506.05	603.77
506.41	615.01
506.78	626.69
507.14	638.72
507.50	650.88
507.86	663.55
508.22	676.49
508.59	689.43
508.95	703.03
509.31	716.93
509.67	731.28
510.03	745.67
510.39	760.45
510.75	775.45
511.12	790.50
511.48	806.10
511.84	821.93
512.20	837.80
512.56	853.91
512.92	870.63
513.28	887.34
513.64	904.54
514.00	922.12
514.37	939.99
514.73	958.09
515.09	976.40
515.45	994.74
515.81	1013.06
516.17	1031.80
516.53	1050.50
516.89	1069.43
517.25	1088.85
517.61	1108.88
517.97	1129.07
518.33	1149.34
518.69	1170.05
519.05	1190.38
519.41	1211.09
519.77	1232.32
520.13	1253.08
520.49	1273.77
520.85	1296.20
521.21	1317.38
521.57	1338.76
521.93	1359.45
522.29	1380.70
522.65	1401.10
523.01	1422.04
523.37	1442.79
523.73	1463.78
524.09	1484.29
524.45	1504.72
524.81	1525.80
525.17	1546.50
525.53	1567.01
525.89	1587.60
526.25	1608.17
526.61	1628.64
526.97	1649.56
527.33	1670.61
527.68	1692.26
528.04	1713.86
528.40	1733.34
528.76	1754.33
529.12	1774.47
529.48	1795.50
529.84	1815.55
530.20	1837.05
530.56	1857.68
530.91	1878.90
531.27	1899.34
531.63	1920.19
531.99	1940.96
532.35	1960.55
532.71	1980.86
533.07	2001.38
533.42	2021.05
533.78	2041.24
534.14	2061.06
534.50	2080.03
534.86	2099.49
535.21	2117.19
535.57	2135.35
535.93	2153.01
536.29	2170.85
536.65	2189.33
537.00	2207.14
537.36	2224.45
537.72	2240.59
538.08	2257.87
538.44	2274.43
538.79	2290.80
539.15	2307.08
539.51	2323.06
539.87	2338.60
540.22	2352.35
540.58	2366.74
540.94	2380.25
541.29	2392.56
541.65	2405.38
542.01	2417.83
542.37	2427.94
542.72	2439.03
543.08	2449.75
543.44	2461.68
543.79	2471.66
544.15	2480.99
544.51	2490.87
544.87	2500.80
545.22	2509.84
545.58	2517.80
545.94	2524.84
546.29	2531.51
546.65	2537.88
547.01	2543.60
547.36	2549.20
547.72	2554.83
548.07	2558.74
548.43	2564.01
548.79	2568.80
549.14	2572.61
549.50	2576.54
549.86	2580.75
550.21	2584.66
550.57	2587.83
550.92	2589.24
551.28	2590.65
551.64	2593.20
551.99	2595.15
552.35	2596.60
552.70	2598.75
553.06	2600.25
553.41	2601.60
553.77	2603.05
554.13	2604.41
554.48	2605.85
554.84	2606.72
555.19	2608.12
555.55	2610.28
555.90	2609.39
556.26	2608.38
556.61	2606.90
556.97	2604.73
557.32	2604.18
557.68	2602.91
558.03	2601.49
558.39	2600.00
558.74	2599.27
559.10	2595.90
559.45	2591.71
559.81	2587.24
560.16	2581.80
560.52	2576.73
560.87	2572.26
561.23	2566.90
561.58	2561.05
561.94	2553.98
562.29	2546.81
562.64	2539.46
563.00	2530.95
563.35	2524.63
563.71	2518.10
564.06	2511.85
564.42	2505.43
564.77	2498.35
565.12	2490.77
565.48	2483.14
565.83	2475.16
566.19	2467.03
566.54	2459.57
566.89	2451.95
567.25	2444.36
567.60	2437.58
567.96	2430.19
568.31	2422.41
568.66	2414.02
569.02	2404.92
569.37	2397.00
569.72	2389.58
570.08	2380.39
570.43	2370.72
570.78	2361.63
571.14	2352.26
571.49	2342.16
571.84	2332.44
572.20	2321.57
572.55	2311.62
572.90	2300.65
573.26	2289.83
573.61	2278.65
573.96	2267.22
574.31	2255.08
574.67	2243.16
575.02	2230.17
575.37	2217.31
575.72	2204.02
576.08	2192.02
576.43	2179.63
576.78	2166.43
577.13	2152.50
577.49	2139.85
577.84	2127.97
578.19	2115.88
578.54	2103.29
578.90	2091.03
579.25	2078.84
579.60	2066.31
579.95	2053.15
580.30	2040.14
580.66	2027.14
581.01	2013.65
581.36	1999.72
581.71	1987.00
582.06	1974.42
582.42	1961.96
582.77	1949.47
583.12	1937.44
583.47	1925.00
583.82	1913.11
584.17	1901.35
584.53	1889.74
584.88	1876.86
585.23	1863.85
585.58	1849.53
585.93	1836.30
586.28	1823.05
586.63	1809.10
586.98	1794.79
587.34	1781.58
587.69	1768.28
588.04	1755.83
588.39	1744.06
588.74	1731.97
589.09	1719.98
589.44	1706.95
589.79	1694.62
590.14	1682.78
590.49	1670.51
590.84	1658.45
591.19	1646.48
591.54	1633.98
591.89	1621.86
592.25	1611.81
592.60	1600.37
592.95	1589.22
593.30	1577.06
593.65	1565.34
594.00	1553.44
594.35	1543.85
594.70	1531.94
595.05	1520.45
595.40	1508.28
595.75	1496.05
596.10	1484.80
596.45	1473.24
596.80	1462.53
597.15	1451.10
597.50	1439.47
597.85	1428.34
598.19	1416.58
598.54	1404.87
598.89	1393.73
599.24	1382.92
599.59	1371.07
599.94	1360.15
600.29	1349.78
600.64	1339.75
600.99	1329.22
601.34	1319.52
601.69	1308.38
602.04	1298.66
602.39	1289.22
602.74	1280.19
603.08	1270.92
603.43	1261.51
603.78	1251.85
604.13	1242.23
604.48	1232.72
604.83	1222.92
605.18	1212.89
605.53	1203.60
605.87	1194.39
606.22	1185.67
606.57	1176.43
606.92	1167.07
607.27	1158.08
607.62	1149.24
607.96	1140.42
608.31	1132.31
608.66	1123.82
609.01	1115.28
609.36	1106.56
609.70	1097.86
610.05	1089.06
610.40	1080.36
610.75	1071.72
611.10	1063.37
611.44	1054.68
611.79	1046.45
612.14	1038.60
612.49	1030.94
612.83	1023.35
613.18	1015.64
613.53	1008.02
613.88	1000.30
614.22	992.62
614.57	984.73
614.92	976.84
615.27	969.47
615.61	961.65
615.96	954.07
616.31	946.49
616.65	939.77
617.00	932.41
617.35	924.96
617.70	918.01
618.04	910.72
618.39	903.83
618.74	897.63
619.08	890.71
619.43	883.66
619.78	876.66
620.12	869.28
620.47	862.30
620.82	855.05
621.16	848.10
621.51	841.78
621.85	835.50
622.20	828.95
622.55	822.24
622.89	815.86
623.24	809.56
623.59	803.09
623.93	796.55
624.28	790.48
624.62	785.15
624.97	779.20
625.32	773.63
625.66	767.50
626.01	761.25
626.35	755.83
626.70	750.09
627.04	744.74
627.39	739.39
627.73	734.13
628.08	729.00
628.43	723.62
628.77	718.08
629.12	712.80
629.46	707.90
629.81	703.25
630.15	698.37
630.50	693.50
630.84	688.81
631.19	684.09
631.53	679.50
631.88	674.19
632.22	669.30
632.57	664.79
632.91	660.19
633.26	655.85
633.60	651.10
633.95	646.76
634.29	642.11
634.64	637.61
634.98	632.76
635.32	628.45
635.67	624.43
636.01	620.30
636.36	616.00
636.70	611.95
637.05	607.74
637.39	603.65
637.73	599.57
638.08	595.55
638.42	591.25
638.77	586.96
639.11	582.59
639.45	578.37
639.80	573.99
640.14	570.03
640.49	565.85
640.83	562.01
641.17	558.35
641.52	554.42
641.86	550.79
642.20	547.81
642.55	544.01
642.89	540.31
643.23	536.68
643.58	533.53
643.92	529.92
644.26	526.57
644.61	523.30
644.95	519.97
645.29	516.58
645.64	513.45
645.98	510.50
646.32	507.72
646.66	504.56
647.01	501.65
647.35	498.86
647.69	495.90
648.04	493.15
648.38	490.22
648.72	487.45
649.06	484.55
649.41	481.40
649.75	478.54
650.09	475.73
650.43	472.84
650.78	469.86
651.12	466.94
651.46	464.06
651.80	461.35
652.14	458.63
652.49	456.18
652.83	453.54
653.17	450.76
653.51	448.03
653.85	445.79
654.20	443.45
654.54	440.82
654.88	438.39
655.22	436.15
655.56	433.73
655.90	431.45
656.25	429.15
656.59	427.00
656.93	424.85
657.27	422.75
657.61	420.46
657.95	418.27
658.29	416.16
658.64	414.16
658.98	411.91
659.32	409.70
659.66	407.37
660.00	405.36
660.34	403.25
660.68	401.27
661.02	399.07
661.36	396.96
661.70	394.90
662.05	392.92
662.39	390.90
662.73	389.15
663.07	387.46
663.41	385.63
663.75	383.67
664.09	381.83
664.43	379.85
664.77	378.17
665.11	376.26
665.45	374.62
665.79	372.93
666.13	371.28
666.47	369.60
666.81	368.01
667.15	366.25
667.49	364.80
667.83	363.56
668.17	362.09
668.51	360.63
668.85	359.42
669.19	358.24
669.53	356.76
669.87	355.08
670.21	353.50
670.55	352.09
670.89	350.89
671.23	349.49
671.57	348.12
671.91	346.81
672.25	345.54
672.58	344.29
672.92	342.69
673.26	341.39
673.60	340.14
673.94	338.99
674.28	337.92
674.62	336.78
674.96	335.36
675.30	334.18
675.64	332.90
675.97	331.61
676.31	330.21
676.65	328.95
676.99	328.01
677.33	326.90
677.67	325.80
678.01	324.46
678.34	323.42
678.68	322.43
679.02	321.34
679.36	320.38
679.70	319.32
680.04	318.45
680.37	317.48
680.71	316.49
681.05	315.61
681.39	314.68
681.73	313.62
682.06	312.75
682.40	311.85
682.74	311.08
683.08	310.45
683.42	309.62
683.75	308.85
684.09	307.92
684.43	306.99
684.77	306.16
685.10	305.47
685.44	304.64
685.78	303.87
686.12	303.11
686.45	302.21
686.79	301.42
687.13	300.80
687.46	300.09
687.80	299.53
688.14	298.65
688.48	297.94
688.81	297.30
689.15	296.63
689.49	295.89
689.82	295.17
690.16	294.21
690.50	293.52
690.83	292.86
691.17	292.08
691.51	291.48
691.84	290.88
692.18	290.10
692.52	289.39
692.85	288.80
693.19	288.39
693.52	287.83
693.86	287.23
694.20	286.58
694.53	285.93
694.87	285.15
695.21	284.51
695.54	283.94
695.88	283.29
696.21	282.59
696.55	282.07
696.88	281.50
697.22	280.87
697.56	280.25
697.89	279.51
698.23	279.07
698.56	278.52
698.90	278.05
699.23	277.53
699.57	277.08
699.90	276.45
700.24	275.75
700.58	275.30
700.91	274.84
701.25	274.66
701.58	274.48
701.92	274.23
702.25	273.97
702.59	273.42
702.92	273.14
703.26	272.68
703.59	272.23
703.93	272.28
704.26	272.04
704.60	271.74
704.93	271.47
705.26	270.94
705.60	270.55
705.93	269.98
706.27	269.70
706.60	269.44
706.94	269.29
707.27	268.90
707.61	268.54
707.94	268.20
708.27	267.51
708.61	266.87
708.94	266.39
709.28	265.95
709.61	265.55
709.94	265.02
710.28	264.63
710.61	264.27
710.95	263.40
711.28	263.32
711.61	262.85
711.95	262.54
712.28	262.25
712.61	261.87
712.95	261.82
713.28	261.66
713.61	261.22
713.95	260.75
714.28	260.44
714.61	260.02
714.95	259.56
715.28	259.15
715.61	258.70
715.95	258.41
716.28	258.00
716.61	257.76
716.95	257.36
717.28	257.07
717.61	256.73
717.94	256.39
718.28	255.65
718.61	255.35
718.94	254.97
719.27	254.63
719.61	254.41
719.94	253.92
720.27	253.41
720.60	253.02
720.94	252.70
721.27	252.50
721.60	252.39
721.93	252.12
722.27	252.06
722.60	252.02
722.93	251.71
723.26	251.51
723.59	251.25
723.93	251.13
724.26	250.96
724.59	250.73
724.92	250.60
725.25	250.58
725.59	250.35
725.92	250.23
726.25	250.05
726.58	249.85
726.91	249.70
727.24	249.62
727.57	249.49
727.91	249.22
728.24	249.00
728.57	248.82
728.90	248.71
729.23	248.35
729.56	248.27
729.89	248.13
730.22	247.97
730.55	247.69
730.89	247.58
731.22	247.30
731.55	247.12
731.88	246.93
732.21	246.65
732.54	246.53
732.87	246.34
733.20	246.28
733.53	246.10
733.86	245.93
734.19	245.65
734.52	245.58
734.85	245.84
735.18	245.68
735.51	245.66
735.84	245.60
736.17	245.58
736.50	245.29
736.83	245.69
737.16	245.52
737.49	245.52
737.82	245.30
738.15	245.31
738.48	245.19
738.81	244.92
739.14	244.72
739.47	244.51
739.80	244.34
740.13	244.23
740.46	244.01
740.79	243.86
741.12	243.80
741.45	243.56
741.78	243.10
742.11	243.06
742.44	242.79
742.77	242.66
743.10	242.50
743.43	242.24
743.75	241.65
744.08	242.19
744.41	242.01
744.74	241.87
745.07	241.59
745.40	241.52
745.73	241.71
746.06	241.64
746.39	241.64
746.71	241.49
747.04	241.33
747.37	241.18
747.70	241.11
748.03	241.00
748.36	240.91
748.68	240.85
749.01	240.59
749.34	240.47
749.67	240.39
750.00	240.31
750.33	240.56
750.65	240.45
750.98	239.67
751.31	239.55
751.64	239.45
751.97	239.61
752.29	239.47
752.62	239.15
752.95	238.94
753.28	238.63
753.60	238.52
753.93	238.44
754.26	238.40
754.59	238.19
754.91	237.99
755.24	237.87
755.57	237.75
755.90	237.69
756.22	237.53
756.55	237.29
756.88	237.05
757.20	236.64
757.53	236.34
757.86	236.20
758.19	236.09
758.51	235.97
758.84	235.59
759.17	235.47
759.49	235.37
759.82	235.51
760.15	235.52
760.47	235.38
760.80	235.15
761.13	235.14
761.45	234.97
761.78	234.95
762.11	234.84
762.43	234.72
762.76	234.54
763.08	234.49
763.41	234.40
763.74	234.34
764.06	234.28
764.39	234.23
764.71	234.16
765.04	234.07
765.37	233.93
765.69	233.89
766.02	233.73
766.34	233.64
766.67	233.43
767.00	233.50
767.32	233.69
767.65	233.86
767.97	233.80
768.30	233.82
768.62	233.75
768.95	233.65
769.27	233.53
769.60	233.61
769.92	233.45
770.25	233.33
770.57	233.28
770.90	233.22
771.22	233.20
771.55	233.13
771.87	233.15
772.20	233.06
772.52	233.45
772.85	234.02
773.17	234.00
773.50	233.93
773.82	233.74
774.15	233.54
774.47	233.25
774.80	233.20
775.12	233.12
775.45	233.02
775.77	233.11
776.09	233.15
776.42	233.04
776.74	233.16
777.07	233.10
777.39	233.01
777.72	232.92
778.04	232.91
778.36	232.81
778.69	232.76
779.01	232.80
779.33	232.40
779.66	231.76
779.98	231.67
780.31	231.67
780.63	231.87
780.95	231.84
781.28	231.90
781.60	231.79
781.92	231.70
782.25	231.62
782.57	231.54
782.89	231.44
783.22	231.42
783.54	231.23
783.86	231.29
784.19	231.28
784.51	231.39
784.83	231.29
785.16	231.29
785.48	231.28
785.80	231.29
786.12	231.23
786.45	231.26
786.77	231.29
787.09	231.23
787.42	231.05
787.74	231.05
788.06	231.02
788.38	230.94
788.71	230.95
789.03	230.97
789.35	231.02
789.67	230.88
789.99	230.76
790.32	230.74
790.64	230.71
790.96	230.99
791.28	230.79
791.61	230.78
791.93	230.74
792.25	230.71
792.57	230.92
792.89	230.74
793.21	230.72
793.54	230.61
793.86	230.50
794.18	230.41
794.50	230.28
794.82	230.24
795.14	230.24
795.47	230.25
795.79	230.19
796.11	230.00
796.43	230.03
796.75	230.09
797.07	230.11
797.39	230.01
797.71	229.72
798.04	229.78
798.36	229.76
798.68	229.65
799.00	229.58
799.32	229.32
799.64	229.47
799.96	229.43
800.28	229.50
800.60	229.47
800.92	229.53
801.24	229.45
801.56	229.42
801.89	229.36
802.21	229.44
802.53	229.32
802.85	229.37
803.17	229.60
803.49	229.40
803.81	229.28
804.13	229.24
804.45	229.11
804.77	229.09
805.09	229.06
805.41	229.05
805.73	228.97
806.05	228.88
806.37	228.82
806.69	228.78
807.01	228.71
807.33	228.74
807.65	228.55
807.97	228.82
808.28	228.75
808.60	228.68
808.92	228.56
809.24	228.91
809.56	228.88
809.88	228.63
810.20	228.70
810.52	228.84
810.84	228.79
811.16	228.79
811.48	228.73
811.80	228.96
812.12	229.03
812.43	229.11
812.75	229.14
813.07	229.12
813.39	229.14
813.71	229.06
814.03	228.95
814.35	228.95
814.67	228.76
814.98	228.74
815.30	228.80
815.62	228.69
815.94	228.35
816.26	228.58
816.58	228.51
816.89	228.57
817.21	228.44
817.53	228.51
817.85	228.52
