SpectraSuite Data File
++++++++++++++++++++++++++++++++++++
Date: Wed Sep 04 17:46:43 EDT 2013
User: lab3
Dark Spectrum Present: Yes
Reference Spectrum Present: No
Number of Sampled Component Spectra: 1
Spectrometers: USB2E7196
Integration Time (usec): 170000 (USB2E7196)
Spectra Averaged: 20 (USB2E7196)
Boxcar Smoothing: 10 (USB2E7196)
Correct for Electrical Dark: No (USB2E7196)
Strobe/Lamp Enabled: No (USB2E7196)
Correct for Detector Non-linearity: No (USB2E7196)
Correct for Stray Light: No (USB2E7196)
Number of Pixels in Processed Spectrum: 2048
>>>>>Begin Processed Spectral Data<<<<<
339.09	0.00
339.48	213.50
339.86	214.80
340.24	214.95
340.63	217.10
341.01	225.80
341.39	219.75
341.78	221.60
342.16	224.80
342.54	223.80
342.93	212.19
343.31	222.84
343.69	223.39
344.07	223.81
344.46	224.37
344.84	224.83
345.22	224.83
345.60	225.16
345.99	225.37
346.37	225.40
346.75	225.45
347.13	225.48
347.52	225.54
347.90	225.82
348.28	225.89
348.66	226.06
349.05	225.91
349.43	225.97
349.81	226.02
350.19	226.03
350.57	226.06
350.96	226.25
351.34	226.39
351.72	226.44
352.10	226.53
352.48	226.48
352.87	226.47
353.25	226.48
353.63	226.43
354.01	226.36
354.39	226.45
354.77	226.58
355.15	226.78
355.54	226.73
355.92	226.57
356.30	226.64
356.68	226.97
357.06	226.98
357.44	227.01
357.82	227.04
358.20	227.51
358.58	227.58
358.97	227.60
359.35	227.75
359.73	227.97
360.11	228.11
360.49	228.21
360.87	228.27
361.25	228.37
361.63	228.60
362.01	228.79
362.39	228.85
362.77	228.90
363.15	228.90
363.53	229.02
363.91	229.13
364.29	229.19
364.67	228.86
365.05	228.93
365.43	228.98
365.81	229.11
366.19	228.98
366.57	229.15
366.95	229.23
367.33	229.14
367.71	229.03
368.09	229.07
368.47	229.06
368.85	229.05
369.23	229.18
369.61	229.02
369.99	229.15
370.37	229.12
370.75	229.34
371.13	229.28
371.51	229.21
371.89	229.24
372.27	229.19
372.65	229.12
373.03	229.13
373.41	229.13
373.78	229.02
374.16	228.70
374.54	228.55
374.92	228.40
375.30	228.38
375.68	228.27
376.06	228.24
376.44	228.12
376.82	228.12
377.19	228.04
377.57	227.97
377.95	227.76
378.33	227.73
378.71	227.37
379.09	227.33
379.47	227.22
379.84	227.09
380.22	227.07
380.60	226.96
380.98	226.91
381.36	226.82
381.73	226.68
382.11	226.73
382.49	226.73
382.87	226.59
383.25	226.49
383.62	226.97
384.00	226.80
384.38	226.74
384.76	226.81
385.13	226.96
385.51	226.98
385.89	226.84
386.27	226.77
386.64	226.79
387.02	226.69
387.40	226.67
387.78	226.65
388.15	226.60
388.53	226.55
388.91	226.43
389.29	226.35
389.66	226.39
390.04	226.34
390.42	226.35
390.79	226.37
391.17	226.34
391.55	225.84
391.92	225.82
392.30	225.89
392.68	225.75
393.05	225.59
393.43	225.54
393.81	225.60
394.18	225.59
394.56	225.60
394.94	225.77
395.31	225.76
395.69	225.90
396.06	225.98
396.44	226.06
396.82	226.10
397.19	226.40
397.57	226.43
397.95	226.50
398.32	226.36
398.70	226.56
399.07	226.82
399.45	226.81
399.82	226.94
400.20	227.04
400.58	227.08
400.95	226.97
401.33	227.11
401.70	227.56
402.08	227.72
402.45	227.85
402.83	227.97
403.20	228.20
403.58	228.31
403.95	228.52
404.33	228.78
404.71	229.04
405.08	229.45
405.46	229.67
405.83	229.90
406.21	230.24
406.58	230.46
406.96	230.66
407.33	231.05
407.70	231.43
408.08	232.13
408.45	232.63
408.83	233.20
409.20	233.64
409.58	233.79
409.95	234.30
410.33	234.82
410.70	235.23
411.08	235.82
411.45	236.37
411.82	236.92
412.20	237.65
412.57	238.65
412.95	238.90
413.32	239.80
413.69	240.62
414.07	241.52
414.44	242.53
414.82	243.52
415.19	244.79
415.56	245.98
415.94	246.98
416.31	248.40
416.68	249.77
417.06	251.39
417.43	253.01
417.81	254.81
418.18	256.51
418.55	258.47
418.93	260.46
419.30	262.51
419.67	264.71
420.04	266.86
420.42	269.03
420.79	272.18
421.16	274.90
421.54	277.94
421.91	280.95
422.28	284.04
422.66	287.22
423.03	290.47
423.40	293.76
423.77	297.25
424.15	300.76
424.52	304.47
424.89	308.60
425.26	312.50
425.64	316.08
426.01	320.28
426.38	324.46
426.75	328.92
427.13	333.44
427.50	338.09
427.87	342.95
428.24	347.86
428.61	352.23
428.99	357.43
429.36	362.80
429.73	368.12
430.10	373.41
430.47	379.14
430.85	384.58
431.22	390.57
431.59	397.26
431.96	403.43
432.33	410.27
432.70	416.75
433.08	424.37
433.45	431.80
433.82	439.05
434.19	447.32
434.56	455.22
434.93	462.72
435.30	470.39
435.68	478.81
436.05	487.10
436.42	495.33
436.79	502.80
437.16	510.87
437.53	519.69
437.90	528.37
438.27	536.69
438.64	545.72
439.01	553.93
439.38	560.93
439.75	567.96
440.13	575.88
440.50	583.24
440.87	589.25
441.24	595.53
441.61	602.31
441.98	607.25
442.35	613.10
442.72	619.23
443.09	625.04
443.46	628.45
443.83	630.63
444.20	632.54
444.57	635.29
444.94	636.43
445.31	637.37
445.68	638.59
446.05	638.71
446.42	637.43
446.79	636.05
447.16	634.48
447.53	633.12
447.90	629.49
448.27	625.94
448.64	621.19
449.01	617.40
449.37	611.50
449.74	605.49
450.11	598.61
450.48	590.90
450.85	582.92
451.22	576.25
451.59	569.78
451.96	563.68
452.33	555.74
452.70	548.68
453.07	540.18
453.43	531.18
453.80	523.00
454.17	514.99
454.54	507.38
454.91	499.45
455.28	491.63
455.65	484.26
456.02	477.58
456.38	471.42
456.75	463.84
457.12	457.39
457.49	451.20
457.86	444.99
458.23	439.80
458.59	434.31
458.96	428.57
459.33	423.66
459.70	418.75
460.07	414.79
460.43	410.06
460.80	405.85
461.17	402.25
461.54	398.32
461.91	394.55
462.27	390.76
462.64	387.41
463.01	383.97
463.38	380.75
463.74	376.73
464.11	373.75
464.48	371.22
464.85	368.45
465.21	366.36
465.58	364.15
465.95	361.39
466.32	359.11
466.68	356.86
467.05	354.60
467.42	352.19
467.78	349.77
468.15	347.60
468.52	345.98
468.88	343.85
469.25	341.95
469.62	340.54
469.98	338.90
470.35	337.45
470.72	336.08
471.08	334.50
471.45	333.22
471.82	331.92
472.18	330.46
472.55	329.41
472.92	328.13
473.28	327.01
473.65	326.00
474.02	325.03
474.38	324.25
474.75	323.55
475.11	322.74
475.48	322.05
475.85	321.53
476.21	320.91
476.58	320.32
476.94	320.05
477.31	319.50
477.67	319.20
478.04	318.83
478.41	318.57
478.77	318.81
479.14	318.52
479.50	318.45
479.87	318.54
480.23	318.59
480.60	318.56
480.96	318.49
481.33	318.88
481.69	318.99
482.06	319.18
482.42	319.42
482.79	319.88
483.15	320.49
483.52	321.07
483.88	321.50
484.25	322.25
484.61	322.88
484.98	323.64
485.34	324.64
485.71	325.67
486.07	326.61
486.44	327.16
486.80	328.40
487.17	329.57
487.53	330.96
487.90	332.45
488.26	334.14
488.62	335.92
488.99	337.41
489.35	339.21
489.72	341.04
490.08	342.98
490.44	344.98
490.81	347.03
491.17	349.22
491.54	351.70
491.90	354.17
492.26	356.80
492.63	359.64
492.99	362.41
493.36	365.49
493.72	368.78
494.08	372.20
494.45	375.78
494.81	379.61
495.17	383.36
495.54	387.38
495.90	391.61
496.26	396.00
496.63	400.64
496.99	405.39
497.35	410.41
497.72	415.67
498.08	421.04
498.44	426.71
498.80	432.76
499.17	438.78
499.53	444.98
499.89	451.46
500.26	458.08
500.62	464.89
500.98	472.20
501.34	479.55
501.71	487.32
502.07	495.04
502.43	503.09
502.79	511.40
503.16	519.97
503.52	528.83
503.88	538.02
504.24	547.54
504.60	557.52
504.97	567.81
505.33	578.19
505.69	589.16
506.05	600.16
506.41	611.10
506.78	622.75
507.14	634.73
507.50	647.00
507.86	659.62
508.22	672.40
508.59	685.35
508.95	698.93
509.31	712.74
509.67	727.03
510.03	741.23
510.39	755.83
510.75	770.73
511.12	785.72
511.48	801.17
511.84	816.67
512.20	832.36
512.56	848.39
512.92	865.00
513.28	881.54
513.64	898.37
514.00	915.61
514.37	933.15
514.73	950.92
515.09	968.86
515.45	986.84
515.81	1005.03
516.17	1023.55
516.53	1041.94
516.89	1060.31
517.25	1079.28
517.61	1099.09
517.97	1119.06
518.33	1138.85
518.69	1158.85
519.05	1178.86
519.41	1199.29
519.77	1220.17
520.13	1240.72
520.49	1260.94
520.85	1282.96
521.21	1303.87
521.57	1324.83
521.93	1345.25
522.29	1366.35
522.65	1386.70
523.01	1407.46
523.37	1428.07
523.73	1448.55
524.09	1468.74
524.45	1489.08
524.81	1509.40
525.17	1529.79
525.53	1549.90
525.89	1570.36
526.25	1590.86
526.61	1610.89
526.97	1631.66
527.33	1652.15
527.68	1673.33
528.04	1694.40
528.40	1713.66
528.76	1734.32
529.12	1754.69
529.48	1774.84
529.84	1794.18
530.20	1814.77
530.56	1834.93
530.91	1855.01
531.27	1875.02
531.63	1895.00
531.99	1915.18
532.35	1934.95
532.71	1954.68
533.07	1974.82
533.42	1993.85
533.78	2013.10
534.14	2032.70
534.50	2051.05
534.86	2069.88
535.21	2086.80
535.57	2104.73
535.93	2122.01
536.29	2139.20
536.65	2156.98
537.00	2174.36
537.36	2191.60
537.72	2207.79
538.08	2224.36
538.44	2240.49
538.79	2256.75
539.15	2273.11
539.51	2288.63
539.87	2303.45
540.22	2316.96
540.58	2330.80
540.94	2344.04
541.29	2356.38
541.65	2368.48
542.01	2380.65
542.37	2390.55
542.72	2401.52
543.08	2411.88
543.44	2422.88
543.79	2432.44
544.15	2441.45
544.51	2450.93
544.87	2460.15
545.22	2468.29
545.58	2475.79
545.94	2482.69
546.29	2488.37
546.65	2494.08
547.01	2499.23
547.36	2504.45
547.72	2509.66
548.07	2513.26
548.43	2518.36
548.79	2522.38
549.14	2526.15
549.50	2529.93
549.86	2533.57
550.21	2536.60
550.57	2539.77
550.92	2540.93
551.28	2542.10
551.64	2544.04
551.99	2545.58
552.35	2546.43
552.70	2548.05
553.06	2549.51
553.41	2550.89
553.77	2552.47
554.13	2553.69
554.48	2554.99
554.84	2555.76
555.19	2556.48
555.55	2558.07
555.90	2556.84
556.26	2555.99
556.61	2553.84
556.97	2551.37
557.32	2550.53
557.68	2549.44
558.03	2547.26
558.39	2545.46
558.74	2544.10
559.10	2540.63
559.45	2537.07
559.81	2532.70
560.16	2527.64
560.52	2522.60
560.87	2517.68
561.23	2512.19
561.58	2506.26
561.94	2499.35
562.29	2491.99
562.64	2484.79
563.00	2476.34
563.35	2469.59
563.71	2462.82
564.06	2456.79
564.42	2449.82
564.77	2442.89
565.12	2435.32
565.48	2427.61
565.83	2419.66
566.19	2411.47
566.54	2403.87
566.89	2395.76
567.25	2388.10
567.60	2380.70
567.96	2373.12
568.31	2365.12
568.66	2356.45
569.02	2347.44
569.37	2339.13
569.72	2331.65
570.08	2322.58
570.43	2313.15
570.78	2304.15
571.14	2294.81
571.49	2284.58
571.84	2275.27
572.20	2264.50
572.55	2254.29
572.90	2243.33
573.26	2233.27
573.61	2222.75
573.96	2211.58
574.31	2199.43
574.67	2187.75
575.02	2175.33
575.37	2162.60
575.72	2149.80
576.08	2137.95
576.43	2125.78
576.78	2112.93
577.13	2099.42
577.49	2086.80
577.84	2075.19
578.19	2063.23
578.54	2051.13
578.90	2039.55
579.25	2027.50
579.60	2015.27
579.95	2002.57
580.30	1989.92
580.66	1976.55
581.01	1963.22
581.36	1949.64
581.71	1937.54
582.06	1924.89
582.42	1912.65
582.77	1900.28
583.12	1888.64
583.47	1876.43
583.82	1864.68
584.17	1853.18
584.53	1841.70
584.88	1829.23
585.23	1816.44
585.58	1802.61
585.93	1789.41
586.28	1776.55
586.63	1763.02
586.98	1749.35
587.34	1736.48
587.69	1723.57
588.04	1711.73
588.39	1700.00
588.74	1688.28
589.09	1676.42
589.44	1664.12
589.79	1652.47
590.14	1640.89
590.49	1628.82
590.84	1617.10
591.19	1605.32
591.54	1593.14
591.89	1581.36
592.25	1571.46
592.60	1560.05
592.95	1549.20
593.30	1537.63
593.65	1525.89
594.00	1514.05
594.35	1504.33
594.70	1492.85
595.05	1481.87
595.40	1469.98
595.75	1458.25
596.10	1447.13
596.45	1435.86
596.80	1425.27
597.15	1414.00
597.50	1402.74
597.85	1391.97
598.19	1380.72
598.54	1369.27
598.89	1358.49
599.24	1347.96
599.59	1336.76
599.94	1326.55
600.29	1316.70
600.64	1306.89
600.99	1296.19
601.34	1286.90
601.69	1275.98
602.04	1266.26
602.39	1256.77
602.74	1248.15
603.08	1239.38
603.43	1230.43
603.78	1221.22
604.13	1211.86
604.48	1202.40
604.83	1192.92
605.18	1183.22
605.53	1174.18
605.87	1165.42
606.22	1157.07
606.57	1148.05
606.92	1138.70
607.27	1129.84
607.62	1121.04
607.96	1112.66
608.31	1105.17
608.66	1097.10
609.01	1088.87
609.36	1080.80
609.70	1072.53
610.05	1063.86
610.40	1055.49
610.75	1046.92
611.10	1038.66
611.44	1030.33
611.79	1022.59
612.14	1014.84
612.49	1007.28
612.83	999.93
613.18	992.49
613.53	984.98
613.88	977.43
614.22	970.14
614.57	962.51
614.92	954.89
615.27	947.57
615.61	940.08
615.96	932.52
616.31	925.33
616.65	918.65
617.00	911.55
617.35	904.49
617.70	897.46
618.04	890.77
618.39	884.04
618.74	878.11
619.08	871.25
619.43	864.48
619.78	857.72
620.12	850.66
620.47	843.83
620.82	836.78
621.16	830.23
621.51	824.08
621.85	818.00
622.20	811.66
622.55	805.09
622.89	798.81
623.24	792.72
623.59	786.55
623.93	780.19
624.28	774.33
624.62	769.03
624.97	763.50
625.32	757.82
625.66	751.99
626.01	745.72
626.35	740.48
626.70	735.11
627.04	730.07
627.39	724.81
627.73	719.63
628.08	714.87
628.43	709.52
628.77	704.10
629.12	698.92
629.46	694.16
629.81	689.78
630.15	685.22
630.50	680.53
630.84	675.91
631.19	671.32
631.53	666.92
631.88	661.80
632.22	657.01
632.57	652.72
632.91	648.41
633.26	644.24
633.60	639.81
633.95	635.49
634.29	630.84
634.64	626.66
634.98	622.17
635.32	617.81
635.67	614.01
636.01	610.05
636.36	605.91
636.70	602.07
637.05	597.98
637.39	593.89
637.73	589.89
638.08	586.06
638.42	581.96
638.77	577.65
639.11	573.52
639.45	569.34
639.80	565.10
640.14	561.20
640.49	557.36
640.83	553.60
641.17	549.96
641.52	546.21
641.86	542.70
642.20	539.65
642.55	536.11
642.89	532.53
643.23	529.04
643.58	526.00
643.92	522.30
644.26	518.84
644.61	515.80
644.95	512.60
645.29	509.22
645.64	506.20
645.98	503.26
646.32	500.49
646.66	497.50
647.01	494.60
647.35	491.84
647.69	488.84
648.04	486.13
648.38	483.42
648.72	480.76
649.06	477.71
649.41	474.65
649.75	471.75
650.09	468.99
650.43	466.36
650.78	463.57
651.12	460.89
651.46	458.15
651.80	455.36
652.14	452.73
652.49	450.32
652.83	447.84
653.17	445.28
653.51	442.59
653.85	440.34
654.20	437.92
654.54	435.38
654.88	433.03
655.22	430.75
655.56	428.45
655.90	426.16
656.25	424.00
656.59	421.80
656.93	419.68
657.27	417.72
657.61	415.21
657.95	412.89
658.29	410.90
658.64	408.99
658.98	406.86
659.32	404.75
659.66	402.56
660.00	400.47
660.34	398.45
660.68	396.41
661.02	394.26
661.36	392.40
661.70	390.48
662.05	388.40
662.39	386.51
662.73	384.69
663.07	383.16
663.41	381.30
663.75	379.42
664.09	377.60
664.43	375.60
664.77	374.09
665.11	372.36
665.45	370.67
665.79	369.02
666.13	367.30
666.47	365.63
666.81	364.00
667.15	362.35
667.49	360.83
667.83	359.70
668.17	358.36
668.51	356.90
668.85	355.57
669.19	354.62
669.53	353.16
669.87	351.59
670.21	349.98
670.55	348.61
670.89	347.59
671.23	346.28
671.57	345.02
671.91	343.74
672.25	342.53
672.58	341.30
672.92	339.97
673.26	338.75
673.60	337.65
673.94	336.50
674.28	335.42
674.62	334.41
674.96	332.99
675.30	331.83
675.64	330.60
675.97	329.34
676.31	327.99
676.65	326.76
676.99	325.93
677.33	324.82
677.67	323.87
678.01	322.48
678.34	321.46
678.68	320.62
679.02	319.52
679.36	318.52
679.70	317.55
680.04	316.55
680.37	315.70
680.71	314.62
681.05	313.81
681.39	312.95
681.73	311.92
682.06	311.06
682.40	310.20
682.74	309.31
683.08	308.70
683.42	307.95
683.75	307.25
684.09	306.25
684.43	305.55
684.77	304.71
685.10	304.06
685.44	303.30
685.78	302.41
686.12	301.66
686.45	300.91
686.79	300.05
687.13	299.44
687.46	298.67
687.80	298.12
688.14	297.32
688.48	296.57
688.81	295.87
689.15	295.27
689.49	294.53
689.82	294.01
690.16	293.03
690.50	292.30
690.83	291.58
691.17	290.90
691.51	290.19
691.84	289.56
692.18	288.85
692.52	288.21
692.85	287.63
693.19	287.19
693.52	286.63
693.86	285.97
694.20	285.23
694.53	284.72
694.87	284.03
695.21	283.45
695.54	282.83
695.88	282.26
696.21	281.54
696.55	280.92
696.88	280.30
697.22	279.85
697.56	279.32
697.89	278.71
698.23	278.22
698.56	277.66
698.90	277.23
699.23	276.72
699.57	276.23
699.90	275.64
700.24	274.98
700.58	274.52
700.91	274.15
701.25	274.13
701.58	273.98
701.92	273.60
702.25	273.15
702.59	272.64
702.92	272.22
703.26	271.89
703.59	271.52
703.93	271.48
704.26	271.08
704.60	270.66
704.93	270.27
705.26	269.75
705.60	269.34
705.93	268.75
706.27	268.54
706.60	268.29
706.94	268.15
707.27	267.71
707.61	267.31
707.94	266.95
708.27	266.20
708.61	265.44
708.94	265.04
709.28	264.69
709.61	264.28
709.94	263.86
710.28	263.51
710.61	263.19
710.95	262.37
711.28	262.37
711.61	261.96
711.95	261.75
712.28	261.42
712.61	261.02
712.95	260.89
713.28	260.71
713.61	260.25
713.95	259.68
714.28	259.48
714.61	259.16
714.95	258.79
715.28	258.40
715.61	258.08
715.95	257.73
716.28	257.40
716.61	257.22
716.95	256.83
717.28	256.47
717.61	256.22
717.94	255.96
718.28	255.24
718.61	254.92
718.94	254.58
719.27	254.31
719.61	254.20
719.94	253.80
720.27	253.22
720.60	252.89
720.94	252.74
721.27	252.50
721.60	252.21
721.93	251.98
722.27	251.86
722.60	251.65
722.93	251.44
723.26	251.23
723.59	251.01
723.93	251.01
724.26	250.90
724.59	250.64
724.92	250.44
725.25	250.37
725.59	250.21
725.92	250.05
726.25	249.83
726.58	249.60
726.91	249.49
727.24	249.38
727.57	249.23
727.91	248.92
728.24	248.73
728.57	248.56
728.90	248.44
729.23	248.17
729.56	248.28
729.89	248.10
730.22	247.91
730.55	247.68
730.89	247.46
731.22	247.19
731.55	246.91
731.88	246.84
732.21	246.58
732.54	246.31
732.87	246.18
733.20	246.04
733.53	245.90
733.86	245.73
734.19	245.51
734.52	245.41
734.85	245.58
735.18	245.29
735.51	245.30
735.84	245.20
736.17	245.19
736.50	244.75
736.83	245.17
737.16	244.98
737.49	244.82
737.82	244.64
738.15	244.60
738.48	244.55
738.81	244.38
739.14	244.25
739.47	244.08
739.80	243.88
740.13	243.81
740.46	243.57
740.79	243.40
741.12	243.29
741.45	243.10
741.78	242.69
742.11	242.83
742.44	242.53
742.77	242.40
743.10	242.19
743.43	242.07
743.75	241.37
744.08	241.85
744.41	241.73
744.74	241.54
745.07	241.23
745.40	241.18
745.73	241.13
746.06	241.01
746.39	241.00
746.71	240.80
747.04	240.58
747.37	240.46
747.70	240.47
748.03	240.32
748.36	240.25
748.68	240.20
749.01	239.85
749.34	239.76
749.67	239.65
750.00	239.59
750.33	239.84
750.65	239.82
750.98	239.15
751.31	239.00
751.64	238.82
751.97	238.99
752.29	238.79
752.62	238.46
752.95	238.33
753.28	238.16
753.60	238.07
753.93	238.13
754.26	238.12
754.59	237.80
754.91	237.69
755.24	237.49
755.57	237.34
755.90	237.27
756.22	237.09
756.55	236.88
756.88	236.66
757.20	236.22
757.53	236.01
757.86	235.92
758.19	235.95
758.51	236.00
758.84	235.71
759.17	235.62
759.49	235.65
759.82	235.77
760.15	235.76
760.47	235.67
760.80	235.39
761.13	235.31
761.45	235.18
761.78	235.12
762.11	235.06
762.43	234.95
762.76	234.80
763.08	234.82
763.41	234.78
763.74	234.72
764.06	234.54
764.39	234.39
764.71	234.28
765.04	234.08
765.37	233.93
765.69	233.83
766.02	233.74
766.34	233.61
766.67	233.35
767.00	233.29
767.32	233.41
767.65	233.71
767.97	233.52
768.30	233.47
768.62	233.40
768.95	233.26
769.27	233.16
769.60	233.19
769.92	233.00
770.25	232.85
770.57	232.64
770.90	232.60
771.22	232.51
771.55	232.48
771.87	232.40
772.20	232.29
772.52	232.63
772.85	233.10
773.17	233.02
773.50	232.89
773.82	232.79
774.15	232.54
774.47	232.16
774.80	232.11
775.12	232.06
775.45	231.90
775.77	231.89
776.09	231.85
776.42	231.80
776.74	231.90
777.07	231.85
777.39	231.92
777.72	231.89
778.04	231.89
778.36	231.78
778.69	231.78
779.01	231.74
779.33	231.24
779.66	230.63
779.98	230.57
780.31	230.59
780.63	230.69
780.95	230.68
781.28	230.64
781.60	230.57
781.92	230.53
782.25	230.59
782.57	230.55
782.89	230.50
783.22	230.42
783.54	230.34
783.86	230.33
784.19	230.27
784.51	230.35
784.83	230.23
785.16	230.18
785.48	230.22
785.80	230.20
786.12	230.18
786.45	230.15
786.77	230.17
787.09	230.10
787.42	229.88
787.74	229.94
788.06	229.90
788.38	229.90
788.71	229.85
789.03	229.86
789.35	229.87
789.67	229.77
789.99	229.89
790.32	229.79
790.64	229.79
790.96	230.18
791.28	230.05
791.61	230.03
791.93	230.08
792.25	230.01
792.57	230.36
792.89	230.30
793.21	230.38
793.54	230.29
793.86	230.27
794.18	230.29
794.50	230.18
794.82	230.20
795.14	230.24
795.47	230.33
795.79	230.29
796.11	230.25
796.43	230.28
796.75	230.14
797.07	230.06
797.39	230.04
797.71	229.64
798.04	229.63
798.36	229.71
798.68	229.65
799.00	229.62
799.32	229.39
799.64	229.50
799.96	229.52
800.28	229.62
800.60	229.62
800.92	229.69
801.24	229.59
801.56	229.54
801.89	229.39
802.21	229.42
802.53	229.28
802.85	229.34
803.17	229.54
803.49	229.49
803.81	229.46
804.13	229.42
804.45	229.32
804.77	229.38
805.09	229.30
805.41	229.24
805.73	229.14
806.05	228.96
806.37	228.91
806.69	228.81
807.01	228.74
807.33	228.68
807.65	228.45
807.97	228.69
808.28	228.67
808.60	228.65
808.92	228.52
809.24	228.80
809.56	228.69
809.88	228.42
810.20	228.38
810.52	228.47
810.84	228.32
811.16	228.29
811.48	228.12
811.80	228.27
812.12	228.24
812.43	228.30
812.75	228.28
813.07	228.17
813.39	228.17
813.71	228.06
814.03	228.01
814.35	228.07
814.67	227.95
814.98	227.82
815.30	227.80
815.62	227.67
815.94	227.29
816.26	227.47
816.58	227.39
816.89	227.43
817.21	227.28
817.53	227.33
817.85	227.36
