SpectraSuite Data File
++++++++++++++++++++++++++++++++++++
Date: Wed Sep 04 18:02:40 EDT 2013
User: lab3
Dark Spectrum Present: Yes
Reference Spectrum Present: No
Number of Sampled Component Spectra: 1
Spectrometers: USB2E7196
Integration Time (usec): 170000 (USB2E7196)
Spectra Averaged: 20 (USB2E7196)
Boxcar Smoothing: 10 (USB2E7196)
Correct for Electrical Dark: No (USB2E7196)
Strobe/Lamp Enabled: No (USB2E7196)
Correct for Detector Non-linearity: No (USB2E7196)
Correct for Stray Light: No (USB2E7196)
Number of Pixels in Processed Spectrum: 2048
>>>>>Begin Processed Spectral Data<<<<<
339.09	0.00
339.48	214.55
339.86	214.60
340.24	216.30
340.63	217.50
341.01	225.45
341.39	219.80
341.78	222.00
342.16	223.95
342.54	223.75
342.93	212.48
343.31	223.19
343.69	223.68
344.07	224.19
344.46	224.66
344.84	225.11
345.22	225.05
345.60	225.38
345.99	225.62
346.37	225.72
346.75	225.81
347.13	225.91
347.52	225.98
347.90	226.23
348.28	226.33
348.66	226.56
349.05	226.33
349.43	226.51
349.81	226.61
350.19	226.64
350.57	226.67
350.96	226.75
351.34	226.90
351.72	227.01
352.10	227.09
352.48	227.14
352.87	227.11
353.25	227.29
353.63	227.31
354.01	227.33
354.39	227.46
354.77	227.51
355.15	227.72
355.54	227.74
355.92	227.65
356.30	227.65
356.68	227.98
357.06	228.12
357.44	228.05
357.82	228.01
358.20	228.50
358.58	228.58
358.97	228.66
359.35	228.81
359.73	228.97
360.11	229.06
360.49	229.12
360.87	229.30
361.25	229.41
361.63	229.60
362.01	229.63
362.39	229.58
362.77	229.69
363.15	229.64
363.53	229.71
363.91	229.73
364.29	229.75
364.67	229.30
365.05	229.44
365.43	229.52
365.81	229.70
366.19	229.48
366.57	229.70
366.95	229.66
367.33	229.51
367.71	229.46
368.09	229.54
368.47	229.55
368.85	229.46
369.23	229.56
369.61	229.41
369.99	229.60
370.37	229.69
370.75	229.90
371.13	229.84
371.51	229.81
371.89	229.80
372.27	229.80
372.65	229.83
373.03	229.74
373.41	229.69
373.78	229.62
374.16	229.35
374.54	229.17
374.92	229.13
375.30	229.15
375.68	228.97
376.06	228.95
376.44	228.78
376.82	228.72
377.19	228.55
377.57	228.50
377.95	228.26
378.33	228.19
378.71	227.82
379.09	227.81
379.47	227.72
379.84	227.66
380.22	227.55
380.60	227.37
380.98	227.35
381.36	227.28
381.73	227.11
382.11	227.20
382.49	227.18
382.87	227.04
383.25	227.01
383.62	227.56
384.00	227.36
384.38	227.39
384.76	227.43
385.13	227.63
385.51	227.53
385.89	227.44
386.27	227.35
386.64	227.42
387.02	227.36
387.40	227.27
387.78	227.19
388.15	227.16
388.53	227.12
388.91	227.04
389.29	227.01
389.66	227.07
390.04	226.95
390.42	226.99
390.79	227.08
391.17	226.99
391.55	226.44
391.92	226.50
392.30	226.50
392.68	226.40
393.05	226.28
393.43	226.36
393.81	226.39
394.18	226.31
394.56	226.30
394.94	226.39
395.31	226.50
395.69	226.75
396.06	226.91
396.44	227.07
396.82	227.07
397.19	227.38
397.57	227.39
397.95	227.50
398.32	227.36
398.70	227.48
399.07	227.65
399.45	227.76
399.82	227.83
400.20	227.90
400.58	228.06
400.95	227.94
401.33	228.10
401.70	228.60
402.08	228.83
402.45	229.03
402.83	229.25
403.20	229.41
403.58	229.50
403.95	229.73
404.33	229.93
404.71	230.19
405.08	230.62
405.46	230.79
405.83	231.10
406.21	231.38
406.58	231.66
406.96	231.90
407.33	232.24
407.70	232.61
408.08	233.32
408.45	233.78
408.83	234.36
409.20	234.80
409.58	234.92
409.95	235.46
410.33	235.94
410.70	236.31
411.08	236.92
411.45	237.46
411.82	238.00
412.20	238.75
412.57	239.76
412.95	240.07
413.32	241.02
413.69	241.81
414.07	242.78
414.44	243.76
414.82	244.87
415.19	246.05
415.56	247.23
415.94	248.30
416.31	249.66
416.68	251.02
417.06	252.63
417.43	254.33
417.81	256.06
418.18	257.90
418.55	259.90
418.93	261.93
419.30	264.05
419.67	266.27
420.04	268.59
420.42	270.89
420.79	273.93
421.16	276.64
421.54	279.63
421.91	282.68
422.28	285.77
422.66	289.02
423.03	292.44
423.40	295.85
423.77	299.51
424.15	303.12
424.52	306.91
424.89	311.14
425.26	315.10
425.64	318.97
426.01	323.16
426.38	327.59
426.75	332.11
427.13	336.72
427.50	341.50
427.87	346.37
428.24	351.27
428.61	355.81
428.99	361.33
429.36	366.78
429.73	372.24
430.10	377.75
430.47	383.48
430.85	389.10
431.22	395.27
431.59	402.03
431.96	408.39
432.33	415.43
432.70	422.07
433.08	429.95
433.45	437.40
433.82	444.82
434.19	452.97
434.56	461.17
434.93	468.86
435.30	476.79
435.68	485.57
436.05	494.00
436.42	502.31
436.79	509.82
437.16	518.31
437.53	527.15
437.90	535.87
438.27	544.48
438.64	553.68
439.01	562.00
439.38	569.18
439.75	576.32
440.13	584.31
440.50	591.94
440.87	598.01
441.24	604.36
441.61	611.39
441.98	616.54
442.35	622.20
442.72	628.35
443.09	634.06
443.46	637.39
443.83	639.81
444.20	641.83
444.57	644.68
444.94	645.82
445.31	646.81
445.68	648.15
446.05	648.25
446.42	646.72
446.79	645.25
447.16	643.67
447.53	642.42
447.90	638.72
448.27	634.96
448.64	630.06
449.01	626.41
449.37	620.22
449.74	614.14
450.11	607.40
450.48	599.59
450.85	591.57
451.22	584.68
451.59	578.05
451.96	571.85
452.33	563.76
452.70	556.23
453.07	547.66
453.43	538.50
453.80	530.08
454.17	522.10
454.54	514.44
454.91	506.14
455.28	498.12
455.65	490.66
456.02	483.82
456.38	477.47
456.75	469.62
457.12	463.06
457.49	456.77
457.86	450.31
458.23	445.06
458.59	439.33
458.96	433.58
459.33	428.43
459.70	423.29
460.07	419.06
460.43	414.43
460.80	410.08
461.17	406.51
461.54	402.54
461.91	398.73
462.27	394.88
462.64	391.60
463.01	387.98
463.38	384.62
463.74	380.56
464.11	377.51
464.48	374.91
464.85	372.08
465.21	369.91
465.58	367.63
465.95	364.68
466.32	362.39
466.68	359.97
467.05	357.74
467.42	355.43
467.78	353.15
468.15	351.00
468.52	349.46
468.88	347.19
469.25	345.18
469.62	343.60
469.98	341.89
470.35	340.49
470.72	339.05
471.08	337.35
471.45	336.06
471.82	334.71
472.18	333.12
472.55	332.01
472.92	330.69
473.28	329.54
473.65	328.53
474.02	327.50
474.38	326.76
474.75	325.99
475.11	325.12
475.48	324.39
475.85	323.75
476.21	323.00
476.58	322.34
476.94	321.97
477.31	321.54
477.67	321.14
478.04	320.67
478.41	320.41
478.77	320.67
479.14	320.33
479.50	320.31
479.87	320.53
480.23	320.58
480.60	320.55
480.96	320.52
481.33	320.87
481.69	321.12
482.06	321.23
482.42	321.36
482.79	321.64
483.15	322.13
483.52	322.69
483.88	323.12
484.25	323.77
484.61	324.47
484.98	325.10
485.34	326.03
485.71	326.94
486.07	328.00
486.44	328.55
486.80	329.83
487.17	330.93
487.53	332.20
487.90	333.63
488.26	335.34
488.62	337.12
488.99	338.64
489.35	340.39
489.72	342.30
490.08	344.36
490.44	346.42
490.81	348.68
491.17	350.95
491.54	353.53
491.90	356.15
492.26	358.90
492.63	361.71
492.99	364.59
493.36	367.71
493.72	370.99
494.08	374.59
494.45	378.25
494.81	382.17
495.17	386.06
495.54	390.30
495.90	394.38
496.26	398.84
496.63	403.55
496.99	408.36
497.35	413.51
497.72	418.87
498.08	424.47
498.44	430.16
498.80	436.26
499.17	442.33
499.53	448.62
499.89	455.25
500.26	462.06
500.62	469.22
500.98	476.84
501.34	484.14
501.71	491.78
502.07	499.52
502.43	507.58
502.79	515.94
503.16	524.37
503.52	533.57
503.88	542.81
504.24	552.52
504.60	562.47
504.97	572.65
505.33	583.12
505.69	594.12
506.05	605.08
506.41	616.39
506.78	628.09
507.14	640.11
507.50	652.48
507.86	665.20
508.22	678.12
508.59	691.16
508.95	704.99
509.31	719.03
509.67	733.40
510.03	747.95
510.39	762.80
510.75	778.06
511.12	793.41
511.48	809.09
511.84	824.73
512.20	840.75
512.56	857.20
512.92	873.93
513.28	890.86
513.64	908.45
514.00	925.85
514.37	943.60
514.73	961.72
515.09	980.01
515.45	998.67
515.81	1017.23
516.17	1035.78
516.53	1054.46
516.89	1073.41
517.25	1092.80
517.61	1113.20
517.97	1133.48
518.33	1153.52
518.69	1173.87
519.05	1194.28
519.41	1215.16
519.77	1236.46
520.13	1257.33
520.49	1278.25
520.85	1300.34
521.21	1321.34
521.57	1342.95
521.93	1363.84
522.29	1385.11
522.65	1405.71
523.01	1426.50
523.37	1447.23
523.73	1468.52
524.09	1489.58
524.45	1510.29
524.81	1531.45
525.17	1551.82
525.53	1572.39
525.89	1593.44
526.25	1614.39
526.61	1635.16
526.97	1656.21
527.33	1677.33
527.68	1699.38
528.04	1720.60
528.40	1740.54
528.76	1761.65
529.12	1781.86
529.48	1802.68
529.84	1822.98
530.20	1844.24
530.56	1865.10
530.91	1886.12
531.27	1906.67
531.63	1927.13
531.99	1948.11
532.35	1968.04
532.71	1988.45
533.07	2009.30
533.42	2029.14
533.78	2049.04
534.14	2069.10
534.50	2088.37
534.86	2107.54
535.21	2124.76
535.57	2143.68
535.93	2161.19
536.29	2179.18
536.65	2197.67
537.00	2215.41
537.36	2232.86
537.72	2249.79
538.08	2266.93
538.44	2283.86
538.79	2300.49
539.15	2317.45
539.51	2333.30
539.87	2348.60
540.22	2363.07
540.58	2377.55
540.94	2391.10
541.29	2403.87
541.65	2416.18
542.01	2428.82
542.37	2439.48
542.72	2450.86
543.08	2461.51
543.44	2473.62
543.79	2483.79
544.15	2493.44
544.51	2503.90
544.87	2513.80
545.22	2522.37
545.58	2530.49
545.94	2537.87
546.29	2544.34
546.65	2550.41
547.01	2555.96
547.36	2562.06
547.72	2567.31
548.07	2571.35
548.43	2576.89
548.79	2581.90
549.14	2586.19
549.50	2590.39
549.86	2594.66
550.21	2598.61
550.57	2601.70
550.92	2603.19
551.28	2604.51
551.64	2607.25
551.99	2608.86
552.35	2610.81
552.70	2612.87
553.06	2614.46
553.41	2615.56
553.77	2617.45
554.13	2619.05
554.48	2620.89
554.84	2622.06
555.19	2623.34
555.55	2625.04
555.90	2624.10
556.26	2623.28
556.61	2622.25
556.97	2620.11
557.32	2619.88
557.68	2618.88
558.03	2617.85
558.39	2617.02
558.74	2616.79
559.10	2613.44
559.45	2610.15
559.81	2605.53
560.16	2600.99
560.52	2596.35
560.87	2591.89
561.23	2586.65
561.58	2580.57
561.94	2573.81
562.29	2566.58
562.64	2559.77
563.00	2551.59
563.35	2545.53
563.71	2538.86
564.06	2532.45
564.42	2525.60
564.77	2518.54
565.12	2510.97
565.48	2503.00
565.83	2494.85
566.19	2486.42
566.54	2478.77
566.89	2470.58
567.25	2462.82
567.60	2455.04
567.96	2447.58
568.31	2439.60
568.66	2430.70
569.02	2421.89
569.37	2413.61
569.72	2405.65
570.08	2396.14
570.43	2386.57
570.78	2377.30
571.14	2367.92
571.49	2357.94
571.84	2348.63
572.20	2337.34
572.55	2327.18
572.90	2316.27
573.26	2305.95
573.61	2294.88
573.96	2283.74
574.31	2272.06
574.67	2260.17
575.02	2247.75
575.37	2234.54
575.72	2221.45
576.08	2209.47
576.43	2197.10
576.78	2184.21
577.13	2170.56
577.49	2157.93
577.84	2145.91
578.19	2133.67
578.54	2121.10
578.90	2108.86
579.25	2096.41
579.60	2083.95
579.95	2070.64
580.30	2057.57
580.66	2044.00
581.01	2030.24
581.36	2016.22
581.71	2003.47
582.06	1990.73
582.42	1978.03
582.77	1965.61
583.12	1953.63
583.47	1941.01
583.82	1928.85
584.17	1916.64
584.53	1904.94
584.88	1892.06
585.23	1879.15
585.58	1864.69
585.93	1851.20
586.28	1837.69
586.63	1823.48
586.98	1809.59
587.34	1796.55
587.69	1782.95
588.04	1770.45
588.39	1758.44
588.74	1746.14
589.09	1733.88
589.44	1720.83
589.79	1708.92
590.14	1696.89
590.49	1684.51
590.84	1672.54
591.19	1660.27
591.54	1647.90
591.89	1635.53
592.25	1625.17
592.60	1613.65
592.95	1602.32
593.30	1590.16
593.65	1577.89
594.00	1566.07
594.35	1556.05
594.70	1544.07
595.05	1532.90
595.40	1520.45
595.75	1508.39
596.10	1497.14
596.45	1485.51
596.80	1474.75
597.15	1462.92
597.50	1450.91
597.85	1439.35
598.19	1427.53
598.54	1415.74
598.89	1404.26
599.24	1393.62
599.59	1381.84
599.94	1370.71
600.29	1360.05
600.64	1349.85
600.99	1339.17
601.34	1329.35
601.69	1317.93
602.04	1308.08
602.39	1298.05
602.74	1288.88
603.08	1279.48
603.43	1269.92
603.78	1260.04
604.13	1250.44
604.48	1240.56
604.83	1230.93
605.18	1221.17
605.53	1211.60
605.87	1202.40
606.22	1194.03
606.57	1184.53
606.92	1174.96
607.27	1166.00
607.62	1157.23
607.96	1148.46
608.31	1140.61
608.66	1132.31
609.01	1123.68
609.36	1115.07
609.70	1106.69
610.05	1097.86
610.40	1089.10
610.75	1080.25
611.10	1071.83
611.44	1063.11
611.79	1055.09
612.14	1047.17
612.49	1039.40
612.83	1032.07
613.18	1024.42
613.53	1016.40
613.88	1008.42
614.22	1000.77
614.57	992.80
614.92	984.92
615.27	977.34
615.61	969.42
615.96	961.58
616.31	954.16
616.65	946.74
617.00	939.15
617.35	931.82
617.70	924.69
618.04	917.75
618.39	910.83
618.74	904.30
619.08	897.25
619.43	890.01
619.78	882.60
620.12	875.08
620.47	868.01
620.82	860.65
621.16	853.84
621.51	847.55
621.85	841.13
622.20	834.43
622.55	827.65
622.89	821.25
623.24	814.68
623.59	808.18
623.93	801.93
624.28	795.82
624.62	790.21
624.97	784.32
625.32	778.18
625.66	772.02
626.01	765.79
626.35	760.21
626.70	754.70
627.04	749.53
627.39	744.03
627.73	738.72
628.08	733.43
628.43	728.04
628.77	722.37
629.12	717.12
629.46	712.20
629.81	707.31
630.15	702.28
630.50	697.40
630.84	692.50
631.19	687.70
631.53	683.19
631.88	677.78
632.22	672.75
632.57	668.26
632.91	663.70
633.26	659.24
633.60	654.59
633.95	649.84
634.29	644.99
634.64	640.67
634.98	635.67
635.32	631.45
635.67	627.39
636.01	623.16
636.36	618.56
636.70	614.52
637.05	610.35
637.39	606.35
637.73	602.20
638.08	598.23
638.42	593.91
638.77	589.58
639.11	585.37
639.45	581.10
639.80	576.80
640.14	572.71
640.49	568.65
640.83	564.71
641.17	561.08
641.52	557.49
641.86	553.72
642.20	550.71
642.55	546.85
642.89	543.05
643.23	539.50
643.58	536.48
643.92	532.81
644.26	529.46
644.61	526.12
644.95	522.75
645.29	519.23
645.64	516.21
645.98	512.97
646.32	510.02
646.66	506.85
647.01	503.87
647.35	500.97
647.69	497.86
648.04	495.03
648.38	492.23
648.72	489.13
649.06	486.09
649.41	482.86
649.75	479.96
650.09	477.13
650.43	474.14
650.78	471.23
651.12	468.43
651.46	465.50
651.80	462.73
652.14	460.03
652.49	457.47
652.83	454.79
653.17	452.19
653.51	449.46
653.85	447.09
654.20	444.52
654.54	441.98
654.88	439.56
655.22	437.30
655.56	434.71
655.90	432.47
656.25	430.09
656.59	427.90
656.93	425.76
657.27	423.75
657.61	421.42
657.95	419.05
658.29	416.92
658.64	414.81
658.98	412.55
659.32	410.32
659.66	408.10
660.00	405.81
660.34	403.71
660.68	401.74
661.02	399.65
661.36	397.68
661.70	395.55
662.05	393.68
662.39	391.65
662.73	389.85
663.07	388.26
663.41	386.52
663.75	384.55
664.09	382.64
664.43	380.47
664.77	378.81
665.11	377.03
665.45	375.33
665.79	373.72
666.13	371.99
666.47	370.24
666.81	368.54
667.15	366.89
667.49	365.30
667.83	363.94
668.17	362.49
668.51	361.00
668.85	359.68
669.19	358.45
669.53	356.87
669.87	355.34
670.21	353.71
670.55	352.35
670.89	351.28
671.23	349.94
671.57	348.68
671.91	347.31
672.25	345.97
672.58	344.67
672.92	343.11
673.26	341.93
673.60	340.75
673.94	339.66
674.28	338.56
674.62	337.53
674.96	336.13
675.30	334.92
675.64	333.79
675.97	332.57
676.31	331.10
676.65	329.88
676.99	328.98
677.33	327.73
677.67	326.56
678.01	325.19
678.34	324.07
678.68	323.17
679.02	322.09
679.36	321.15
679.70	320.16
680.04	319.36
680.37	318.33
680.71	317.39
681.05	316.43
681.39	315.61
681.73	314.61
682.06	313.74
682.40	312.83
682.74	311.93
683.08	311.22
683.42	310.34
683.75	309.58
684.09	308.53
684.43	307.79
684.77	306.92
685.10	306.12
685.44	305.38
685.78	304.46
686.12	303.70
686.45	302.87
686.79	301.99
687.13	301.29
687.46	300.62
687.80	300.06
688.14	299.18
688.48	298.40
688.81	297.65
689.15	297.05
689.49	296.28
689.82	295.62
690.16	294.74
690.50	294.14
690.83	293.40
691.17	292.58
691.51	291.84
691.84	291.18
692.18	290.56
692.52	289.86
692.85	289.38
693.19	288.92
693.52	288.30
693.86	287.59
694.20	286.91
694.53	286.27
694.87	285.47
695.21	284.86
695.54	284.24
695.88	283.58
696.21	282.80
696.55	282.20
696.88	281.60
697.22	280.96
697.56	280.43
697.89	279.82
698.23	279.52
698.56	279.01
698.90	278.58
699.23	278.05
699.57	277.54
699.90	276.90
700.24	276.25
700.58	275.76
700.91	275.43
701.25	275.34
701.58	275.15
701.92	274.83
702.25	274.40
702.59	273.88
702.92	273.49
703.26	273.09
703.59	272.66
703.93	272.58
704.26	272.27
704.60	271.79
704.93	271.36
705.26	270.79
705.60	270.42
705.93	269.89
706.27	269.60
706.60	269.32
706.94	269.15
707.27	268.72
707.61	268.34
707.94	267.91
708.27	267.10
708.61	266.40
708.94	265.99
709.28	265.65
709.61	265.36
709.94	264.99
710.28	264.64
710.61	264.36
710.95	263.52
711.28	263.44
711.61	263.08
711.95	262.81
712.28	262.48
712.61	262.10
712.95	262.02
713.28	261.82
713.61	261.29
713.95	260.80
714.28	260.49
714.61	260.17
714.95	259.87
715.28	259.45
715.61	259.05
715.95	258.74
716.28	258.30
716.61	258.00
716.95	257.62
717.28	257.24
717.61	256.87
717.94	256.62
718.28	255.96
718.61	255.62
718.94	255.27
719.27	254.98
719.61	254.78
719.94	254.36
720.27	253.89
720.60	253.75
720.94	253.53
721.27	253.24
721.60	253.17
721.93	252.93
722.27	252.94
722.60	252.87
722.93	252.53
723.26	252.45
723.59	252.14
723.93	252.04
724.26	251.86
724.59	251.69
724.92	251.54
725.25	251.45
725.59	251.34
725.92	251.19
726.25	251.03
726.58	250.88
726.91	250.70
727.24	250.58
727.57	250.36
727.91	250.03
728.24	249.92
728.57	249.54
728.90	249.37
729.23	249.02
729.56	249.02
729.89	248.92
730.22	248.62
730.55	248.46
730.89	248.25
731.22	248.07
731.55	247.85
731.88	247.63
732.21	247.42
732.54	247.12
732.87	246.93
733.20	246.74
733.53	246.52
733.86	246.41
734.19	246.12
734.52	245.98
734.85	246.20
735.18	245.97
735.51	246.05
735.84	245.89
736.17	245.88
736.50	245.42
736.83	245.81
737.16	245.70
737.49	245.61
737.82	245.41
738.15	245.39
738.48	245.27
738.81	245.09
739.14	244.90
739.47	244.75
739.80	244.58
740.13	244.52
740.46	244.31
740.79	244.04
741.12	243.92
741.45	243.74
741.78	243.31
742.11	243.27
742.44	242.91
742.77	242.89
743.10	242.60
743.43	242.47
743.75	241.74
744.08	242.30
744.41	242.06
744.74	241.91
745.07	241.64
745.40	241.51
745.73	241.65
746.06	241.55
746.39	241.48
746.71	241.33
747.04	241.11
747.37	240.94
747.70	240.92
748.03	240.78
748.36	240.68
748.68	240.57
749.01	240.34
749.34	240.30
749.67	240.13
750.00	240.15
750.33	240.35
750.65	240.31
750.98	239.58
751.31	239.45
751.64	239.45
751.97	239.64
752.29	239.54
752.62	239.21
752.95	239.03
753.28	238.85
753.60	238.74
753.93	238.76
754.26	238.77
754.59	238.52
754.91	238.43
755.24	238.28
755.57	238.15
755.90	238.03
756.22	237.89
756.55	237.73
756.88	237.49
757.20	237.10
757.53	236.88
757.86	236.74
758.19	236.73
758.51	236.50
758.84	236.10
759.17	235.92
759.49	235.87
759.82	236.05
760.15	236.01
760.47	235.93
760.80	235.66
761.13	235.57
761.45	235.40
761.78	235.31
762.11	235.24
762.43	235.11
762.76	235.01
763.08	234.97
763.41	234.93
763.74	234.88
764.06	234.77
764.39	234.72
764.71	234.63
765.04	234.48
765.37	234.43
765.69	234.37
766.02	234.32
766.34	234.19
766.67	233.90
767.00	233.98
767.32	234.13
767.65	234.42
767.97	234.37
768.30	234.42
768.62	234.34
768.95	234.27
769.27	234.18
769.60	234.25
769.92	234.05
770.25	233.87
770.57	233.82
770.90	233.82
771.22	233.65
771.55	233.57
771.87	233.52
772.20	233.46
772.52	233.82
772.85	234.32
773.17	234.21
773.50	234.11
773.82	233.95
774.15	233.73
774.47	233.36
774.80	233.28
775.12	233.20
775.45	233.12
775.77	233.09
776.09	233.10
776.42	233.00
776.74	233.13
777.07	233.07
777.39	232.96
777.72	232.81
778.04	232.90
778.36	232.93
778.69	232.90
779.01	232.89
779.33	232.36
779.66	231.76
779.98	231.73
780.31	231.72
780.63	231.91
780.95	231.94
781.28	231.94
781.60	231.81
781.92	231.76
782.25	231.69
782.57	231.61
782.89	231.52
783.22	231.49
783.54	231.38
783.86	231.38
784.19	231.26
784.51	231.43
784.83	231.33
785.16	231.16
785.48	231.19
785.80	231.15
786.12	231.28
786.45	231.26
786.77	231.28
787.09	231.20
787.42	230.96
787.74	230.91
788.06	230.84
788.38	230.79
788.71	230.74
789.03	230.73
789.35	230.78
789.67	230.72
789.99	230.64
790.32	230.58
790.64	230.61
790.96	230.97
791.28	230.76
791.61	230.65
791.93	230.70
792.25	230.60
792.57	230.93
792.89	230.76
793.21	230.74
793.54	230.71
793.86	230.66
794.18	230.68
794.50	230.60
794.82	230.57
795.14	230.63
795.47	230.73
795.79	230.73
796.11	230.65
796.43	230.60
796.75	230.54
797.07	230.49
797.39	230.45
797.71	230.21
798.04	230.18
798.36	230.21
798.68	230.16
799.00	230.22
799.32	229.91
799.64	229.94
799.96	229.93
800.28	229.90
800.60	229.86
800.92	229.89
801.24	229.82
801.56	229.80
801.89	229.71
802.21	229.67
802.53	229.65
802.85	229.71
803.17	229.91
803.49	229.85
803.81	229.81
804.13	229.76
804.45	229.58
804.77	229.71
805.09	229.73
805.41	229.62
805.73	229.45
806.05	229.34
806.37	229.36
806.69	229.29
807.01	229.29
807.33	229.37
807.65	229.11
807.97	229.28
808.28	229.28
808.60	229.31
808.92	229.25
809.24	229.46
809.56	229.34
809.88	229.17
810.20	229.26
810.52	229.35
810.84	229.25
811.16	229.21
811.48	229.11
811.80	229.26
812.12	229.25
812.43	229.36
812.75	229.37
813.07	229.33
813.39	229.41
813.71	229.33
814.03	229.28
814.35	229.29
814.67	229.13
814.98	229.05
815.30	228.96
815.62	228.89
815.94	228.55
816.26	228.74
816.58	228.62
816.89	228.63
817.21	228.51
817.53	228.56
817.85	228.57
