SpectraSuite Data File
++++++++++++++++++++++++++++++++++++
Date: Wed Sep 04 17:43:17 EDT 2013
User: lab3
Dark Spectrum Present: Yes
Reference Spectrum Present: No
Number of Sampled Component Spectra: 1
Spectrometers: USB2E7196
Integration Time (usec): 170000 (USB2E7196)
Spectra Averaged: 20 (USB2E7196)
Boxcar Smoothing: 10 (USB2E7196)
Correct for Electrical Dark: No (USB2E7196)
Strobe/Lamp Enabled: No (USB2E7196)
Correct for Detector Non-linearity: No (USB2E7196)
Correct for Stray Light: No (USB2E7196)
Number of Pixels in Processed Spectrum: 2048
>>>>>Begin Processed Spectral Data<<<<<
339.09	0.00
339.48	212.60
339.86	212.85
340.24	214.70
340.63	217.45
341.01	225.30
341.39	219.85
341.78	221.05
342.16	223.05
342.54	222.50
342.93	211.71
343.31	222.43
343.69	222.95
344.07	223.50
344.46	224.03
344.84	224.40
345.22	224.38
345.60	224.67
345.99	224.90
346.37	225.02
346.75	225.12
347.13	225.22
347.52	225.28
347.90	225.51
348.28	225.53
348.66	225.70
349.05	225.54
349.43	225.65
349.81	225.73
350.19	225.76
350.57	225.82
350.96	225.87
351.34	225.92
351.72	226.07
352.10	226.12
352.48	226.09
352.87	226.20
353.25	226.25
353.63	226.29
354.01	226.33
354.39	226.36
354.77	226.47
355.15	226.72
355.54	226.70
355.92	226.58
356.30	226.63
356.68	226.96
357.06	227.06
357.44	227.07
357.82	227.18
358.20	227.65
358.58	227.61
358.97	227.70
359.35	227.85
359.73	228.03
360.11	228.10
360.49	228.26
360.87	228.26
361.25	228.37
361.63	228.57
362.01	228.60
362.39	228.63
362.77	228.66
363.15	228.65
363.53	228.74
363.91	228.86
364.29	228.92
364.67	228.49
365.05	228.53
365.43	228.64
365.81	228.71
366.19	228.58
366.57	228.89
366.95	228.84
367.33	228.73
367.71	228.66
368.09	228.79
368.47	228.66
368.85	228.63
369.23	228.79
369.61	228.57
369.99	228.71
370.37	228.81
370.75	229.05
371.13	228.93
371.51	228.89
371.89	228.93
372.27	228.88
372.65	228.92
373.03	228.89
373.41	228.81
373.78	228.67
374.16	228.30
374.54	228.09
374.92	228.09
375.30	228.10
375.68	227.98
376.06	227.85
376.44	227.85
376.82	227.85
377.19	227.68
377.57	227.70
377.95	227.54
378.33	227.40
378.71	227.09
379.09	227.08
379.47	226.97
379.84	226.77
380.22	226.69
380.60	226.55
380.98	226.47
381.36	226.36
381.73	226.25
382.11	226.29
382.49	226.22
382.87	226.07
383.25	226.05
383.62	226.58
384.00	226.51
384.38	226.39
384.76	226.35
385.13	226.54
385.51	226.41
385.89	226.28
386.27	226.26
386.64	226.20
387.02	226.05
387.40	226.00
387.78	225.99
388.15	225.96
388.53	225.81
388.91	225.85
389.29	225.77
389.66	225.91
390.04	225.86
390.42	225.92
390.79	225.93
391.17	225.79
391.55	225.20
391.92	225.15
392.30	225.29
392.68	225.25
393.05	225.15
393.43	225.22
393.81	225.28
394.18	225.27
394.56	225.34
394.94	225.50
395.31	225.50
395.69	225.72
396.06	225.84
396.44	225.99
396.82	225.98
397.19	226.34
397.57	226.34
397.95	226.43
398.32	226.32
398.70	226.44
399.07	226.70
399.45	226.83
399.82	226.91
400.20	226.93
400.58	227.00
400.95	226.94
401.33	227.10
401.70	227.60
402.08	227.65
402.45	227.80
402.83	228.01
403.20	228.20
403.58	228.25
403.95	228.50
404.33	228.78
404.71	229.00
405.08	229.42
405.46	229.58
405.83	229.87
406.21	230.19
406.58	230.48
406.96	230.70
407.33	231.02
407.70	231.48
408.08	232.22
408.45	232.69
408.83	233.18
409.20	233.53
409.58	233.62
409.95	234.27
410.33	234.81
410.70	235.15
411.08	235.75
411.45	236.38
411.82	236.94
412.20	237.66
412.57	238.57
412.95	238.82
413.32	239.63
413.69	240.39
414.07	241.25
414.44	242.21
414.82	243.24
415.19	244.41
415.56	245.48
415.94	246.47
416.31	247.81
416.68	249.12
417.06	250.68
417.43	252.22
417.81	253.79
418.18	255.55
418.55	257.45
418.93	259.40
419.30	261.34
419.67	263.49
420.04	265.68
420.42	267.86
420.79	270.92
421.16	273.66
421.54	276.67
421.91	279.58
422.28	282.49
422.66	285.60
423.03	288.86
423.40	292.10
423.77	295.43
424.15	298.87
424.52	302.50
424.89	306.51
425.26	310.30
425.64	314.02
426.01	318.01
426.38	322.17
426.75	326.57
427.13	331.13
427.50	335.67
427.87	340.33
428.24	344.99
428.61	349.20
428.99	354.17
429.36	359.36
429.73	364.60
430.10	369.89
430.47	375.38
430.85	380.70
431.22	386.52
431.59	393.02
431.96	399.05
432.33	405.76
432.70	412.01
433.08	419.56
433.45	426.66
433.82	433.69
434.19	441.75
434.56	449.41
434.93	456.66
435.30	464.09
435.68	472.31
436.05	480.45
436.42	488.41
436.79	495.73
437.16	503.74
437.53	512.18
437.90	520.52
438.27	528.74
438.64	537.18
439.01	545.17
439.38	551.91
439.75	558.72
440.13	566.30
440.50	573.64
440.87	579.48
441.24	585.47
441.61	592.07
441.98	596.70
442.35	602.23
442.72	608.00
443.09	613.55
443.46	616.76
443.83	618.90
444.20	620.84
444.57	623.61
444.94	624.52
445.31	625.55
445.68	627.07
446.05	627.26
446.42	626.25
446.79	624.93
447.16	623.49
447.53	622.34
447.90	618.79
448.27	615.25
448.64	610.61
449.01	607.15
449.37	601.30
449.74	595.64
450.11	589.20
450.48	581.70
450.85	574.05
451.22	567.56
451.59	561.37
451.96	555.37
452.33	547.49
452.70	540.47
453.07	532.20
453.43	523.36
453.80	515.22
454.17	507.43
454.54	500.05
454.91	492.33
455.28	484.60
455.65	477.46
456.02	470.96
456.38	464.84
456.75	457.46
457.12	451.23
457.49	445.11
457.86	438.93
458.23	434.11
458.59	428.60
458.96	423.13
459.33	418.15
459.70	413.33
460.07	409.49
460.43	405.11
460.80	400.99
461.17	397.29
461.54	393.53
461.91	389.89
462.27	386.12
462.64	382.89
463.01	379.64
463.38	376.55
463.74	372.70
464.11	369.79
464.48	367.26
464.85	364.47
465.21	362.55
465.58	360.41
465.95	357.71
466.32	355.60
466.68	353.41
467.05	351.46
467.42	349.28
467.78	347.06
468.15	344.95
468.52	343.45
468.88	341.32
469.25	339.47
469.62	338.09
469.98	336.59
470.35	335.14
470.72	333.57
471.08	331.95
471.45	330.70
471.82	329.55
472.18	328.10
472.55	327.28
472.92	325.93
473.28	324.85
473.65	323.77
474.02	322.76
474.38	322.04
474.75	321.19
475.11	320.39
475.48	319.86
475.85	319.38
476.21	318.79
476.58	318.38
476.94	318.03
477.31	317.57
477.67	317.26
478.04	317.03
478.41	316.91
478.77	317.25
479.14	316.98
479.50	316.83
479.87	316.92
480.23	316.89
480.60	316.92
480.96	316.98
481.33	317.32
481.69	317.55
482.06	317.69
482.42	317.96
482.79	318.30
483.15	318.66
483.52	319.27
483.88	319.71
484.25	320.28
484.61	320.92
484.98	321.61
485.34	322.52
485.71	323.45
486.07	324.35
486.44	324.84
486.80	325.98
487.17	327.16
487.53	328.53
487.90	329.92
488.26	331.61
488.62	333.27
488.99	334.75
489.35	336.57
489.72	338.50
490.08	340.42
490.44	342.34
490.81	344.45
491.17	346.53
491.54	348.94
491.90	351.42
492.26	353.98
492.63	356.79
492.99	359.59
493.36	362.47
493.72	365.70
494.08	369.20
494.45	372.79
494.81	376.50
495.17	380.36
495.54	384.33
495.90	388.44
496.26	392.70
496.63	397.26
496.99	401.77
497.35	406.69
497.72	411.93
498.08	417.38
498.44	422.92
498.80	428.84
499.17	434.68
499.53	440.78
499.89	447.35
500.26	453.94
500.62	460.67
500.98	468.01
501.34	475.24
501.71	482.66
502.07	490.27
502.43	498.25
502.79	506.33
503.16	514.86
503.52	523.59
503.88	532.50
504.24	541.98
504.60	551.75
504.97	561.70
505.33	571.90
505.69	582.72
506.05	593.56
506.41	604.55
506.78	616.12
507.14	627.81
507.50	639.71
507.86	651.99
508.22	664.71
508.59	677.41
508.95	690.61
509.31	704.40
509.67	718.27
510.03	732.10
510.39	746.55
510.75	761.21
511.12	775.90
511.48	791.20
511.84	806.29
512.20	821.74
512.56	837.56
512.92	853.63
513.28	869.88
513.64	886.45
514.00	903.32
514.37	920.27
514.73	937.92
515.09	955.35
515.45	972.85
515.81	990.54
516.17	1008.60
516.53	1026.75
516.89	1044.85
517.25	1063.59
517.61	1082.86
517.97	1102.44
518.33	1121.59
518.69	1141.17
519.05	1160.68
519.41	1180.46
519.77	1200.67
520.13	1220.32
520.49	1240.07
520.85	1259.96
521.21	1280.19
521.57	1300.44
521.93	1320.25
522.29	1340.35
522.65	1360.03
523.01	1380.32
523.37	1399.94
523.73	1419.78
524.09	1439.43
524.45	1458.69
524.81	1478.25
525.17	1498.18
525.53	1517.42
525.89	1537.21
526.25	1556.88
526.61	1576.15
526.97	1595.76
527.33	1615.66
527.68	1636.21
528.04	1656.20
528.40	1675.80
528.76	1695.45
529.12	1714.90
529.48	1734.80
529.84	1753.46
530.20	1773.24
530.56	1792.35
530.91	1811.95
531.27	1831.14
531.63	1849.97
531.99	1869.18
532.35	1887.48
532.71	1905.74
533.07	1924.83
533.42	1943.03
533.78	1961.19
534.14	1979.65
534.50	1997.46
534.86	2015.35
535.21	2031.66
535.57	2048.39
535.93	2064.63
536.29	2080.78
536.65	2097.12
537.00	2112.92
537.36	2129.04
537.72	2144.22
538.08	2159.88
538.44	2174.66
538.79	2189.33
539.15	2204.55
539.51	2219.07
539.87	2233.29
540.22	2245.91
540.58	2258.67
540.94	2270.78
541.29	2282.13
541.65	2293.32
542.01	2304.57
542.37	2313.60
542.72	2323.09
543.08	2332.46
543.44	2343.02
543.79	2351.70
544.15	2360.05
544.51	2368.62
544.87	2376.65
545.22	2384.16
545.58	2390.29
545.94	2396.36
546.29	2401.66
546.65	2406.68
547.01	2410.95
547.36	2415.19
547.72	2419.60
548.07	2422.08
548.43	2425.94
548.79	2429.45
549.14	2432.05
549.50	2434.39
549.86	2437.18
550.21	2439.66
550.57	2442.03
550.92	2441.97
551.28	2442.10
551.64	2443.52
551.99	2444.19
552.35	2444.97
552.70	2446.13
553.06	2447.21
553.41	2447.54
553.77	2448.16
554.13	2448.80
554.48	2449.52
554.84	2449.78
555.19	2450.24
555.55	2451.27
555.90	2449.85
556.26	2448.14
556.61	2446.32
556.97	2443.57
557.32	2442.10
557.68	2440.47
558.03	2438.41
558.39	2436.56
558.74	2435.43
559.10	2431.52
559.45	2427.63
559.81	2422.96
560.16	2416.97
560.52	2411.69
560.87	2406.92
561.23	2401.04
561.58	2394.80
561.94	2387.66
562.29	2380.54
562.64	2373.05
563.00	2364.68
563.35	2358.00
563.71	2351.40
564.06	2345.04
564.42	2338.52
564.77	2331.42
565.12	2323.50
565.48	2315.61
565.83	2307.68
566.19	2299.49
566.54	2291.75
566.89	2283.83
567.25	2276.17
567.60	2269.37
567.96	2261.73
568.31	2254.03
568.66	2246.00
569.02	2237.00
569.37	2229.00
569.72	2221.19
570.08	2212.59
570.43	2203.52
570.78	2194.63
571.14	2185.35
571.49	2175.15
571.84	2165.84
572.20	2155.61
572.55	2146.10
572.90	2135.66
573.26	2125.58
573.61	2115.23
573.96	2104.26
574.31	2092.64
574.67	2081.07
575.02	2068.75
575.37	2056.95
575.72	2044.30
576.08	2032.84
576.43	2020.93
576.78	2009.02
577.13	1996.05
577.49	1984.05
577.84	1972.82
578.19	1961.33
578.54	1949.55
578.90	1938.51
579.25	1926.90
579.60	1915.05
579.95	1902.66
580.30	1890.38
580.66	1877.80
581.01	1864.75
581.36	1852.01
581.71	1840.54
582.06	1828.72
582.42	1817.24
582.77	1805.45
583.12	1794.36
583.47	1783.07
583.82	1772.10
584.17	1760.30
584.53	1749.53
584.88	1737.12
585.23	1724.79
585.58	1711.68
585.93	1699.61
586.28	1687.31
586.63	1674.50
586.98	1661.56
587.34	1649.57
587.69	1637.51
588.04	1626.04
588.39	1615.29
588.74	1604.07
589.09	1592.72
589.44	1580.46
589.79	1568.93
590.14	1557.66
590.49	1546.50
590.84	1535.07
591.19	1523.86
591.54	1512.59
591.89	1501.34
592.25	1491.95
592.60	1481.64
592.95	1471.23
593.30	1459.95
593.65	1448.65
594.00	1437.51
594.35	1428.67
594.70	1417.67
595.05	1407.21
595.40	1396.35
595.75	1385.15
596.10	1374.57
596.45	1363.78
596.80	1354.24
597.15	1343.88
597.50	1332.99
597.85	1322.60
598.19	1311.95
598.54	1301.16
598.89	1290.92
599.24	1281.13
599.59	1270.63
599.94	1260.60
600.29	1251.05
600.64	1241.92
600.99	1232.28
601.34	1223.55
601.69	1213.06
602.04	1204.25
602.39	1195.24
602.74	1186.83
603.08	1178.24
603.43	1170.00
603.78	1161.31
604.13	1152.56
604.48	1143.95
604.83	1135.17
605.18	1125.92
605.53	1117.46
605.87	1109.52
606.22	1101.96
606.57	1093.49
606.92	1084.71
607.27	1076.51
607.62	1068.54
607.96	1060.68
608.31	1053.57
608.66	1046.16
609.01	1038.26
609.36	1030.44
609.70	1022.72
610.05	1014.60
610.40	1007.08
610.75	999.05
611.10	991.66
611.44	983.76
611.79	976.10
612.14	969.03
612.49	962.03
612.83	955.01
613.18	947.67
613.53	940.32
613.88	933.29
614.22	926.42
614.57	919.16
614.92	912.02
615.27	905.00
615.61	897.76
615.96	890.52
616.31	883.64
616.65	877.33
617.00	870.62
617.35	864.12
617.70	857.64
618.04	851.25
618.39	844.70
618.74	838.96
619.08	832.88
619.43	826.48
619.78	820.02
620.12	813.43
620.47	807.27
620.82	800.82
621.16	794.48
621.51	788.92
621.85	783.27
622.20	777.40
622.55	771.39
622.89	765.61
623.24	759.94
623.59	754.38
623.93	748.60
624.28	743.13
624.62	738.05
624.97	732.60
625.32	727.33
625.66	721.93
626.01	716.22
626.35	711.12
626.70	706.19
627.04	701.51
627.39	696.51
627.73	691.70
628.08	687.12
628.43	682.26
628.77	677.08
629.12	672.42
629.46	668.09
629.81	663.90
630.15	659.46
630.50	654.92
630.84	650.57
631.19	646.08
631.53	641.93
631.88	637.18
632.22	632.86
632.57	628.88
632.91	624.65
633.26	620.70
633.60	616.49
633.95	612.24
634.29	608.02
634.64	604.01
634.98	599.59
635.32	595.57
635.67	592.00
636.01	588.26
636.36	584.18
636.70	580.34
637.05	576.49
637.39	572.83
637.73	569.26
638.08	565.58
638.42	561.85
638.77	557.94
639.11	554.00
639.45	550.05
639.80	545.94
640.14	542.23
640.49	538.65
640.83	535.18
641.17	531.97
641.52	528.45
641.86	525.18
642.20	522.45
642.55	519.22
642.89	515.88
643.23	512.64
643.58	509.87
643.92	506.41
644.26	503.30
644.61	500.40
644.95	497.25
645.29	493.97
645.64	491.18
645.98	488.30
646.32	485.78
646.66	483.06
647.01	480.37
647.35	477.90
647.69	475.08
648.04	472.56
648.38	469.94
648.72	467.54
649.06	464.88
649.41	462.03
649.75	459.29
650.09	456.54
650.43	453.92
650.78	451.11
651.12	448.66
651.46	446.01
651.80	443.43
652.14	441.02
652.49	438.92
652.83	436.47
653.17	434.08
653.51	431.62
653.85	429.43
654.20	427.32
654.54	424.98
654.88	422.79
655.22	420.66
655.56	418.48
655.90	416.12
656.25	414.07
656.59	412.02
656.93	410.00
657.27	408.15
657.61	405.98
657.95	403.92
658.29	401.91
658.64	400.14
658.98	398.05
659.32	395.97
659.66	394.02
660.00	392.12
660.34	390.36
660.68	388.51
661.02	386.62
661.36	384.73
661.70	382.88
662.05	381.08
662.39	379.25
662.73	377.53
663.07	376.20
663.41	374.48
663.75	372.68
664.09	370.98
664.43	369.35
664.77	367.90
665.11	366.41
665.45	365.01
665.79	363.35
666.13	361.85
666.47	360.38
666.81	358.80
667.15	357.26
667.49	355.78
667.83	354.51
668.17	353.11
668.51	351.80
668.85	350.58
669.19	349.55
669.53	348.11
669.87	346.63
670.21	345.13
670.55	343.93
670.89	343.02
671.23	341.80
671.57	340.42
671.91	339.22
672.25	337.94
672.58	336.71
672.92	335.37
673.26	334.17
673.60	333.06
673.94	331.98
674.28	330.92
674.62	329.88
674.96	328.62
675.30	327.49
675.64	326.30
675.97	325.16
676.31	323.86
676.65	322.80
676.99	322.04
677.33	320.93
677.67	319.87
678.01	318.59
678.34	317.67
678.68	316.73
679.02	315.68
679.36	314.76
679.70	313.77
680.04	312.93
680.37	312.10
680.71	311.21
681.05	310.28
681.39	309.50
681.73	308.59
682.06	307.74
682.40	306.87
682.74	306.23
683.08	305.45
683.42	304.60
683.75	303.85
684.09	302.88
684.43	302.18
684.77	301.35
685.10	300.54
685.44	299.75
685.78	298.99
686.12	298.32
686.45	297.54
686.79	296.77
687.13	296.18
687.46	295.35
687.80	294.71
688.14	294.02
688.48	293.23
688.81	292.52
689.15	291.95
689.49	291.37
689.82	290.69
690.16	289.88
690.50	289.21
690.83	288.55
691.17	287.72
691.51	287.08
691.84	286.52
692.18	285.91
692.52	285.30
692.85	284.78
693.19	284.30
693.52	283.77
693.86	283.18
694.20	282.58
694.53	282.14
694.87	281.51
695.21	280.89
695.54	280.35
695.88	279.73
696.21	279.07
696.55	278.40
696.88	277.74
697.22	277.23
697.56	276.87
697.89	276.30
698.23	275.91
698.56	275.36
698.90	274.94
699.23	274.37
699.57	273.95
699.90	273.40
700.24	272.84
700.58	272.39
700.91	272.05
701.25	271.99
701.58	271.94
701.92	271.60
702.25	271.27
702.59	270.79
702.92	270.44
703.26	270.07
703.59	269.70
703.93	269.72
704.26	269.43
704.60	268.97
704.93	268.51
705.26	268.09
705.60	267.72
705.93	267.19
706.27	267.07
706.60	266.82
706.94	266.71
707.27	266.29
707.61	265.95
707.94	265.48
708.27	264.73
708.61	263.90
708.94	263.52
709.28	263.13
709.61	262.72
709.94	262.39
710.28	262.00
710.61	261.70
710.95	260.99
711.28	260.93
711.61	260.60
711.95	260.48
712.28	260.19
712.61	259.94
712.95	259.89
713.28	259.76
713.61	259.28
713.95	258.74
714.28	258.50
714.61	258.13
714.95	257.85
715.28	257.47
715.61	257.19
715.95	256.90
716.28	256.50
716.61	256.30
716.95	255.95
717.28	255.74
717.61	255.44
717.94	255.20
718.28	254.58
718.61	254.25
718.94	253.88
719.27	253.60
719.61	253.30
719.94	252.93
720.27	252.36
720.60	252.11
720.94	251.89
721.27	251.70
721.60	251.58
721.93	251.32
722.27	251.30
722.60	251.13
722.93	250.90
723.26	250.79
723.59	250.53
723.93	250.37
724.26	250.14
724.59	249.91
724.92	249.69
725.25	249.70
725.59	249.50
725.92	249.37
726.25	249.08
726.58	248.91
726.91	248.67
727.24	248.50
727.57	248.23
727.91	247.91
728.24	247.75
728.57	247.41
728.90	247.29
729.23	246.93
729.56	247.01
729.89	246.84
730.22	246.53
730.55	246.36
730.89	246.16
731.22	245.98
731.55	245.83
731.88	245.68
732.21	245.31
732.54	245.08
732.87	244.93
733.20	244.84
733.53	244.63
733.86	244.46
734.19	244.25
734.52	244.26
734.85	244.44
735.18	244.16
735.51	244.23
735.84	244.10
736.17	244.09
736.50	243.64
736.83	243.99
737.16	243.92
737.49	243.86
737.82	243.73
738.15	243.70
738.48	243.61
738.81	243.41
739.14	243.31
739.47	243.19
739.80	243.06
740.13	242.96
740.46	242.75
740.79	242.60
741.12	242.44
741.45	242.22
741.78	241.93
742.11	241.91
742.44	241.64
742.77	241.63
743.10	241.35
743.43	241.16
743.75	240.50
744.08	241.07
744.41	240.89
744.74	240.67
745.07	240.37
745.40	240.30
745.73	240.45
746.06	240.28
746.39	240.21
746.71	240.02
747.04	239.87
747.37	239.80
747.70	239.80
748.03	239.84
748.36	239.84
748.68	239.67
749.01	239.40
749.34	239.23
749.67	239.04
750.00	239.06
750.33	239.41
750.65	239.41
750.98	238.62
751.31	238.48
751.64	238.49
751.97	238.72
752.29	238.60
752.62	238.24
752.95	238.13
753.28	237.93
753.60	237.79
753.93	237.74
754.26	237.70
754.59	237.41
754.91	237.20
755.24	237.15
755.57	237.09
755.90	237.07
756.22	237.05
756.55	236.86
756.88	236.70
757.20	236.21
757.53	235.96
757.86	235.87
758.19	235.90
758.51	235.78
758.84	235.44
759.17	235.26
759.49	235.18
759.82	235.35
760.15	235.44
760.47	235.36
760.80	235.20
761.13	235.11
761.45	235.10
761.78	235.02
762.11	234.81
762.43	234.65
762.76	234.55
763.08	234.53
763.41	234.53
763.74	234.38
764.06	234.30
764.39	234.21
764.71	234.15
765.04	233.88
765.37	233.68
765.69	233.54
766.02	233.43
766.34	233.34
766.67	233.06
767.00	232.92
767.32	233.15
767.65	233.37
767.97	233.31
768.30	233.20
768.62	233.11
768.95	233.00
769.27	232.98
769.60	232.94
769.92	232.72
770.25	232.60
770.57	232.51
770.90	232.42
771.22	232.27
771.55	232.18
771.87	232.20
772.20	232.14
772.52	232.54
772.85	233.02
773.17	233.00
773.50	232.89
773.82	232.80
774.15	232.40
774.47	232.05
774.80	231.86
775.12	231.83
775.45	231.72
775.77	231.65
776.09	231.54
776.42	231.49
776.74	231.66
777.07	231.47
777.39	231.46
777.72	231.39
778.04	231.51
778.36	231.42
778.69	231.36
779.01	231.43
779.33	230.86
779.66	230.30
779.98	230.27
780.31	230.34
780.63	230.50
780.95	230.51
781.28	230.47
781.60	230.42
781.92	230.42
782.25	230.50
782.57	230.46
782.89	230.40
783.22	230.35
783.54	230.10
783.86	230.16
784.19	230.11
784.51	230.21
784.83	230.06
785.16	230.02
785.48	230.01
785.80	229.97
786.12	230.09
786.45	230.06
786.77	230.02
787.09	229.84
787.42	229.66
787.74	229.72
788.06	229.71
788.38	229.75
788.71	229.66
789.03	229.56
789.35	229.66
789.67	229.63
789.99	229.64
790.32	229.59
790.64	229.70
790.96	230.13
791.28	229.92
791.61	229.96
791.93	230.02
792.25	230.00
792.57	230.25
792.89	230.14
793.21	230.22
793.54	230.20
793.86	230.14
794.18	230.15
794.50	230.03
794.82	230.02
795.14	230.10
795.47	230.22
795.79	230.26
796.11	230.04
796.43	230.00
796.75	229.94
797.07	229.96
797.39	229.83
797.71	229.41
798.04	229.44
798.36	229.40
798.68	229.32
799.00	229.34
799.32	229.12
799.64	229.18
799.96	229.10
800.28	229.12
800.60	229.15
800.92	229.11
801.24	229.12
801.56	229.16
801.89	229.10
802.21	229.01
802.53	228.96
802.85	229.07
803.17	229.32
803.49	229.26
803.81	229.24
804.13	229.21
804.45	229.11
804.77	229.18
805.09	229.15
805.41	229.11
805.73	229.04
806.05	228.88
806.37	228.77
806.69	228.72
807.01	228.68
807.33	228.70
807.65	228.58
807.97	228.75
808.28	228.68
808.60	228.60
808.92	228.54
809.24	228.81
809.56	228.75
809.88	228.50
810.20	228.53
810.52	228.63
810.84	228.60
811.16	228.54
811.48	228.51
811.80	228.63
812.12	228.61
812.43	228.67
812.75	228.68
813.07	228.65
813.39	228.71
813.71	228.57
814.03	228.48
814.35	228.51
814.67	228.22
814.98	228.15
815.30	228.11
815.62	228.00
815.94	227.60
816.26	227.80
816.58	227.75
816.89	227.70
817.21	227.51
817.53	227.52
817.85	227.59
818.17	227.60
