SpectraSuite Data File
++++++++++++++++++++++++++++++++++++
Date: Wed Sep 04 17:49:54 EDT 2013
User: lab3
Dark Spectrum Present: Yes
Reference Spectrum Present: No
Number of Sampled Component Spectra: 1
Spectrometers: USB2E7196
Integration Time (usec): 170000 (USB2E7196)
Spectra Averaged: 20 (USB2E7196)
Boxcar Smoothing: 10 (USB2E7196)
Correct for Electrical Dark: No (USB2E7196)
Strobe/Lamp Enabled: No (USB2E7196)
Correct for Detector Non-linearity: No (USB2E7196)
Correct for Stray Light: No (USB2E7196)
Number of Pixels in Processed Spectrum: 2048
>>>>>Begin Processed Spectral Data<<<<<
339.09	0.00
339.48	211.65
339.86	213.60
340.24	215.35
340.63	216.40
341.01	225.00
341.39	219.60
341.78	221.35
342.16	224.15
342.54	223.45
342.93	212.01
343.31	222.66
343.69	223.32
344.07	223.81
344.46	224.26
344.84	224.70
345.22	224.70
345.60	225.00
345.99	225.23
346.37	225.33
346.75	225.45
347.13	225.56
347.52	225.61
347.90	225.79
348.28	225.82
348.66	225.90
349.05	225.75
349.43	225.84
349.81	225.90
350.19	225.95
350.57	226.08
350.96	226.17
351.34	226.30
351.72	226.36
352.10	226.49
352.48	226.52
352.87	226.60
353.25	226.62
353.63	226.66
354.01	226.75
354.39	226.82
354.77	226.84
355.15	227.06
355.54	227.01
355.92	226.98
356.30	226.99
356.68	227.45
357.06	227.58
357.44	227.66
357.82	227.73
358.20	228.16
358.58	228.15
358.97	228.27
359.35	228.46
359.73	228.63
360.11	228.68
360.49	228.80
360.87	228.82
361.25	228.98
361.63	229.14
362.01	229.14
362.39	229.09
362.77	229.20
363.15	229.15
363.53	229.20
363.91	229.21
364.29	229.23
364.67	228.81
365.05	228.75
365.43	228.76
365.81	228.86
366.19	228.71
366.57	228.85
366.95	228.86
367.33	228.74
367.71	228.67
368.09	228.76
368.47	228.74
368.85	228.69
369.23	228.77
369.61	228.57
369.99	228.75
370.37	228.82
370.75	229.00
371.13	228.96
371.51	228.90
371.89	228.93
372.27	228.89
372.65	228.80
373.03	228.78
373.41	228.69
373.78	228.59
374.16	228.28
374.54	228.11
374.92	227.99
375.30	227.92
375.68	227.79
376.06	227.67
376.44	227.61
376.82	227.55
377.19	227.39
377.57	227.32
377.95	227.05
378.33	226.95
378.71	226.62
379.09	226.58
379.47	226.62
379.84	226.51
380.22	226.45
380.60	226.32
380.98	226.21
381.36	226.11
381.73	225.93
382.11	226.05
382.49	225.98
382.87	225.91
383.25	225.92
383.62	226.37
384.00	226.33
384.38	226.23
384.76	226.34
385.13	226.52
385.51	226.48
385.89	226.40
386.27	226.34
386.64	226.41
387.02	226.29
387.40	226.14
387.78	226.15
388.15	226.18
388.53	226.15
388.91	226.13
389.29	226.05
389.66	226.22
390.04	226.08
390.42	226.22
390.79	226.23
391.17	226.10
391.55	225.59
391.92	225.57
392.30	225.69
392.68	225.56
393.05	225.47
393.43	225.56
393.81	225.59
394.18	225.64
394.56	225.55
394.94	225.69
395.31	225.66
395.69	225.79
396.06	225.89
396.44	225.99
396.82	225.99
397.19	226.32
397.57	226.31
397.95	226.46
398.32	226.35
398.70	226.41
399.07	226.68
399.45	226.81
399.82	226.86
400.20	226.93
400.58	227.01
400.95	227.03
401.33	227.26
401.70	227.76
402.08	227.88
402.45	228.05
402.83	228.32
403.20	228.58
403.58	228.68
403.95	228.88
404.33	229.04
404.71	229.31
405.08	229.73
405.46	229.98
405.83	230.25
406.21	230.54
406.58	230.89
406.96	231.14
407.33	231.42
407.70	231.80
408.08	232.47
408.45	232.95
408.83	233.39
409.20	233.68
409.58	233.78
409.95	234.27
410.33	234.86
410.70	235.18
411.08	235.82
411.45	236.41
411.82	236.99
412.20	237.80
412.57	238.80
412.95	239.15
413.32	240.00
413.69	240.74
414.07	241.68
414.44	242.62
414.82	243.60
415.19	244.85
415.56	246.00
415.94	247.05
416.31	248.40
416.68	249.90
417.06	251.63
417.43	253.30
417.81	255.04
418.18	256.88
418.55	258.88
418.93	260.81
419.30	262.93
419.67	265.24
420.04	267.51
420.42	269.85
420.79	272.94
421.16	275.65
421.54	278.70
421.91	281.66
422.28	284.70
422.66	288.06
423.03	291.47
423.40	294.83
423.77	298.33
424.15	301.90
424.52	305.58
424.89	309.55
425.26	313.45
425.64	317.23
426.01	321.32
426.38	325.58
426.75	330.11
427.13	334.65
427.50	339.30
427.87	344.09
428.24	348.91
428.61	353.20
428.99	358.46
429.36	363.86
429.73	369.25
430.10	374.79
430.47	380.45
430.85	385.99
431.22	392.24
431.59	398.83
431.96	405.09
432.33	411.97
432.70	418.60
433.08	426.39
433.45	433.84
433.82	441.15
434.19	449.37
434.56	457.42
434.93	464.96
435.30	472.65
435.68	481.31
436.05	489.65
436.42	497.95
436.79	505.57
437.16	513.98
437.53	522.61
437.90	531.24
438.27	539.71
438.64	548.45
439.01	556.58
439.38	563.76
439.75	570.95
440.13	578.96
440.50	586.56
440.87	592.61
441.24	598.89
441.61	605.87
441.98	610.94
442.35	616.77
442.72	622.81
443.09	628.65
443.46	632.05
443.83	634.35
444.20	636.57
444.57	639.28
444.94	640.37
445.31	641.74
445.68	643.10
446.05	643.26
446.42	642.14
446.79	640.75
447.16	639.22
447.53	637.98
447.90	634.17
448.27	630.37
448.64	625.67
449.01	622.00
449.37	615.91
449.74	609.75
450.11	602.91
450.48	595.28
450.85	587.20
451.22	580.26
451.59	573.70
451.96	567.18
452.33	559.19
452.70	551.92
453.07	543.17
453.43	534.18
453.80	525.76
454.17	517.74
454.54	510.06
454.91	502.04
455.28	494.03
455.65	486.74
456.02	480.10
456.38	473.70
456.75	465.93
457.12	459.33
457.49	453.20
457.86	446.77
458.23	441.65
458.59	436.08
458.96	430.41
459.33	425.37
459.70	420.50
460.07	416.48
460.43	411.74
460.80	407.59
461.17	403.89
461.54	400.01
461.91	396.25
462.27	392.48
462.64	389.15
463.01	385.60
463.38	382.36
463.74	378.34
464.11	375.34
464.48	372.78
464.85	370.01
465.21	367.84
465.58	365.53
465.95	362.53
466.32	360.32
466.68	358.08
467.05	355.83
467.42	353.56
467.78	351.22
468.15	349.10
468.52	347.48
468.88	345.23
469.25	343.26
469.62	341.79
469.98	340.11
470.35	338.64
470.72	337.19
471.08	335.45
471.45	334.20
471.82	332.87
472.18	331.38
472.55	330.41
472.92	329.14
473.28	328.12
473.65	327.16
474.02	326.08
474.38	325.23
474.75	324.50
475.11	323.63
475.48	322.97
475.85	322.29
476.21	321.57
476.58	321.09
476.94	320.76
477.31	320.26
477.67	319.84
478.04	319.44
478.41	319.23
478.77	319.51
479.14	319.25
479.50	319.12
479.87	319.19
480.23	319.10
480.60	319.11
480.96	319.12
481.33	319.57
481.69	319.73
482.06	319.99
482.42	320.29
482.79	320.61
483.15	320.98
483.52	321.70
483.88	322.20
484.25	322.71
484.61	323.31
484.98	323.91
485.34	324.94
485.71	325.94
486.07	326.83
486.44	327.54
486.80	328.56
487.17	329.70
487.53	331.09
487.90	332.55
488.26	334.14
488.62	335.88
488.99	337.35
489.35	339.05
489.72	340.81
490.08	342.70
490.44	344.67
490.81	346.89
491.17	348.99
491.54	351.46
491.90	354.02
492.26	356.66
492.63	359.60
492.99	362.36
493.36	365.46
493.72	368.82
494.08	372.14
494.45	375.92
494.81	379.93
495.17	383.78
495.54	387.85
495.90	392.09
496.26	396.51
496.63	401.12
496.99	405.95
497.35	411.01
497.72	416.31
498.08	421.84
498.44	427.57
498.80	433.62
499.17	439.75
499.53	446.03
499.89	452.68
500.26	459.42
500.62	466.37
500.98	473.72
501.34	481.07
501.71	488.73
502.07	496.41
502.43	504.44
502.79	512.83
503.16	521.53
503.52	530.33
503.88	539.55
504.24	549.07
504.60	559.05
504.97	569.49
505.33	579.91
505.69	590.98
506.05	601.93
506.41	613.04
506.78	624.58
507.14	636.57
507.50	648.91
507.86	661.37
508.22	674.28
508.59	687.10
508.95	700.65
509.31	714.80
509.67	729.17
510.03	743.30
510.39	757.97
510.75	772.97
511.12	788.31
511.48	803.78
511.84	819.55
512.20	835.41
512.56	851.40
512.92	867.96
513.28	884.70
513.64	901.71
514.00	919.32
514.37	936.94
514.73	954.97
515.09	973.06
515.45	991.38
515.81	1009.71
516.17	1028.34
516.53	1047.03
516.89	1065.54
517.25	1084.62
517.61	1104.67
517.97	1124.67
518.33	1144.53
518.69	1164.74
519.05	1185.16
519.41	1205.70
519.77	1226.76
520.13	1247.65
520.49	1268.04
520.85	1290.09
521.21	1311.36
521.57	1332.52
521.93	1353.08
522.29	1374.06
522.65	1394.54
523.01	1415.37
523.37	1435.94
523.73	1456.96
524.09	1477.30
524.45	1497.81
524.81	1518.71
525.17	1539.34
525.53	1560.06
525.89	1580.88
526.25	1601.55
526.61	1621.59
526.97	1642.43
527.33	1663.55
527.68	1684.85
528.04	1706.41
528.40	1726.09
528.76	1747.14
529.12	1767.45
529.48	1788.14
529.84	1807.60
530.20	1828.56
530.56	1849.32
530.91	1870.11
531.27	1890.12
531.63	1910.80
531.99	1931.13
532.35	1950.97
532.71	1970.81
533.07	1991.05
533.42	2010.64
533.78	2030.38
534.14	2050.18
534.50	2069.00
534.86	2087.88
535.21	2105.30
535.57	2123.33
535.93	2140.64
536.29	2157.76
536.65	2175.68
537.00	2193.17
537.36	2211.04
537.72	2227.12
538.08	2243.88
538.44	2260.40
538.79	2276.88
539.15	2293.09
539.51	2308.91
539.87	2323.80
540.22	2337.74
540.58	2351.68
540.94	2364.60
541.29	2376.93
541.65	2389.22
542.01	2401.66
542.37	2411.92
542.72	2422.75
543.08	2433.08
543.44	2444.34
543.79	2454.35
544.15	2463.80
544.51	2473.81
544.87	2483.03
545.22	2491.74
545.58	2499.05
545.94	2505.99
546.29	2512.19
546.65	2517.91
547.01	2523.20
547.36	2528.59
547.72	2533.94
548.07	2537.76
548.43	2543.07
548.79	2547.31
549.14	2551.32
549.50	2554.75
549.86	2558.45
550.21	2561.95
550.57	2565.36
550.92	2566.58
551.28	2567.34
551.64	2569.56
551.99	2570.80
552.35	2572.18
552.70	2574.24
553.06	2575.81
553.41	2576.83
553.77	2578.58
554.13	2580.25
554.48	2582.03
554.84	2583.17
555.19	2584.08
555.55	2585.74
555.90	2584.92
556.26	2584.23
556.61	2582.51
556.97	2580.37
557.32	2579.72
557.68	2578.55
558.03	2576.83
558.39	2575.39
558.74	2574.57
559.10	2571.14
559.45	2567.60
559.81	2563.04
560.16	2557.71
560.52	2552.72
560.87	2548.25
561.23	2542.73
561.58	2536.87
561.94	2529.70
562.29	2521.94
562.64	2515.12
563.00	2506.79
563.35	2499.94
563.71	2493.10
564.06	2486.75
564.42	2480.05
564.77	2472.86
565.12	2465.28
565.48	2457.51
565.83	2449.60
566.19	2441.57
566.54	2433.52
566.89	2425.33
567.25	2417.81
567.60	2410.68
567.96	2403.33
568.31	2395.30
568.66	2386.79
569.02	2377.51
569.37	2369.28
569.72	2362.09
570.08	2353.06
570.43	2343.36
570.78	2334.48
571.14	2325.50
571.49	2315.32
571.84	2306.01
572.20	2295.21
572.55	2285.15
572.90	2274.39
573.26	2264.40
573.61	2253.42
573.96	2242.47
574.31	2230.78
574.67	2219.20
575.02	2206.57
575.37	2193.86
575.72	2180.83
576.08	2168.53
576.43	2156.18
576.78	2143.41
577.13	2129.84
577.49	2117.09
577.84	2105.43
578.19	2093.46
578.54	2080.79
578.90	2069.06
579.25	2056.69
579.60	2044.41
579.95	2031.52
580.30	2018.38
580.66	2005.08
581.01	1991.77
581.36	1978.00
581.71	1965.60
582.06	1952.47
582.42	1940.00
582.77	1927.48
583.12	1915.65
583.47	1903.40
583.82	1891.79
584.17	1879.95
584.53	1868.41
584.88	1855.41
585.23	1842.44
585.58	1828.36
585.93	1814.96
586.28	1801.76
586.63	1788.02
586.98	1773.98
587.34	1760.90
587.69	1747.98
588.04	1735.26
588.39	1723.31
588.74	1711.44
589.09	1699.37
589.44	1686.85
589.79	1674.92
590.14	1663.28
590.49	1651.28
590.84	1639.52
591.19	1627.35
591.54	1615.01
591.89	1602.65
592.25	1592.52
592.60	1581.19
592.95	1570.06
593.30	1558.32
593.65	1546.68
594.00	1534.71
594.35	1525.21
594.70	1513.58
595.05	1502.03
595.40	1490.26
595.75	1478.34
596.10	1467.11
596.45	1455.73
596.80	1445.13
597.15	1433.57
597.50	1421.77
597.85	1410.47
598.19	1399.00
598.54	1387.58
598.89	1376.53
599.24	1366.13
599.59	1354.69
599.94	1343.94
600.29	1333.78
600.64	1323.65
600.99	1313.07
601.34	1303.87
601.69	1292.68
602.04	1283.17
602.39	1273.78
602.74	1264.69
603.08	1255.74
603.43	1246.62
603.78	1237.17
604.13	1227.74
604.48	1218.45
604.83	1209.03
605.18	1199.32
605.53	1189.87
605.87	1180.75
606.22	1172.20
606.57	1162.97
606.92	1153.69
607.27	1144.99
607.62	1136.11
607.96	1127.60
608.31	1119.78
608.66	1111.21
609.01	1102.89
609.36	1094.29
609.70	1085.97
610.05	1077.43
610.40	1068.72
610.75	1060.01
611.10	1051.76
611.44	1043.29
611.79	1035.24
612.14	1027.39
612.49	1019.69
612.83	1012.40
613.18	1004.69
613.53	997.13
613.88	989.45
614.22	981.86
614.57	974.14
614.92	966.49
615.27	959.12
615.61	951.56
615.96	944.16
616.31	936.59
616.65	929.58
617.00	922.22
617.35	915.17
617.70	908.25
618.04	901.35
618.39	894.52
618.74	888.04
619.08	881.11
619.43	874.18
619.78	867.20
620.12	860.16
620.47	853.55
620.82	846.42
621.16	839.62
621.51	833.30
621.85	827.18
622.20	820.68
622.55	814.16
622.89	807.68
623.24	801.53
623.59	795.38
623.93	789.18
624.28	783.34
624.62	777.85
624.97	772.17
625.32	766.43
625.66	760.24
626.01	754.33
626.35	748.88
626.70	743.42
627.04	738.11
627.39	732.49
627.73	727.37
628.08	722.28
628.43	716.93
628.77	711.44
629.12	706.08
629.46	701.27
629.81	696.76
630.15	692.00
630.50	687.09
630.84	682.29
631.19	677.45
631.53	672.83
631.88	667.58
632.22	662.67
632.57	658.24
632.91	653.90
633.26	649.62
633.60	645.10
633.95	640.56
634.29	636.04
634.64	631.77
634.98	626.91
635.32	622.61
635.67	618.88
636.01	615.05
636.36	610.70
636.70	606.64
637.05	602.37
637.39	598.37
637.73	594.38
638.08	590.47
638.42	586.45
638.77	582.19
639.11	578.01
639.45	573.77
639.80	569.38
640.14	565.36
640.49	561.29
640.83	557.52
641.17	553.91
641.52	550.28
641.86	546.68
642.20	543.61
642.55	540.05
642.89	536.33
643.23	532.67
643.58	529.70
643.92	526.08
644.26	522.75
644.61	519.46
644.95	516.11
645.29	512.82
645.64	509.68
645.98	506.70
646.32	503.72
646.66	500.77
647.01	497.87
647.35	495.20
647.69	492.36
648.04	489.59
648.38	486.68
648.72	483.80
649.06	480.85
649.41	477.72
649.75	474.80
650.09	472.08
650.43	469.34
650.78	466.33
651.12	463.61
651.46	460.90
651.80	458.14
652.14	455.55
652.49	453.22
652.83	450.74
653.17	448.10
653.51	445.41
653.85	443.12
654.20	440.78
654.54	438.17
654.88	435.65
655.22	433.48
655.56	431.32
655.90	429.07
656.25	426.90
656.59	424.73
656.93	422.66
657.27	420.61
657.61	418.28
657.95	416.10
658.29	413.88
658.64	411.80
658.98	409.65
659.32	407.34
659.66	404.92
660.00	402.79
660.34	400.82
660.68	398.89
661.02	396.81
661.36	394.86
661.70	392.78
662.05	390.89
662.39	388.92
662.73	387.08
663.07	385.42
663.41	383.63
663.75	381.71
664.09	379.82
664.43	377.74
664.77	376.07
665.11	374.41
665.45	372.90
665.79	371.30
666.13	369.61
666.47	367.99
666.81	366.41
667.15	364.72
667.49	363.15
667.83	361.87
668.17	360.33
668.51	359.01
668.85	357.81
669.19	356.60
669.53	354.93
669.87	353.36
670.21	351.84
670.55	350.41
670.89	349.33
671.23	347.98
671.57	346.67
671.91	345.31
672.25	343.92
672.58	342.66
672.92	341.05
673.26	339.86
673.60	338.68
673.94	337.58
674.28	336.55
674.62	335.41
674.96	333.99
675.30	332.94
675.64	331.58
675.97	330.34
676.31	328.97
676.65	327.84
676.99	326.84
677.33	325.62
677.67	324.55
678.01	323.17
678.34	322.10
678.68	321.28
679.02	320.23
679.36	319.27
679.70	318.23
680.04	317.45
680.37	316.41
680.71	315.41
681.05	314.40
681.39	313.45
681.73	312.56
682.06	311.77
682.40	310.96
682.74	310.19
683.08	309.49
683.42	308.64
683.75	307.89
684.09	306.95
684.43	306.22
684.77	305.39
685.10	304.71
685.44	303.99
685.78	303.00
686.12	302.22
686.45	301.34
686.79	300.42
687.13	299.64
687.46	298.97
687.80	298.37
688.14	297.61
688.48	296.80
688.81	296.03
689.15	295.45
689.49	294.63
689.82	293.90
690.16	292.99
690.50	292.40
690.83	291.73
691.17	291.05
691.51	290.37
691.84	289.80
692.18	289.12
692.52	288.40
692.85	287.89
693.19	287.51
693.52	286.95
693.86	286.38
694.20	285.79
694.53	285.12
694.87	284.48
695.21	283.88
695.54	283.36
695.88	282.72
696.21	281.92
696.55	281.33
696.88	280.79
697.22	280.21
697.56	279.62
697.89	279.02
698.23	278.52
698.56	277.91
698.90	277.41
699.23	276.87
699.57	276.42
699.90	275.84
700.24	275.17
700.58	274.73
700.91	274.32
701.25	274.22
701.58	274.14
701.92	273.79
702.25	273.30
702.59	272.67
702.92	272.19
703.26	271.87
703.59	271.44
703.93	271.38
704.26	270.98
704.60	270.61
704.93	270.13
705.26	269.65
705.60	269.40
705.93	268.80
706.27	268.58
706.60	268.26
706.94	268.14
707.27	267.72
707.61	267.38
707.94	267.06
708.27	266.33
708.61	265.56
708.94	265.05
709.28	264.73
709.61	264.38
709.94	264.12
710.28	263.66
710.61	263.27
710.95	262.45
711.28	262.44
711.61	262.03
711.95	261.82
712.28	261.47
712.61	261.10
712.95	261.12
713.28	260.92
713.61	260.49
713.95	259.94
714.28	259.65
714.61	259.29
714.95	258.82
715.28	258.43
715.61	258.14
715.95	257.92
716.28	257.57
716.61	257.40
716.95	257.05
717.28	256.80
717.61	256.53
717.94	256.29
718.28	255.67
718.61	255.33
718.94	254.97
719.27	254.66
719.61	254.42
719.94	253.96
720.27	253.43
720.60	253.16
720.94	252.90
721.27	252.68
721.60	252.50
721.93	252.28
722.27	252.20
722.60	251.96
722.93	251.66
723.26	251.47
723.59	251.12
723.93	250.97
724.26	250.81
724.59	250.60
724.92	250.34
725.25	250.18
725.59	250.00
725.92	249.79
726.25	249.65
726.58	249.45
726.91	249.29
727.24	249.21
727.57	249.05
727.91	248.76
728.24	248.60
728.57	248.37
728.90	248.17
729.23	247.84
729.56	247.88
729.89	247.65
730.22	247.40
730.55	247.29
730.89	247.02
731.22	246.81
731.55	246.55
731.88	246.50
732.21	246.33
732.54	246.09
732.87	245.98
733.20	245.75
733.53	245.61
733.86	245.38
734.19	245.15
734.52	245.03
734.85	245.24
735.18	245.00
735.51	244.97
735.84	244.96
736.17	245.00
736.50	244.60
736.83	245.04
737.16	244.97
737.49	244.77
737.82	244.62
738.15	244.53
738.48	244.44
738.81	244.15
739.14	243.91
739.47	243.77
739.80	243.58
740.13	243.51
740.46	243.27
740.79	243.10
741.12	242.87
741.45	242.64
741.78	242.23
742.11	242.30
742.44	241.98
742.77	241.87
743.10	241.55
743.43	241.44
743.75	240.73
744.08	241.12
744.41	240.94
744.74	240.78
745.07	240.60
745.40	240.53
745.73	240.66
746.06	240.57
746.39	240.52
746.71	240.38
747.04	240.20
747.37	240.05
747.70	240.01
748.03	239.95
748.36	239.93
748.68	239.84
749.01	239.56
749.34	239.46
749.67	239.31
750.00	239.33
750.33	239.56
750.65	239.56
750.98	238.90
751.31	238.87
751.64	238.80
751.97	238.88
752.29	238.79
752.62	238.44
752.95	238.30
753.28	238.07
753.60	237.96
753.93	237.94
754.26	237.93
754.59	237.72
754.91	237.60
755.24	237.45
755.57	237.34
755.90	237.14
756.22	237.01
756.55	236.86
756.88	236.63
757.20	236.24
757.53	235.96
757.86	235.89
758.19	235.82
758.51	235.71
758.84	235.39
759.17	235.23
759.49	235.21
759.82	235.34
760.15	235.31
760.47	235.14
760.80	234.92
761.13	234.88
761.45	234.81
761.78	234.70
762.11	234.68
762.43	234.55
762.76	234.55
763.08	234.55
763.41	234.51
763.74	234.46
764.06	234.40
764.39	234.36
764.71	234.32
765.04	234.19
765.37	234.10
765.69	233.97
766.02	233.94
766.34	233.80
766.67	233.53
767.00	233.56
767.32	233.85
767.65	234.02
767.97	233.84
768.30	233.76
768.62	233.76
768.95	233.61
769.27	233.52
769.60	233.45
769.92	233.30
770.25	233.11
770.57	232.94
770.90	232.87
771.22	232.75
771.55	232.64
771.87	232.56
772.20	232.44
772.52	232.85
772.85	233.27
773.17	233.15
773.50	233.04
773.82	232.93
774.15	232.63
774.47	232.32
774.80	232.26
775.12	232.21
775.45	232.09
775.77	232.06
776.09	232.04
776.42	232.02
776.74	232.12
777.07	232.02
777.39	232.05
777.72	231.90
778.04	231.93
778.36	231.94
778.69	231.94
779.01	232.00
779.33	231.53
779.66	231.03
779.98	231.06
780.31	231.08
780.63	231.23
780.95	231.33
781.28	231.28
781.60	231.21
781.92	231.20
782.25	231.13
782.57	231.05
782.89	230.94
783.22	230.86
783.54	230.76
783.86	230.78
784.19	230.74
784.51	230.92
784.83	230.82
785.16	230.69
785.48	230.68
785.80	230.65
786.12	230.60
786.45	230.56
786.77	230.58
787.09	230.50
787.42	230.34
787.74	230.30
788.06	230.36
788.38	230.27
788.71	230.17
789.03	230.23
789.35	230.25
789.67	230.20
789.99	230.18
790.32	230.01
790.64	230.09
790.96	230.43
791.28	230.22
791.61	230.22
791.93	230.22
792.25	230.16
792.57	230.45
792.89	230.35
793.21	230.34
793.54	230.34
793.86	230.27
794.18	230.25
794.50	230.10
794.82	230.05
795.14	230.19
795.47	230.24
795.79	230.20
796.11	230.10
796.43	230.06
796.75	230.08
797.07	230.15
797.39	230.08
797.71	229.70
798.04	229.71
798.36	229.69
798.68	229.70
799.00	229.72
799.32	229.51
799.64	229.61
799.96	229.60
800.28	229.69
800.60	229.67
800.92	229.67
801.24	229.65
801.56	229.69
801.89	229.66
802.21	229.75
802.53	229.66
802.85	229.75
803.17	230.02
803.49	229.93
803.81	229.89
804.13	229.88
804.45	229.80
804.77	229.82
805.09	229.86
805.41	229.76
805.73	229.64
806.05	229.48
806.37	229.50
806.69	229.47
807.01	229.28
807.33	229.39
807.65	229.22
807.97	229.39
808.28	229.30
808.60	229.23
808.92	229.11
809.24	229.42
809.56	229.33
809.88	229.10
810.20	229.08
810.52	229.16
810.84	229.05
811.16	229.05
811.48	228.94
811.80	229.00
812.12	229.05
812.43	229.20
812.75	229.22
813.07	229.06
813.39	229.04
813.71	228.96
814.03	228.83
814.35	228.86
814.67	228.62
814.98	228.49
815.30	228.46
815.62	228.33
815.94	228.00
816.26	228.17
816.58	228.07
816.89	228.11
817.21	227.99
817.53	228.05
817.85	228.06
