SpectraSuite Data File
++++++++++++++++++++++++++++++++++++
Date: Wed Sep 04 17:50:43 EDT 2013
User: lab3
Dark Spectrum Present: Yes
Reference Spectrum Present: No
Number of Sampled Component Spectra: 1
Spectrometers: USB2E7196
Integration Time (usec): 170000 (USB2E7196)
Spectra Averaged: 20 (USB2E7196)
Boxcar Smoothing: 10 (USB2E7196)
Correct for Electrical Dark: No (USB2E7196)
Strobe/Lamp Enabled: No (USB2E7196)
Correct for Detector Non-linearity: No (USB2E7196)
Correct for Stray Light: No (USB2E7196)
Number of Pixels in Processed Spectrum: 2048
>>>>>Begin Processed Spectral Data<<<<<
339.09	0.00
339.48	214.20
339.86	214.15
340.24	214.65
340.63	217.55
341.01	226.25
341.39	219.90
341.78	221.85
342.16	224.30
342.54	222.55
342.93	212.23
343.31	222.97
343.69	223.48
344.07	223.96
344.46	224.48
344.84	224.91
345.22	224.86
345.60	225.15
345.99	225.35
346.37	225.40
346.75	225.50
347.13	225.65
347.52	225.71
347.90	225.91
348.28	225.93
348.66	226.00
349.05	225.81
349.43	225.95
349.81	225.97
350.19	226.07
350.57	226.19
350.96	226.27
351.34	226.35
351.72	226.46
352.10	226.59
352.48	226.57
352.87	226.59
353.25	226.66
353.63	226.68
354.01	226.68
354.39	226.77
354.77	226.88
355.15	227.09
355.54	227.08
355.92	226.94
356.30	227.06
356.68	227.43
357.06	227.50
357.44	227.43
357.82	227.47
358.20	227.95
358.58	227.97
358.97	228.03
359.35	228.14
359.73	228.29
360.11	228.27
360.49	228.45
360.87	228.49
361.25	228.58
361.63	228.80
362.01	228.91
362.39	228.92
362.77	228.94
363.15	228.90
363.53	229.00
363.91	229.13
364.29	229.15
364.67	228.74
365.05	228.79
365.43	228.92
365.81	228.97
366.19	228.79
366.57	229.00
366.95	229.03
367.33	228.97
367.71	228.94
368.09	229.07
368.47	229.01
368.85	229.02
369.23	229.06
369.61	228.85
369.99	228.96
370.37	229.00
370.75	229.23
371.13	229.14
371.51	228.97
371.89	228.97
372.27	228.93
372.65	228.93
373.03	228.87
373.41	228.78
373.78	228.72
374.16	228.41
374.54	228.20
374.92	228.17
375.30	228.09
375.68	227.95
376.06	227.92
376.44	227.77
376.82	227.73
377.19	227.71
377.57	227.69
377.95	227.48
378.33	227.37
378.71	226.97
379.09	227.01
379.47	227.04
379.84	226.92
380.22	226.81
380.60	226.69
380.98	226.74
381.36	226.62
381.73	226.55
382.11	226.65
382.49	226.68
382.87	226.52
383.25	226.42
383.62	226.97
384.00	226.87
384.38	226.96
384.76	227.06
385.13	227.12
385.51	227.02
385.89	226.95
386.27	226.91
386.64	227.03
387.02	226.88
387.40	226.83
387.78	226.82
388.15	226.85
388.53	226.77
388.91	226.72
389.29	226.76
389.66	226.76
390.04	226.67
390.42	226.67
390.79	226.68
391.17	226.73
391.55	226.15
391.92	226.07
392.30	226.12
392.68	225.99
393.05	225.95
393.43	226.04
393.81	226.09
394.18	226.12
394.56	226.11
394.94	226.29
395.31	226.31
395.69	226.50
396.06	226.61
396.44	226.76
396.82	226.77
397.19	226.99
397.57	227.11
397.95	227.19
398.32	227.13
398.70	227.23
399.07	227.41
399.45	227.49
399.82	227.57
400.20	227.60
400.58	227.63
400.95	227.60
401.33	227.74
401.70	228.19
402.08	228.27
402.45	228.43
402.83	228.60
403.20	228.78
403.58	228.86
403.95	229.07
404.33	229.27
404.71	229.46
405.08	229.85
405.46	230.00
405.83	230.34
406.21	230.58
406.58	230.90
406.96	231.16
407.33	231.45
407.70	231.86
408.08	232.55
408.45	233.05
408.83	233.49
409.20	233.87
409.58	233.99
409.95	234.56
410.33	235.10
410.70	235.45
411.08	236.10
411.45	236.65
411.82	237.15
412.20	238.00
412.57	238.96
412.95	239.32
413.32	240.22
413.69	240.97
414.07	241.89
414.44	242.87
414.82	243.80
415.19	245.00
415.56	246.18
415.94	247.15
416.31	248.53
416.68	249.88
417.06	251.57
417.43	253.10
417.81	254.84
418.18	256.60
418.55	258.54
418.93	260.45
419.30	262.55
419.67	264.80
420.04	266.94
420.42	269.21
420.79	272.19
421.16	274.93
421.54	277.92
421.91	280.99
422.28	284.00
422.66	287.34
423.03	290.72
423.40	294.00
423.77	297.56
424.15	301.12
424.52	304.97
424.89	308.96
425.26	312.99
425.64	316.74
426.01	320.94
426.38	325.33
426.75	329.86
427.13	334.42
427.50	339.17
427.87	344.08
428.24	348.96
428.61	353.52
428.99	358.86
429.36	364.26
429.73	369.61
430.10	375.19
430.47	380.79
430.85	386.40
431.22	392.56
431.59	399.25
431.96	405.40
432.33	412.26
432.70	418.87
433.08	426.67
433.45	433.98
433.82	441.19
434.19	449.35
434.56	457.36
434.93	465.01
435.30	472.65
435.68	481.20
436.05	489.70
436.42	497.99
436.79	505.52
437.16	513.82
437.53	522.54
437.90	530.99
438.27	539.47
438.64	548.46
439.01	556.67
439.38	563.82
439.75	570.98
440.13	579.06
440.50	586.73
440.87	592.65
441.24	599.05
441.61	606.05
441.98	611.02
442.35	616.93
442.72	622.94
443.09	628.89
443.46	632.10
443.83	634.35
444.20	636.28
444.57	639.03
444.94	640.03
445.31	641.29
445.68	642.84
446.05	643.07
446.42	641.71
446.79	640.45
447.16	638.86
447.53	637.61
447.90	634.02
448.27	630.24
448.64	625.56
449.01	621.90
449.37	615.82
449.74	609.98
450.11	603.00
450.48	595.29
450.85	587.33
451.22	580.67
451.59	574.13
451.96	567.92
452.33	559.76
452.70	552.70
453.07	544.01
453.43	534.86
453.80	526.53
454.17	518.52
454.54	510.72
454.91	502.65
455.28	494.74
455.65	487.11
456.02	480.31
456.38	473.91
456.75	466.20
457.12	459.70
457.49	453.42
457.86	447.15
458.23	441.86
458.59	436.14
458.96	430.36
459.33	425.23
459.70	420.12
460.07	416.12
460.43	411.29
460.80	407.02
461.17	403.46
461.54	399.57
461.91	395.80
462.27	392.03
462.64	388.76
463.01	385.22
463.38	381.99
463.74	378.00
464.11	375.07
464.48	372.49
464.85	369.77
465.21	367.55
465.58	365.23
465.95	362.53
466.32	360.29
466.68	358.08
467.05	355.90
467.42	353.70
467.78	351.44
468.15	349.43
468.52	347.82
468.88	345.40
469.25	343.45
469.62	341.99
469.98	340.41
470.35	338.93
470.72	337.51
471.08	335.85
471.45	334.65
471.82	333.36
472.18	331.83
472.55	330.75
472.92	329.47
473.28	328.40
473.65	327.37
474.02	326.21
474.38	325.39
474.75	324.65
475.11	323.89
475.48	323.21
475.85	322.54
476.21	321.85
476.58	321.44
476.94	321.05
477.31	320.50
477.67	320.10
478.04	319.72
478.41	319.52
478.77	319.81
479.14	319.52
479.50	319.44
479.87	319.54
480.23	319.57
480.60	319.51
480.96	319.55
481.33	319.84
481.69	320.10
482.06	320.27
482.42	320.47
482.79	320.75
483.15	321.16
483.52	321.74
483.88	322.26
484.25	322.77
484.61	323.42
484.98	324.09
485.34	325.03
485.71	325.94
486.07	326.80
486.44	327.35
486.80	328.49
487.17	329.57
487.53	331.00
487.90	332.36
488.26	334.06
488.62	335.72
488.99	337.25
489.35	338.97
489.72	340.95
490.08	342.92
490.44	344.89
490.81	347.14
491.17	349.27
491.54	351.78
491.90	354.35
492.26	357.00
492.63	359.76
492.99	362.60
493.36	365.68
493.72	369.06
494.08	372.50
494.45	376.16
494.81	380.11
495.17	383.91
495.54	388.09
495.90	392.27
496.26	396.61
496.63	401.21
496.99	406.10
497.35	411.03
497.72	416.35
498.08	421.90
498.44	427.48
498.80	433.73
499.17	439.75
499.53	446.06
499.89	452.64
500.26	459.49
500.62	466.36
500.98	473.74
501.34	481.01
501.71	488.78
502.07	496.66
502.43	504.86
502.79	513.25
503.16	521.87
503.52	530.87
503.88	540.17
504.24	549.95
504.60	559.95
504.97	570.37
505.33	580.68
505.69	591.86
506.05	602.90
506.41	613.89
506.78	625.42
507.14	637.34
507.50	649.60
507.86	662.18
508.22	675.13
508.59	688.07
508.95	701.77
509.31	715.87
509.67	729.99
510.03	744.06
510.39	758.56
510.75	773.71
511.12	788.88
511.48	804.49
511.84	820.13
512.20	835.73
512.56	851.90
512.92	868.57
513.28	885.29
513.64	902.51
514.00	919.97
514.37	937.80
514.73	955.86
515.09	974.08
515.45	992.45
515.81	1010.74
516.17	1029.51
516.53	1048.05
516.89	1066.59
517.25	1085.84
517.61	1106.12
517.97	1126.39
518.33	1146.24
518.69	1166.45
519.05	1186.67
519.41	1207.20
519.77	1228.41
520.13	1248.91
520.49	1269.68
520.85	1291.67
521.21	1312.70
521.57	1333.82
521.93	1354.39
522.29	1375.65
522.65	1396.03
523.01	1417.05
523.37	1437.80
523.73	1458.82
524.09	1479.32
524.45	1499.86
524.81	1520.85
525.17	1541.28
525.53	1561.87
525.89	1582.50
526.25	1603.21
526.61	1623.65
526.97	1644.50
527.33	1665.63
527.68	1687.46
528.04	1708.47
528.40	1727.99
528.76	1748.74
529.12	1769.06
529.48	1789.73
529.84	1809.41
530.20	1830.53
530.56	1850.97
530.91	1871.65
531.27	1891.76
531.63	1912.26
531.99	1932.22
532.35	1951.83
532.71	1971.74
533.07	1992.07
533.42	2011.54
533.78	2031.17
534.14	2050.88
534.50	2069.81
534.86	2088.67
535.21	2105.84
535.57	2124.03
535.93	2141.29
536.29	2158.79
536.65	2176.74
537.00	2194.18
537.36	2211.66
537.72	2228.05
538.08	2244.80
538.44	2261.29
538.79	2277.52
539.15	2293.84
539.51	2309.76
539.87	2324.76
540.22	2338.83
540.58	2352.89
540.94	2366.00
541.29	2378.28
541.65	2390.35
542.01	2402.58
542.37	2413.00
542.72	2423.93
543.08	2434.39
543.44	2446.46
543.79	2456.17
544.15	2465.55
544.51	2475.05
544.87	2484.54
545.22	2492.87
545.58	2500.58
545.94	2507.40
546.29	2513.68
546.65	2519.86
547.01	2525.67
547.36	2531.11
547.72	2536.32
548.07	2539.98
548.43	2545.47
548.79	2550.09
549.14	2554.49
549.50	2557.96
549.86	2561.74
550.21	2565.25
550.57	2568.64
550.92	2569.76
551.28	2571.22
551.64	2573.49
551.99	2575.47
552.35	2576.85
552.70	2579.02
553.06	2580.54
553.41	2581.72
553.77	2583.55
554.13	2584.83
554.48	2586.45
554.84	2587.86
555.19	2588.86
555.55	2590.56
555.90	2589.75
556.26	2588.90
556.61	2586.98
556.97	2584.95
557.32	2584.12
557.68	2582.96
558.03	2580.99
558.39	2579.35
558.74	2578.27
559.10	2575.25
559.45	2571.60
559.81	2567.05
560.16	2561.63
560.52	2556.80
560.87	2552.46
561.23	2546.70
561.58	2540.82
561.94	2533.41
562.29	2525.83
562.64	2519.19
563.00	2510.95
563.35	2504.31
563.71	2497.48
564.06	2491.19
564.42	2484.67
564.77	2477.56
565.12	2469.90
565.48	2462.40
565.83	2454.39
566.19	2446.40
566.54	2438.48
566.89	2430.39
567.25	2422.89
567.60	2415.75
567.96	2407.86
568.31	2399.61
568.66	2391.02
569.02	2382.06
569.37	2374.10
569.72	2366.56
570.08	2356.85
570.43	2347.12
570.78	2338.11
571.14	2328.78
571.49	2318.78
571.84	2309.09
572.20	2298.53
572.55	2288.73
572.90	2278.00
573.26	2267.90
573.61	2256.80
573.96	2245.86
574.31	2234.09
574.67	2221.97
575.02	2209.44
575.37	2196.98
575.72	2184.17
576.08	2172.40
576.43	2160.06
576.78	2146.86
577.13	2133.48
577.49	2120.91
577.84	2109.46
578.19	2097.35
578.54	2085.32
578.90	2073.19
579.25	2061.05
579.60	2048.64
579.95	2035.73
580.30	2022.73
580.66	2009.25
581.01	1996.05
581.36	1982.00
581.71	1969.43
582.06	1956.48
582.42	1944.09
582.77	1931.34
583.12	1919.28
583.47	1906.82
583.82	1894.87
584.17	1883.04
584.53	1871.26
584.88	1858.56
585.23	1845.32
585.58	1831.32
585.93	1817.65
586.28	1804.54
586.63	1790.78
586.98	1776.72
587.34	1763.42
587.69	1750.20
588.04	1737.88
588.39	1725.80
588.74	1713.89
589.09	1701.84
589.44	1689.68
589.79	1677.91
590.14	1666.44
590.49	1654.45
590.84	1642.33
591.19	1630.15
591.54	1618.21
591.89	1605.79
592.25	1595.64
592.60	1584.45
592.95	1573.05
593.30	1561.26
593.65	1549.59
594.00	1537.80
594.35	1528.00
594.70	1516.21
595.05	1504.85
595.40	1492.76
595.75	1480.90
596.10	1469.68
596.45	1458.43
596.80	1447.66
597.15	1436.10
597.50	1424.25
597.85	1413.12
598.19	1401.90
598.54	1390.60
598.89	1379.43
599.24	1369.25
599.59	1357.61
599.94	1347.00
600.29	1336.76
600.64	1326.96
600.99	1316.18
601.34	1306.82
601.69	1295.72
602.04	1286.24
602.39	1276.77
602.74	1267.81
603.08	1258.67
603.43	1249.50
603.78	1239.94
604.13	1230.39
604.48	1220.64
604.83	1210.99
605.18	1201.14
605.53	1191.73
605.87	1182.55
606.22	1174.16
606.57	1164.84
606.92	1155.58
607.27	1146.50
607.62	1137.90
607.96	1129.20
608.31	1121.47
608.66	1113.00
609.01	1104.74
609.36	1096.17
609.70	1087.85
610.05	1079.20
610.40	1070.68
610.75	1062.18
611.10	1053.91
611.44	1045.31
611.79	1037.41
612.14	1029.70
612.49	1022.07
612.83	1014.78
613.18	1007.09
613.53	999.28
613.88	991.31
614.22	983.80
614.57	975.99
614.92	968.12
615.27	960.52
615.61	952.95
615.96	945.26
616.31	937.68
616.65	930.75
617.00	923.52
617.35	916.64
617.70	909.62
618.04	902.54
618.39	895.56
618.74	889.32
619.08	882.47
619.43	875.61
619.78	868.58
620.12	861.15
620.47	854.45
620.82	847.41
621.16	840.82
621.51	834.52
621.85	828.60
622.20	822.13
622.55	815.77
622.89	809.38
623.24	803.20
623.59	797.14
623.93	790.96
624.28	784.89
624.62	779.12
624.97	773.51
625.32	767.80
625.66	762.05
626.01	755.98
626.35	750.56
626.70	745.17
627.04	740.13
627.39	734.91
627.73	729.55
628.08	724.44
628.43	719.06
628.77	713.65
629.12	708.21
629.46	703.58
629.81	698.86
630.15	694.15
630.50	689.45
630.84	684.60
631.19	679.79
631.53	675.20
631.88	670.03
632.22	665.05
632.57	660.71
632.91	655.95
633.26	651.58
633.60	646.95
633.95	642.35
634.29	637.50
634.64	633.17
634.98	628.55
635.32	624.28
635.67	620.35
636.01	616.17
636.36	611.96
636.70	607.81
637.05	603.67
637.39	599.52
637.73	595.37
638.08	591.39
638.42	587.15
638.77	582.94
639.11	578.63
639.45	574.50
639.80	570.06
640.14	566.26
640.49	562.21
640.83	558.46
641.17	554.79
641.52	551.28
641.86	547.76
642.20	544.72
642.55	541.01
642.89	537.52
643.23	534.10
643.58	530.97
643.92	527.49
644.26	524.16
644.61	520.97
644.95	517.62
645.29	514.24
645.64	511.18
645.98	508.03
646.32	505.29
646.66	502.28
647.01	499.38
647.35	496.60
647.69	493.77
648.04	490.95
648.38	488.25
648.72	485.32
649.06	482.16
649.41	478.98
649.75	476.09
650.09	473.30
650.43	470.50
650.78	467.61
651.12	464.69
651.46	461.92
651.80	459.05
652.14	456.46
652.49	454.05
652.83	451.49
653.17	448.90
653.51	446.16
653.85	443.77
654.20	441.30
654.54	438.68
654.88	436.21
655.22	434.07
655.56	431.55
655.90	429.30
656.25	427.07
656.59	424.90
656.93	422.75
657.27	420.61
657.61	418.25
657.95	415.96
658.29	413.80
658.64	411.72
658.98	409.69
659.32	407.42
659.66	405.29
660.00	403.24
660.34	401.18
660.68	399.14
661.02	397.05
661.36	395.17
661.70	393.11
662.05	391.16
662.39	389.15
662.73	387.39
663.07	385.73
663.41	384.00
663.75	382.13
664.09	380.35
664.43	378.38
664.77	376.70
665.11	375.07
665.45	373.45
665.79	371.81
666.13	370.14
666.47	368.55
666.81	366.77
667.15	365.00
667.49	363.55
667.83	362.35
668.17	361.02
668.51	359.49
668.85	358.22
669.19	357.10
669.53	355.56
669.87	354.04
670.21	352.49
670.55	351.06
670.89	350.01
671.23	348.65
671.57	347.27
671.91	345.95
672.25	344.60
672.58	343.48
672.92	342.01
673.26	340.66
673.60	339.44
673.94	338.41
674.28	337.32
674.62	336.16
674.96	334.70
675.30	333.45
675.64	332.25
675.97	331.03
676.31	329.69
676.65	328.47
676.99	327.49
677.33	326.41
677.67	325.42
678.01	324.04
678.34	322.98
678.68	322.09
679.02	321.02
679.36	319.97
679.70	318.83
680.04	317.91
680.37	316.95
680.71	316.04
681.05	315.07
681.39	314.26
681.73	313.32
682.06	312.39
682.40	311.47
682.74	310.65
683.08	309.90
683.42	309.02
683.75	308.20
684.09	307.34
684.43	306.51
684.77	305.66
685.10	304.90
685.44	304.13
685.78	303.28
686.12	302.48
686.45	301.71
686.79	300.93
687.13	300.27
687.46	299.61
687.80	298.92
688.14	298.05
688.48	297.24
688.81	296.47
689.15	295.96
689.49	295.30
689.82	294.64
690.16	293.78
690.50	293.06
690.83	292.42
691.17	291.62
691.51	290.94
691.84	290.29
692.18	289.59
692.52	288.85
692.85	288.27
693.19	287.81
693.52	287.14
693.86	286.43
694.20	285.77
694.53	285.11
694.87	284.46
695.21	283.92
695.54	283.39
695.88	282.74
696.21	282.01
696.55	281.41
696.88	280.73
697.22	280.08
697.56	279.53
697.89	278.85
698.23	278.40
698.56	277.85
698.90	277.34
699.23	276.79
699.57	276.38
699.90	275.75
700.24	275.14
700.58	274.69
700.91	274.28
701.25	274.13
701.58	274.07
701.92	273.66
702.25	273.27
702.59	272.75
702.92	272.39
703.26	271.97
703.59	271.53
703.93	271.49
704.26	271.20
704.60	270.89
704.93	270.46
705.26	269.91
705.60	269.55
705.93	268.97
706.27	268.74
706.60	268.39
706.94	268.21
707.27	267.81
707.61	267.41
707.94	267.03
708.27	266.22
708.61	265.45
708.94	265.02
709.28	264.56
709.61	264.09
709.94	263.68
710.28	263.35
710.61	262.96
710.95	262.20
711.28	262.06
711.61	261.57
711.95	261.40
712.28	261.01
712.61	260.58
712.95	260.53
713.28	260.31
713.61	259.92
713.95	259.47
714.28	259.17
714.61	258.90
714.95	258.57
715.28	258.22
715.61	257.87
715.95	257.58
716.28	257.20
716.61	257.06
716.95	256.71
717.28	256.31
717.61	255.99
717.94	255.72
718.28	255.09
718.61	254.84
718.94	254.52
719.27	254.34
719.61	254.07
719.94	253.71
720.27	253.27
720.60	252.97
720.94	252.63
721.27	252.42
721.60	252.22
721.93	251.97
722.27	251.93
722.60	251.77
722.93	251.52
723.26	251.37
723.59	251.09
723.93	250.91
724.26	250.80
724.59	250.54
724.92	250.39
725.25	250.37
725.59	250.18
725.92	250.01
726.25	249.84
726.58	249.65
726.91	249.47
727.24	249.30
727.57	249.11
727.91	248.94
728.24	248.77
728.57	248.52
728.90	248.34
729.23	248.03
729.56	248.12
729.89	247.97
730.22	247.76
730.55	247.55
730.89	247.43
731.22	247.23
731.55	247.09
731.88	246.93
732.21	246.71
732.54	246.42
732.87	246.18
733.20	245.91
733.53	245.79
733.86	245.56
734.19	245.40
734.52	245.27
734.85	245.41
735.18	245.20
735.51	245.16
735.84	245.09
736.17	245.00
736.50	244.51
736.83	244.82
737.16	244.69
737.49	244.54
737.82	244.36
738.15	244.25
738.48	244.16
738.81	243.92
739.14	243.60
739.47	243.49
739.80	243.31
740.13	243.29
740.46	243.06
740.79	242.89
741.12	242.69
741.45	242.51
741.78	242.05
742.11	242.04
742.44	241.77
742.77	241.69
743.10	241.51
743.43	241.38
743.75	240.84
744.08	241.35
744.41	241.21
744.74	241.06
745.07	240.80
745.40	240.75
745.73	240.90
746.06	240.85
746.39	240.78
746.71	240.64
747.04	240.42
747.37	240.25
747.70	240.22
748.03	240.07
748.36	240.02
748.68	239.98
749.01	239.67
749.34	239.55
749.67	239.31
750.00	239.25
750.33	239.49
750.65	239.37
750.98	238.55
751.31	238.46
751.64	238.34
751.97	238.48
752.29	238.35
752.62	237.99
752.95	237.79
753.28	237.63
753.60	237.54
753.93	237.53
754.26	237.52
754.59	237.25
754.91	237.11
755.24	237.00
755.57	236.86
755.90	236.79
756.22	236.69
756.55	236.53
756.88	236.31
757.20	235.86
757.53	235.60
757.86	235.59
758.19	235.50
758.51	235.39
758.84	235.07
759.17	234.88
759.49	234.80
759.82	234.99
760.15	235.03
760.47	234.98
760.80	234.81
761.13	234.80
761.45	234.65
761.78	234.55
762.11	234.42
762.43	234.29
762.76	234.20
763.08	234.20
763.41	234.24
763.74	234.24
764.06	234.14
764.39	234.10
764.71	234.08
765.04	233.94
765.37	233.88
765.69	233.79
766.02	233.66
766.34	233.61
766.67	233.35
767.00	233.30
767.32	233.45
767.65	233.63
767.97	233.47
768.30	233.51
768.62	233.52
768.95	233.36
769.27	233.28
769.60	233.21
769.92	233.08
770.25	232.90
770.57	232.69
770.90	232.63
771.22	232.62
771.55	232.50
771.87	232.54
772.20	232.47
772.52	232.84
772.85	233.42
773.17	233.31
773.50	233.28
773.82	233.08
774.15	232.78
774.47	232.46
774.80	232.39
775.12	232.40
775.45	232.29
775.77	232.36
776.09	232.38
776.42	232.39
776.74	232.50
777.07	232.47
777.39	232.60
777.72	232.54
778.04	232.49
778.36	232.40
778.69	232.29
779.01	232.24
779.33	231.77
779.66	231.16
779.98	231.13
780.31	231.05
780.63	231.30
780.95	231.39
781.28	231.29
781.60	231.26
781.92	231.12
782.25	231.13
782.57	231.04
782.89	230.98
783.22	230.88
783.54	230.73
783.86	230.78
784.19	230.57
784.51	230.64
784.83	230.53
785.16	230.47
785.48	230.49
785.80	230.50
786.12	230.50
786.45	230.43
786.77	230.43
787.09	230.35
787.42	230.09
787.74	229.97
788.06	230.00
788.38	229.97
788.71	229.95
789.03	229.89
789.35	229.89
789.67	229.72
789.99	229.77
790.32	229.65
790.64	229.59
790.96	230.00
791.28	229.80
791.61	229.71
791.93	229.75
792.25	229.69
792.57	229.98
792.89	229.85
793.21	229.89
793.54	229.81
793.86	229.77
794.18	229.80
794.50	229.68
794.82	229.62
795.14	229.59
795.47	229.66
795.79	229.66
796.11	229.52
796.43	229.57
796.75	229.53
797.07	229.51
797.39	229.50
797.71	229.14
798.04	229.23
798.36	229.26
798.68	229.13
799.00	229.13
799.32	228.84
799.64	228.96
799.96	228.96
800.28	229.05
800.60	229.08
800.92	229.07
801.24	229.08
801.56	229.16
801.89	229.13
802.21	229.10
802.53	229.00
802.85	229.12
803.17	229.28
803.49	229.21
803.81	229.22
804.13	229.13
804.45	229.07
804.77	229.06
805.09	229.06
805.41	229.10
805.73	228.97
806.05	228.91
806.37	228.82
806.69	228.74
807.01	228.72
807.33	228.71
807.65	228.56
807.97	228.78
808.28	228.69
808.60	228.70
808.92	228.65
809.24	228.98
809.56	228.96
809.88	228.84
810.20	228.87
810.52	228.86
810.84	228.85
811.16	228.81
811.48	228.76
811.80	228.92
812.12	228.87
812.43	228.95
812.75	228.90
813.07	228.87
813.39	228.87
813.71	228.74
814.03	228.68
814.35	228.65
814.67	228.44
814.98	228.39
815.30	228.35
815.62	228.26
815.94	227.84
816.26	227.95
816.58	227.85
816.89	227.87
817.21	227.86
817.53	227.97
817.85	228.01
