SpectraSuite Data File
++++++++++++++++++++++++++++++++++++
Date: Wed Sep 04 17:47:38 EDT 2013
User: lab3
Dark Spectrum Present: Yes
Reference Spectrum Present: No
Number of Sampled Component Spectra: 1
Spectrometers: USB2E7196
Integration Time (usec): 170000 (USB2E7196)
Spectra Averaged: 20 (USB2E7196)
Boxcar Smoothing: 10 (USB2E7196)
Correct for Electrical Dark: No (USB2E7196)
Strobe/Lamp Enabled: No (USB2E7196)
Correct for Detector Non-linearity: No (USB2E7196)
Correct for Stray Light: No (USB2E7196)
Number of Pixels in Processed Spectrum: 2048
>>>>>Begin Processed Spectral Data<<<<<
339.09	0.00
339.48	213.25
339.86	213.95
340.24	215.95
340.63	216.10
341.01	225.30
341.39	220.40
341.78	222.05
342.16	223.90
342.54	223.70
342.93	211.89
343.31	222.59
343.69	223.14
344.07	223.63
344.46	224.12
344.84	224.60
345.22	224.56
345.60	224.82
345.99	225.00
346.37	225.09
346.75	225.20
347.13	225.30
347.52	225.44
347.90	225.69
348.28	225.73
348.66	225.82
349.05	225.70
349.43	225.82
349.81	225.98
350.19	226.01
350.57	226.03
350.96	226.16
351.34	226.22
351.72	226.25
352.10	226.33
352.48	226.37
352.87	226.35
353.25	226.48
353.63	226.46
354.01	226.52
354.39	226.60
354.77	226.57
355.15	226.79
355.54	226.74
355.92	226.58
356.30	226.61
356.68	227.02
357.06	227.10
357.44	227.05
357.82	227.04
358.20	227.57
358.58	227.62
358.97	227.64
359.35	227.83
359.73	227.97
360.11	228.04
360.49	228.05
360.87	228.07
361.25	228.18
361.63	228.40
362.01	228.42
362.39	228.36
362.77	228.62
363.15	228.60
363.53	228.67
363.91	228.82
364.29	228.88
364.67	228.49
365.05	228.58
365.43	228.68
365.81	228.79
366.19	228.65
366.57	228.86
366.95	228.91
367.33	228.75
367.71	228.77
368.09	228.86
368.47	228.88
368.85	228.96
369.23	229.04
369.61	228.94
369.99	229.09
370.37	229.25
370.75	229.37
371.13	229.25
371.51	229.28
371.89	229.29
372.27	229.30
372.65	229.35
373.03	229.28
373.41	229.21
373.78	229.07
374.16	228.79
374.54	228.61
374.92	228.49
375.30	228.49
375.68	228.38
376.06	228.36
376.44	228.32
376.82	228.33
377.19	228.21
377.57	228.09
377.95	227.95
378.33	227.88
378.71	227.51
379.09	227.55
379.47	227.47
379.84	227.37
380.22	227.20
380.60	227.10
380.98	226.97
381.36	226.93
381.73	226.86
382.11	226.81
382.49	226.81
382.87	226.75
383.25	226.70
383.62	227.18
384.00	227.00
384.38	226.96
384.76	226.98
385.13	227.14
385.51	227.10
385.89	227.00
386.27	226.92
386.64	226.94
387.02	226.84
387.40	226.71
387.78	226.65
388.15	226.68
388.53	226.59
388.91	226.61
389.29	226.52
389.66	226.61
390.04	226.53
390.42	226.55
390.79	226.46
391.17	226.44
391.55	225.85
391.92	225.81
392.30	225.77
392.68	225.54
393.05	225.47
393.43	225.44
393.81	225.43
394.18	225.34
394.56	225.37
394.94	225.53
395.31	225.54
395.69	225.81
396.06	225.90
396.44	225.92
396.82	225.92
397.19	226.20
397.57	226.12
397.95	226.25
398.32	226.18
398.70	226.36
399.07	226.58
399.45	226.65
399.82	226.79
400.20	226.83
400.58	227.00
400.95	226.89
401.33	227.11
401.70	227.54
402.08	227.69
402.45	227.85
402.83	228.06
403.20	228.28
403.58	228.26
403.95	228.49
404.33	228.77
404.71	228.94
405.08	229.43
405.46	229.70
405.83	229.98
406.21	230.18
406.58	230.43
406.96	230.60
407.33	230.93
407.70	231.20
408.08	232.05
408.45	232.43
408.83	232.92
409.20	233.31
409.58	233.48
409.95	234.08
410.33	234.51
410.70	234.82
411.08	235.36
411.45	236.00
411.82	236.53
412.20	237.25
412.57	238.27
412.95	238.55
413.32	239.50
413.69	240.30
414.07	241.25
414.44	242.29
414.82	243.30
415.19	244.52
415.56	245.80
415.94	246.72
416.31	248.21
416.68	249.61
417.06	251.17
417.43	252.76
417.81	254.44
418.18	256.33
418.55	258.35
418.93	260.41
419.30	262.45
419.67	264.70
420.04	267.01
420.42	269.35
420.79	272.47
421.16	275.16
421.54	278.23
421.91	281.22
422.28	284.20
422.66	287.50
423.03	290.92
423.40	294.21
423.77	297.69
424.15	301.17
424.52	304.92
424.89	309.14
425.26	313.05
425.64	316.83
426.01	320.92
426.38	325.17
426.75	329.53
427.13	334.05
427.50	338.67
427.87	343.50
428.24	348.29
428.61	352.64
428.99	357.88
429.36	363.19
429.73	368.53
430.10	373.98
430.47	379.49
430.85	385.00
431.22	391.07
431.59	397.83
431.96	404.17
432.33	411.02
432.70	417.64
433.08	425.43
433.45	432.62
433.82	439.84
434.19	447.84
434.56	456.03
434.93	463.56
435.30	471.17
435.68	479.56
436.05	487.83
436.42	496.13
436.79	503.64
437.16	511.95
437.53	520.65
437.90	529.26
438.27	537.75
438.64	546.64
439.01	554.76
439.38	561.68
439.75	568.56
440.13	576.49
440.50	583.68
440.87	589.63
441.24	595.90
441.61	602.64
441.98	607.62
442.35	613.08
442.72	619.02
443.09	624.77
443.46	628.22
443.83	630.46
444.20	632.31
444.57	635.10
444.94	636.11
445.31	637.22
445.68	638.58
446.05	638.78
446.42	637.36
446.79	635.98
447.16	634.45
447.53	633.11
447.90	629.42
448.27	625.95
448.64	621.08
449.01	617.47
449.37	611.52
449.74	605.67
450.11	599.05
450.48	591.47
450.85	583.67
451.22	576.83
451.59	570.48
451.96	564.30
452.33	556.24
452.70	548.95
453.07	540.40
453.43	531.37
453.80	523.01
454.17	515.00
454.54	507.52
454.91	499.50
455.28	491.77
455.65	484.39
456.02	477.61
456.38	471.33
456.75	463.80
457.12	457.37
457.49	451.20
457.86	444.86
458.23	439.74
458.59	433.99
458.96	428.28
459.33	423.14
459.70	418.16
460.07	414.17
460.43	409.64
460.80	405.50
461.17	401.95
461.54	398.15
461.91	394.47
462.27	390.58
462.64	387.31
463.01	383.80
463.38	380.63
463.74	376.72
464.11	373.80
464.48	371.22
464.85	368.51
465.21	366.32
465.58	363.99
465.95	361.18
466.32	359.07
466.68	356.90
467.05	354.80
467.42	352.66
467.78	350.25
468.15	348.20
468.52	346.67
468.88	344.48
469.25	342.51
469.62	341.14
469.98	339.57
470.35	338.11
470.72	336.68
471.08	334.98
471.45	333.83
471.82	332.68
472.18	331.17
472.55	330.24
472.92	329.09
473.28	328.06
473.65	327.02
474.02	326.05
474.38	325.26
474.75	324.50
475.11	323.59
475.48	323.03
475.85	322.42
476.21	321.65
476.58	321.19
476.94	320.89
477.31	320.42
477.67	319.98
478.04	319.70
478.41	319.51
478.77	319.81
479.14	319.42
479.50	319.33
479.87	319.53
480.23	319.44
480.60	319.35
480.96	319.49
481.33	319.89
481.69	320.11
482.06	320.33
482.42	320.61
482.79	320.86
483.15	321.28
483.52	321.83
483.88	322.34
484.25	322.84
484.61	323.45
484.98	324.10
485.34	325.21
485.71	326.20
486.07	327.08
486.44	327.65
486.80	328.75
487.17	329.90
487.53	331.13
487.90	332.60
488.26	334.28
488.62	335.87
488.99	337.32
489.35	338.91
489.72	340.75
490.08	342.74
490.44	344.95
490.81	347.16
491.17	349.27
491.54	351.73
491.90	354.20
492.26	356.84
492.63	359.69
492.99	362.41
493.36	365.35
493.72	368.65
494.08	372.15
494.45	375.85
494.81	379.75
495.17	383.70
495.54	387.74
495.90	391.96
496.26	396.43
496.63	401.07
496.99	405.97
497.35	410.88
497.72	416.06
498.08	421.39
498.44	427.03
498.80	433.16
499.17	439.23
499.53	445.49
499.89	452.12
500.26	458.87
500.62	465.63
500.98	472.94
501.34	480.35
501.71	488.00
502.07	495.71
502.43	503.74
502.79	512.10
503.16	520.66
503.52	529.58
503.88	538.77
504.24	548.32
504.60	558.16
504.97	568.48
505.33	578.69
505.69	589.65
506.05	600.67
506.41	611.89
506.78	623.46
507.14	635.50
507.50	647.57
507.86	660.09
508.22	673.23
508.59	686.24
508.95	699.82
509.31	713.77
509.67	727.93
510.03	742.00
510.39	756.40
510.75	771.38
511.12	786.43
511.48	801.85
511.84	817.37
512.20	833.18
512.56	849.24
512.92	865.99
513.28	882.53
513.64	899.45
514.00	916.69
514.37	934.26
514.73	952.09
515.09	970.14
515.45	988.31
515.81	1006.40
516.17	1025.15
516.53	1043.50
516.89	1062.04
517.25	1081.28
517.61	1101.25
517.97	1121.36
518.33	1140.95
518.69	1161.01
519.05	1181.31
519.41	1201.51
519.77	1222.37
520.13	1242.94
520.49	1263.26
520.85	1285.26
521.21	1306.18
521.57	1327.05
521.93	1347.68
522.29	1368.80
522.65	1389.41
523.01	1410.09
523.37	1430.77
523.73	1451.53
524.09	1471.73
524.45	1492.07
524.81	1512.54
525.17	1532.94
525.53	1553.13
525.89	1573.90
526.25	1594.60
526.61	1614.63
526.97	1635.57
527.33	1656.47
527.68	1677.79
528.04	1698.77
528.40	1718.16
528.76	1738.66
529.12	1758.97
529.48	1779.36
529.84	1798.86
530.20	1819.44
530.56	1839.69
530.91	1859.93
531.27	1879.80
531.63	1900.15
531.99	1920.49
532.35	1940.28
532.71	1960.13
533.07	1980.46
533.42	1999.81
533.78	2019.01
534.14	2038.50
534.50	2057.36
534.86	2076.12
535.21	2093.54
535.57	2111.66
535.93	2128.90
536.29	2146.15
536.65	2163.90
537.00	2181.21
537.36	2198.44
537.72	2214.44
538.08	2231.01
538.44	2247.02
538.79	2262.80
539.15	2278.84
539.51	2294.13
539.87	2308.76
540.22	2322.22
540.58	2336.15
540.94	2348.94
541.29	2361.46
541.65	2373.62
542.01	2385.90
542.37	2396.02
542.72	2406.70
543.08	2416.70
543.44	2428.10
543.79	2438.03
544.15	2447.41
544.51	2457.13
544.87	2466.41
545.22	2474.78
545.58	2482.64
545.94	2489.70
546.29	2495.86
546.65	2501.94
547.01	2507.38
547.36	2512.48
547.72	2517.83
548.07	2521.41
548.43	2526.47
548.79	2530.86
549.14	2534.50
549.50	2537.71
549.86	2541.35
550.21	2544.76
550.57	2547.93
550.92	2548.95
551.28	2550.13
551.64	2551.95
551.99	2553.39
552.35	2554.43
552.70	2556.37
553.06	2557.41
553.41	2558.61
553.77	2560.32
554.13	2561.36
554.48	2562.66
554.84	2563.73
555.19	2564.59
555.55	2566.22
555.90	2565.53
556.26	2564.20
556.61	2562.65
556.97	2560.06
557.32	2559.05
557.68	2557.41
558.03	2556.09
558.39	2554.74
558.74	2553.64
559.10	2550.42
559.45	2546.49
559.81	2542.05
560.16	2536.60
560.52	2531.32
560.87	2526.73
561.23	2521.10
561.58	2515.19
561.94	2508.49
562.29	2501.39
562.64	2494.51
563.00	2486.06
563.35	2479.43
563.71	2472.82
564.06	2466.53
564.42	2460.67
564.77	2453.69
565.12	2446.40
565.48	2438.54
565.83	2430.42
566.19	2422.13
566.54	2414.29
566.89	2406.40
567.25	2398.82
567.60	2391.97
567.96	2384.90
568.31	2376.92
568.66	2368.56
569.02	2359.82
569.37	2351.58
569.72	2344.05
570.08	2334.66
570.43	2325.15
570.78	2316.15
571.14	2306.70
571.49	2296.56
571.84	2286.75
572.20	2276.19
572.55	2266.01
572.90	2255.18
573.26	2245.21
573.61	2234.52
573.96	2223.45
574.31	2211.52
574.67	2200.05
575.02	2187.58
575.37	2175.02
575.72	2162.22
576.08	2150.09
576.43	2137.41
576.78	2124.32
577.13	2110.85
577.49	2098.43
577.84	2086.79
578.19	2074.57
578.54	2062.16
578.90	2050.32
579.25	2038.04
579.60	2025.66
579.95	2013.00
580.30	2000.19
580.66	1986.60
581.01	1973.19
581.36	1959.60
581.71	1947.19
582.06	1934.15
582.42	1921.71
582.77	1909.38
583.12	1897.63
583.47	1885.73
583.82	1874.11
584.17	1862.44
584.53	1850.74
584.88	1838.15
585.23	1825.25
585.58	1811.74
585.93	1798.74
586.28	1785.72
586.63	1771.94
586.98	1758.29
587.34	1745.23
587.69	1732.18
588.04	1720.25
588.39	1708.47
588.74	1696.37
589.09	1684.63
589.44	1672.48
589.79	1660.56
590.14	1648.61
590.49	1636.49
590.84	1624.25
591.19	1612.71
591.54	1600.54
591.89	1588.57
592.25	1578.31
592.60	1567.18
592.95	1555.90
593.30	1544.32
593.65	1532.79
594.00	1521.41
594.35	1511.77
594.70	1500.20
595.05	1489.07
595.40	1477.30
595.75	1465.72
596.10	1454.84
596.45	1443.38
596.80	1432.68
597.15	1421.60
597.50	1410.33
597.85	1399.29
598.19	1388.20
598.54	1376.65
598.89	1365.89
599.24	1355.43
599.59	1344.13
599.94	1333.61
600.29	1323.49
600.64	1313.74
600.99	1303.30
601.34	1293.97
601.69	1283.07
602.04	1273.46
602.39	1263.85
602.74	1254.81
603.08	1245.59
603.43	1236.60
603.78	1227.46
604.13	1217.97
604.48	1208.27
604.83	1198.67
605.18	1188.92
605.53	1179.69
605.87	1170.85
606.22	1162.36
606.57	1153.37
606.92	1144.28
607.27	1135.59
607.62	1127.02
607.96	1118.31
608.31	1110.51
608.66	1102.05
609.01	1093.56
609.36	1085.48
609.70	1077.08
610.05	1068.57
610.40	1060.22
610.75	1051.80
611.10	1043.50
611.44	1035.04
611.79	1027.25
612.14	1019.57
612.49	1012.16
612.83	1004.74
613.18	997.20
613.53	989.60
613.88	981.88
614.22	974.49
614.57	966.58
614.92	958.91
615.27	951.65
615.61	944.09
615.96	936.63
616.31	929.45
616.65	922.45
617.00	915.49
617.35	908.45
617.70	901.64
618.04	894.74
618.39	887.98
618.74	881.82
619.08	875.09
619.43	868.16
619.78	861.27
620.12	854.26
620.47	847.57
620.82	840.58
621.16	834.04
621.51	827.74
621.85	821.68
622.20	815.12
622.55	808.75
622.89	802.30
623.24	796.22
623.59	789.97
623.93	783.76
624.28	777.79
624.62	772.32
624.97	766.62
625.32	760.87
625.66	755.03
626.01	749.02
626.35	743.63
626.70	738.44
627.04	733.40
627.39	728.13
627.73	722.89
628.08	717.99
628.43	712.68
628.77	707.33
629.12	702.24
629.46	697.72
629.81	693.03
630.15	688.40
630.50	683.59
630.84	678.80
631.19	674.15
631.53	669.65
631.88	664.45
632.22	659.75
632.57	655.28
632.91	650.73
633.26	646.40
633.60	641.88
633.95	637.27
634.29	632.46
634.64	628.04
634.98	623.32
635.32	618.89
635.67	614.99
636.01	610.99
636.36	606.68
636.70	602.49
637.05	598.34
637.39	594.22
637.73	590.28
638.08	586.44
638.42	582.36
638.77	578.21
639.11	574.11
639.45	569.75
639.80	565.58
640.14	561.70
640.49	557.90
640.83	554.18
641.17	550.69
641.52	547.21
641.86	543.80
642.20	540.85
642.55	537.33
642.89	533.70
643.23	530.12
643.58	527.16
643.92	523.62
644.26	520.35
644.61	517.34
644.95	514.11
645.29	510.74
645.64	507.65
645.98	504.56
646.32	501.77
646.66	498.93
647.01	495.98
647.35	493.19
647.69	490.27
648.04	487.47
648.38	484.66
648.72	481.78
649.06	478.66
649.41	475.65
649.75	472.64
650.09	469.87
650.43	467.04
650.78	464.11
651.12	461.48
651.46	458.86
651.80	456.15
652.14	453.55
652.49	451.15
652.83	448.62
653.17	446.16
653.51	443.50
653.85	441.17
654.20	438.74
654.54	436.31
654.88	433.83
655.22	431.69
655.56	429.35
655.90	427.11
656.25	424.98
656.59	422.76
656.93	420.85
657.27	418.90
657.61	416.67
657.95	414.45
658.29	412.31
658.64	410.24
658.98	408.03
659.32	405.81
659.66	403.57
660.00	401.50
660.34	399.61
660.68	397.60
661.02	395.55
661.36	393.62
661.70	391.60
662.05	389.74
662.39	387.82
662.73	386.00
663.07	384.41
663.41	382.69
663.75	380.79
664.09	379.03
664.43	377.13
664.77	375.54
665.11	373.84
665.45	372.22
665.79	370.53
666.13	368.87
666.47	367.29
666.81	365.79
667.15	364.10
667.49	362.49
667.83	361.27
668.17	359.78
668.51	358.38
668.85	357.12
669.19	355.95
669.53	354.35
669.87	352.86
670.21	351.31
670.55	349.93
670.89	348.88
671.23	347.44
671.57	346.01
671.91	344.71
672.25	343.51
672.58	342.34
672.92	340.89
673.26	339.74
673.60	338.52
673.94	337.37
674.28	336.30
674.62	335.19
674.96	333.85
675.30	332.62
675.64	331.39
675.97	330.17
676.31	328.85
676.65	327.64
676.99	326.77
677.33	325.61
677.67	324.43
678.01	323.03
678.34	322.01
678.68	321.13
679.02	320.05
679.36	318.95
679.70	317.82
680.04	316.92
680.37	315.85
680.71	314.95
681.05	314.05
681.39	313.16
681.73	312.17
682.06	311.27
682.40	310.52
682.74	309.75
683.08	309.07
683.42	308.12
683.75	307.44
684.09	306.40
684.43	305.67
684.77	304.94
685.10	304.28
685.44	303.52
685.78	302.76
686.12	301.93
686.45	301.13
686.79	300.37
687.13	299.79
687.46	299.15
687.80	298.50
688.14	297.67
688.48	296.92
688.81	296.31
689.15	295.65
689.49	294.87
689.82	294.14
690.16	293.20
690.50	292.55
690.83	291.81
691.17	291.09
691.51	290.40
691.84	289.83
692.18	289.05
692.52	288.33
692.85	287.66
693.19	287.28
693.52	286.65
693.86	285.99
694.20	285.31
694.53	284.72
694.87	284.09
695.21	283.49
695.54	282.95
695.88	282.22
696.21	281.49
696.55	280.93
696.88	280.32
697.22	279.78
697.56	279.34
697.89	278.73
698.23	278.23
698.56	277.70
698.90	277.16
699.23	276.67
699.57	276.15
699.90	275.59
700.24	274.88
700.58	274.46
700.91	274.10
701.25	273.94
701.58	273.81
701.92	273.41
702.25	273.05
702.59	272.50
702.92	272.05
703.26	271.73
703.59	271.27
703.93	271.22
704.26	270.89
704.60	270.49
704.93	270.06
705.26	269.59
705.60	269.25
705.93	268.73
706.27	268.50
706.60	268.20
706.94	268.01
707.27	267.67
707.61	267.33
707.94	266.98
708.27	266.22
708.61	265.42
708.94	264.91
709.28	264.49
709.61	264.08
709.94	263.76
710.28	263.31
710.61	262.98
710.95	262.23
711.28	262.18
711.61	261.75
711.95	261.61
712.28	261.27
712.61	260.83
712.95	260.76
713.28	260.55
713.61	260.14
713.95	259.66
714.28	259.37
714.61	259.00
714.95	258.61
715.28	258.26
715.61	257.96
715.95	257.73
716.28	257.34
716.61	257.09
716.95	256.81
717.28	256.52
717.61	256.24
717.94	255.97
718.28	255.36
718.61	255.11
718.94	254.64
719.27	254.35
719.61	254.13
719.94	253.76
720.27	253.28
720.60	253.01
720.94	252.73
721.27	252.54
721.60	252.40
721.93	252.15
722.27	252.06
722.60	251.95
722.93	251.68
723.26	251.61
723.59	251.33
723.93	251.06
724.26	250.95
724.59	250.68
724.92	250.49
725.25	250.38
725.59	250.12
725.92	249.99
726.25	249.80
726.58	249.69
726.91	249.45
727.24	249.36
727.57	249.26
727.91	249.01
728.24	248.76
728.57	248.50
728.90	248.36
729.23	248.04
729.56	248.00
729.89	247.75
730.22	247.45
730.55	247.26
730.89	247.10
731.22	246.86
731.55	246.65
731.88	246.49
732.21	246.20
732.54	246.00
732.87	245.86
733.20	245.72
733.53	245.48
733.86	245.35
734.19	244.99
734.52	244.87
734.85	244.99
735.18	244.80
735.51	244.74
735.84	244.64
736.17	244.57
736.50	244.13
736.83	244.56
737.16	244.40
737.49	244.29
737.82	244.11
738.15	243.95
738.48	243.82
738.81	243.65
739.14	243.38
739.47	243.31
739.80	243.11
740.13	243.00
740.46	242.81
740.79	242.61
741.12	242.62
741.45	242.34
741.78	242.04
742.11	242.06
742.44	241.86
742.77	241.72
743.10	241.56
743.43	241.52
743.75	240.86
744.08	241.45
744.41	241.35
744.74	241.14
745.07	240.94
745.40	240.90
745.73	240.97
746.06	240.91
746.39	240.73
746.71	240.62
747.04	240.45
747.37	240.30
747.70	240.27
748.03	240.09
748.36	240.11
748.68	239.90
749.01	239.60
749.34	239.47
749.67	239.34
750.00	239.28
750.33	239.47
750.65	239.43
750.98	238.61
751.31	238.45
751.64	238.40
751.97	238.60
752.29	238.38
752.62	238.06
752.95	237.95
753.28	237.82
753.60	237.69
753.93	237.68
754.26	237.68
754.59	237.42
754.91	237.28
755.24	237.13
755.57	237.18
755.90	237.05
756.22	236.88
756.55	236.67
756.88	236.44
757.20	235.96
757.53	235.69
757.86	235.63
758.19	235.53
758.51	235.48
758.84	235.13
759.17	235.05
759.49	234.94
759.82	235.03
760.15	234.99
760.47	234.89
760.80	234.70
761.13	234.64
761.45	234.52
761.78	234.41
762.11	234.33
762.43	234.06
762.76	233.96
763.08	233.92
763.41	233.92
763.74	233.91
764.06	233.89
764.39	233.87
764.71	233.71
765.04	233.67
765.37	233.55
765.69	233.43
766.02	233.35
766.34	233.30
766.67	233.09
767.00	233.15
767.32	233.33
767.65	233.50
767.97	233.36
768.30	233.33
768.62	233.29
768.95	233.14
769.27	233.10
769.60	233.15
769.92	233.00
770.25	232.86
770.57	232.65
770.90	232.57
771.22	232.48
771.55	232.48
771.87	232.36
772.20	232.33
772.52	232.70
772.85	233.20
773.17	233.13
773.50	233.05
773.82	232.85
774.15	232.52
774.47	232.15
774.80	232.04
775.12	231.96
775.45	231.93
775.77	231.89
776.09	231.86
776.42	231.79
776.74	231.91
777.07	231.89
777.39	231.93
777.72	231.86
778.04	231.85
778.36	231.77
778.69	231.82
779.01	231.85
779.33	231.37
779.66	230.86
779.98	230.80
780.31	230.82
780.63	230.98
780.95	231.10
781.28	231.12
781.60	231.06
781.92	231.06
782.25	230.98
782.57	231.00
782.89	230.90
783.22	230.84
783.54	230.74
783.86	230.69
784.19	230.63
784.51	230.72
784.83	230.68
785.16	230.70
785.48	230.61
785.80	230.61
786.12	230.69
786.45	230.61
786.77	230.61
787.09	230.55
787.42	230.36
787.74	230.35
788.06	230.28
788.38	230.29
788.71	230.28
789.03	230.34
789.35	230.32
789.67	230.26
789.99	230.25
790.32	230.10
790.64	230.13
790.96	230.46
791.28	230.26
791.61	230.16
791.93	230.11
792.25	230.03
792.57	230.22
792.89	230.06
793.21	230.10
793.54	229.96
793.86	229.95
794.18	229.96
794.50	229.85
794.82	229.82
795.14	229.84
795.47	229.81
795.79	229.72
796.11	229.66
796.43	229.68
796.75	229.66
797.07	229.73
797.39	229.67
797.71	229.39
798.04	229.44
798.36	229.51
798.68	229.51
799.00	229.59
799.32	229.32
799.64	229.41
799.96	229.38
800.28	229.54
800.60	229.42
800.92	229.43
801.24	229.37
801.56	229.44
801.89	229.37
802.21	229.39
802.53	229.28
802.85	229.36
803.17	229.51
803.49	229.39
803.81	229.36
804.13	229.32
804.45	229.20
804.77	229.15
805.09	229.10
805.41	229.02
805.73	228.86
806.05	228.77
806.37	228.76
806.69	228.68
807.01	228.57
807.33	228.62
807.65	228.41
807.97	228.56
808.28	228.49
808.60	228.51
808.92	228.42
809.24	228.75
809.56	228.59
809.88	228.43
810.20	228.47
810.52	228.48
810.84	228.40
811.16	228.33
811.48	228.32
811.80	228.48
812.12	228.48
812.43	228.56
812.75	228.56
813.07	228.48
813.39	228.48
813.71	228.46
814.03	228.39
814.35	228.47
814.67	228.34
814.98	228.36
815.30	228.21
815.62	228.13
815.94	227.80
816.26	228.04
816.58	227.91
816.89	227.91
817.21	227.81
817.53	227.84
817.85	227.89
