SpectraSuite Data File
++++++++++++++++++++++++++++++++++++
Date: Wed Sep 04 17:47:49 EDT 2013
User: lab3
Dark Spectrum Present: Yes
Reference Spectrum Present: No
Number of Sampled Component Spectra: 1
Spectrometers: USB2E7196
Integration Time (usec): 170000 (USB2E7196)
Spectra Averaged: 20 (USB2E7196)
Boxcar Smoothing: 10 (USB2E7196)
Correct for Electrical Dark: No (USB2E7196)
Strobe/Lamp Enabled: No (USB2E7196)
Correct for Detector Non-linearity: No (USB2E7196)
Correct for Stray Light: No (USB2E7196)
Number of Pixels in Processed Spectrum: 2048
>>>>>Begin Processed Spectral Data<<<<<
339.09	0.00
339.48	212.85
339.86	214.80
340.24	216.50
340.63	217.15
341.01	226.10
341.39	219.50
341.78	221.50
342.16	223.40
342.54	223.50
342.93	212.16
343.31	222.84
343.69	223.39
344.07	223.82
344.46	224.34
344.84	224.76
345.22	224.72
345.60	225.07
345.99	225.23
346.37	225.34
346.75	225.39
347.13	225.48
347.52	225.52
347.90	225.75
348.28	225.82
348.66	225.93
349.05	225.72
349.43	225.78
349.81	225.86
350.19	225.94
350.57	225.92
350.96	225.94
351.34	226.10
351.72	226.15
352.10	226.29
352.48	226.26
352.87	226.28
353.25	226.30
353.63	226.30
354.01	226.41
354.39	226.48
354.77	226.59
355.15	226.80
355.54	226.77
355.92	226.65
356.30	226.77
356.68	227.12
357.06	227.24
357.44	227.25
357.82	227.29
358.20	227.67
358.58	227.75
358.97	227.82
359.35	227.91
359.73	228.11
360.11	228.15
360.49	228.18
360.87	228.26
361.25	228.43
361.63	228.61
362.01	228.63
362.39	228.63
362.77	228.72
363.15	228.65
363.53	228.66
363.91	228.80
364.29	228.76
364.67	228.34
365.05	228.44
365.43	228.54
365.81	228.69
366.19	228.58
366.57	228.83
366.95	228.86
367.33	228.80
367.71	228.79
368.09	228.93
368.47	228.99
368.85	228.97
369.23	229.00
369.61	228.86
369.99	229.03
370.37	229.10
370.75	229.27
371.13	229.20
371.51	229.20
371.89	229.12
372.27	229.15
372.65	229.20
373.03	229.23
373.41	229.12
373.78	229.08
374.16	228.79
374.54	228.55
374.92	228.47
375.30	228.38
375.68	228.23
376.06	228.12
376.44	228.01
376.82	227.96
377.19	227.92
377.57	227.86
377.95	227.65
378.33	227.54
378.71	227.20
379.09	227.25
379.47	227.24
379.84	227.11
380.22	227.00
380.60	226.86
380.98	226.70
381.36	226.63
381.73	226.50
382.11	226.54
382.49	226.56
382.87	226.52
383.25	226.45
383.62	227.01
384.00	226.86
384.38	226.83
384.76	226.90
385.13	227.01
385.51	227.01
385.89	226.91
386.27	226.87
386.64	226.87
387.02	226.73
387.40	226.69
387.78	226.71
388.15	226.69
388.53	226.65
388.91	226.57
389.29	226.48
389.66	226.55
390.04	226.43
390.42	226.49
390.79	226.51
391.17	226.51
391.55	225.93
391.92	225.95
392.30	225.92
392.68	225.83
393.05	225.77
393.43	225.68
393.81	225.65
394.18	225.61
394.56	225.53
394.94	225.67
395.31	225.67
395.69	225.89
396.06	226.07
396.44	226.14
396.82	226.16
397.19	226.47
397.57	226.36
397.95	226.51
398.32	226.40
398.70	226.43
399.07	226.61
399.45	226.68
399.82	226.67
400.20	226.75
400.58	226.82
400.95	226.72
401.33	226.96
401.70	227.46
402.08	227.66
402.45	227.89
402.83	228.15
403.20	228.29
403.58	228.29
403.95	228.42
404.33	228.61
404.71	228.82
405.08	229.28
405.46	229.54
405.83	229.79
406.21	229.99
406.58	230.32
406.96	230.59
407.33	230.90
407.70	231.34
408.08	232.09
408.45	232.54
408.83	233.05
409.20	233.42
409.58	233.63
409.95	234.09
410.33	234.61
410.70	234.99
411.08	235.61
411.45	236.27
411.82	236.84
412.20	237.65
412.57	238.70
412.95	239.01
413.32	239.84
413.69	240.70
414.07	241.71
414.44	242.72
414.82	243.79
415.19	244.98
415.56	246.18
415.94	247.24
416.31	248.72
416.68	250.10
417.06	251.66
417.43	253.22
417.81	255.03
418.18	256.84
418.55	258.72
418.93	260.67
419.30	262.73
419.67	265.01
420.04	267.15
420.42	269.39
420.79	272.44
421.16	275.26
421.54	278.15
421.91	281.09
422.28	283.99
422.66	287.24
423.03	290.69
423.40	293.98
423.77	297.38
424.15	300.85
424.52	304.53
424.89	308.75
425.26	312.70
425.64	316.46
426.01	320.50
426.38	324.85
426.75	329.42
427.13	333.95
427.50	338.58
427.87	343.52
428.24	348.33
428.61	352.79
428.99	358.04
429.36	363.48
429.73	368.92
430.10	374.52
430.47	379.96
430.85	385.41
431.22	391.56
431.59	398.30
431.96	404.44
432.33	411.24
432.70	417.70
433.08	425.54
433.45	432.81
433.82	440.19
434.19	448.25
434.56	456.23
434.93	463.78
435.30	471.42
435.68	479.88
436.05	488.19
436.42	496.41
436.79	503.83
437.16	512.22
437.53	520.87
437.90	529.31
438.27	537.88
438.64	546.68
439.01	554.94
439.38	562.04
439.75	569.06
440.13	577.10
440.50	584.54
440.87	590.49
441.24	596.78
441.61	603.71
441.98	608.71
442.35	614.44
442.72	620.30
443.09	626.09
443.46	629.47
443.83	631.81
444.20	633.91
444.57	636.67
444.94	637.55
445.31	638.58
445.68	640.06
446.05	640.22
446.42	638.97
446.79	637.46
447.16	635.85
447.53	634.73
447.90	631.16
448.27	627.68
448.64	622.88
449.01	619.22
449.37	613.09
449.74	607.13
450.11	600.35
450.48	592.84
450.85	584.95
451.22	578.26
451.59	571.85
451.96	565.57
452.33	557.62
452.70	550.56
453.07	542.13
453.43	533.05
453.80	524.76
454.17	516.81
454.54	509.29
454.91	501.29
455.28	493.29
455.65	485.81
456.02	478.98
456.38	472.61
456.75	465.06
457.12	458.65
457.49	452.47
457.86	446.22
458.23	441.07
458.59	435.52
458.96	429.82
459.33	424.68
459.70	419.62
460.07	415.60
460.43	410.82
460.80	406.61
461.17	402.99
461.54	399.00
461.91	395.28
462.27	391.42
462.64	388.13
463.01	384.60
463.38	381.45
463.74	377.45
464.11	374.57
464.48	371.90
464.85	369.02
465.21	366.96
465.58	364.69
465.95	361.92
466.32	359.70
466.68	357.43
467.05	355.22
467.42	353.05
467.78	350.75
468.15	348.76
468.52	347.21
468.88	345.02
469.25	343.20
469.62	341.83
469.98	340.15
470.35	338.56
470.72	337.08
471.08	335.32
471.45	334.14
471.82	332.85
472.18	331.47
472.55	330.53
472.92	329.20
473.28	328.02
473.65	326.91
474.02	325.84
474.38	324.92
474.75	324.25
475.11	323.29
475.48	322.66
475.85	321.97
476.21	321.22
476.58	320.79
476.94	320.42
477.31	319.83
477.67	319.56
478.04	319.33
478.41	319.25
478.77	319.52
479.14	319.23
479.50	319.04
479.87	319.05
480.23	319.02
480.60	318.94
480.96	318.94
481.33	319.43
481.69	319.63
482.06	319.92
482.42	320.13
482.79	320.62
483.15	321.00
483.52	321.63
483.88	322.14
484.25	322.68
484.61	323.24
484.98	323.96
485.34	324.79
485.71	325.66
486.07	326.57
486.44	327.19
486.80	328.23
487.17	329.37
487.53	330.70
487.90	332.23
488.26	333.90
488.62	335.65
488.99	337.06
489.35	338.76
489.72	340.65
490.08	342.73
490.44	344.65
490.81	346.82
491.17	349.01
491.54	351.50
491.90	354.12
492.26	356.82
492.63	359.75
492.99	362.64
493.36	365.73
493.72	369.10
494.08	372.52
494.45	376.20
494.81	380.24
495.17	384.09
495.54	388.19
495.90	392.45
496.26	396.83
496.63	401.53
496.99	406.25
497.35	411.20
497.72	416.25
498.08	421.76
498.44	427.45
498.80	433.43
499.17	439.34
499.53	445.46
499.89	452.01
500.26	458.63
500.62	465.51
500.98	472.82
501.34	480.17
501.71	487.88
502.07	495.64
502.43	503.60
502.79	511.89
503.16	520.45
503.52	529.40
503.88	538.44
504.24	547.95
504.60	557.82
504.97	568.15
505.33	578.50
505.69	589.47
506.05	600.39
506.41	611.45
506.78	623.10
507.14	634.92
507.50	647.13
507.86	659.55
508.22	672.48
508.59	685.52
508.95	698.89
509.31	712.91
509.67	727.10
510.03	741.23
510.39	755.87
510.75	770.78
511.12	785.80
511.48	801.38
511.84	816.88
512.20	832.70
512.56	848.75
512.92	865.49
513.28	882.23
513.64	899.44
514.00	916.89
514.37	934.36
514.73	952.41
515.09	970.38
515.45	988.60
515.81	1006.75
516.17	1025.35
516.53	1043.95
516.89	1062.17
517.25	1081.40
517.61	1101.45
517.97	1121.50
518.33	1141.26
518.69	1161.30
519.05	1181.53
519.41	1201.87
519.77	1222.78
520.13	1243.33
520.49	1263.74
520.85	1285.64
521.21	1306.53
521.57	1327.29
521.93	1347.95
522.29	1368.79
522.65	1389.43
523.01	1410.10
523.37	1430.40
523.73	1450.98
524.09	1471.32
524.45	1491.95
524.81	1512.48
525.17	1532.85
525.53	1553.05
525.89	1573.60
526.25	1594.16
526.61	1613.97
526.97	1634.84
527.33	1655.74
527.68	1677.00
528.04	1697.86
528.40	1717.59
528.76	1738.31
529.12	1758.85
529.48	1779.35
529.84	1799.21
530.20	1819.81
530.56	1840.05
530.91	1860.79
531.27	1880.82
531.63	1900.92
531.99	1921.17
532.35	1940.90
532.71	1960.95
533.07	1981.28
533.42	2000.87
533.78	2020.11
534.14	2040.12
534.50	2058.78
534.86	2077.46
535.21	2094.77
535.57	2112.81
535.93	2129.57
536.29	2146.68
536.65	2164.33
537.00	2181.42
537.36	2198.99
537.72	2214.99
538.08	2231.88
538.44	2248.31
538.79	2264.16
539.15	2280.50
539.51	2296.33
539.87	2311.22
540.22	2324.55
540.58	2338.52
540.94	2351.75
541.29	2364.47
541.65	2376.65
542.01	2388.76
542.37	2398.96
542.72	2409.68
543.08	2419.87
543.44	2431.39
543.79	2441.15
544.15	2450.54
544.51	2460.47
544.87	2469.24
545.22	2478.20
545.58	2485.83
545.94	2492.58
546.29	2499.10
546.65	2504.88
547.01	2510.14
547.36	2515.29
547.72	2520.81
548.07	2524.38
548.43	2529.13
548.79	2533.45
549.14	2537.01
549.50	2540.63
549.86	2544.34
550.21	2547.46
550.57	2550.85
550.92	2551.47
551.28	2552.40
551.64	2554.41
551.99	2555.81
552.35	2557.32
552.70	2558.92
553.06	2560.21
553.41	2561.13
553.77	2562.49
554.13	2563.46
554.48	2564.40
554.84	2565.26
555.19	2565.83
555.55	2567.35
555.90	2566.34
556.26	2565.08
556.61	2563.42
556.97	2560.78
557.32	2559.97
557.68	2558.67
558.03	2556.94
558.39	2555.57
558.74	2554.88
559.10	2551.53
559.45	2547.90
559.81	2543.12
560.16	2537.45
560.52	2532.30
560.87	2527.99
561.23	2522.54
561.58	2517.18
561.94	2510.26
562.29	2503.18
562.64	2495.99
563.00	2487.68
563.35	2480.94
563.71	2474.43
564.06	2468.09
564.42	2462.16
564.77	2454.95
565.12	2447.70
565.48	2439.89
565.83	2432.18
566.19	2423.97
566.54	2416.10
566.89	2408.19
567.25	2400.93
567.60	2394.06
567.96	2386.69
568.31	2378.22
568.66	2369.67
569.02	2360.48
569.37	2352.40
569.72	2344.95
570.08	2335.73
570.43	2326.27
570.78	2317.30
571.14	2307.91
571.49	2297.79
571.84	2287.97
572.20	2277.37
572.55	2267.39
572.90	2256.64
573.26	2246.69
573.61	2235.75
573.96	2224.75
574.31	2212.35
574.67	2200.49
575.02	2188.01
575.37	2175.27
575.72	2162.53
576.08	2150.44
576.43	2138.00
576.78	2125.04
577.13	2111.41
577.49	2099.13
577.84	2087.50
578.19	2075.64
578.54	2063.18
578.90	2051.41
579.25	2039.20
579.60	2027.13
579.95	2014.35
580.30	2001.50
580.66	1987.99
581.01	1974.48
581.36	1960.70
581.71	1948.43
582.06	1935.54
582.42	1922.88
582.77	1910.53
583.12	1898.79
583.47	1886.70
583.82	1875.08
584.17	1863.32
584.53	1851.55
584.88	1838.61
585.23	1825.71
585.58	1811.92
585.93	1798.89
586.28	1786.09
586.63	1772.29
586.98	1758.26
587.34	1745.12
587.69	1732.11
588.04	1720.09
588.39	1708.51
588.74	1696.61
589.09	1684.95
589.44	1672.44
589.79	1660.96
590.14	1649.31
590.49	1637.37
590.84	1625.60
591.19	1613.76
591.54	1601.62
591.89	1589.56
592.25	1579.90
592.60	1568.71
592.95	1557.31
593.30	1545.71
593.65	1533.71
594.00	1522.03
594.35	1512.45
594.70	1500.94
595.05	1489.74
595.40	1477.66
595.75	1465.56
596.10	1454.52
596.45	1443.34
596.80	1432.94
597.15	1421.42
597.50	1410.00
597.85	1398.82
598.19	1387.37
598.54	1375.88
598.89	1365.13
599.24	1354.66
599.59	1343.35
599.94	1332.67
600.29	1322.84
600.64	1312.76
600.99	1302.47
601.34	1293.06
601.69	1281.98
602.04	1272.40
602.39	1262.87
602.74	1253.90
603.08	1244.85
603.43	1235.78
603.78	1226.10
604.13	1216.35
604.48	1207.10
604.83	1197.41
605.18	1187.85
605.53	1178.76
605.87	1169.72
606.22	1161.26
606.57	1152.47
606.92	1143.16
607.27	1134.58
607.62	1125.87
607.96	1117.67
608.31	1109.88
608.66	1101.68
609.01	1093.52
609.36	1085.27
609.70	1077.05
610.05	1068.63
610.40	1060.67
610.75	1052.21
611.10	1044.18
611.44	1035.90
611.79	1027.90
612.14	1020.42
612.49	1013.02
612.83	1005.64
613.18	998.26
613.53	990.81
613.88	983.21
614.22	975.75
614.57	967.72
614.92	959.74
615.27	952.33
615.61	944.65
615.96	937.24
616.31	929.92
616.65	922.93
617.00	915.89
617.35	908.95
617.70	901.92
618.04	895.03
618.39	888.11
618.74	882.13
619.08	875.42
619.43	868.61
619.78	861.65
620.12	854.71
620.47	847.88
620.82	840.67
621.16	833.81
621.51	827.54
621.85	821.55
622.20	815.35
622.55	808.79
622.89	802.80
623.24	796.84
623.59	790.62
623.93	784.46
624.28	778.42
624.62	772.91
624.97	767.23
625.32	761.71
625.66	755.97
626.01	749.89
626.35	744.37
626.70	738.87
627.04	733.73
627.39	728.27
627.73	723.25
628.08	718.33
628.43	713.25
628.77	707.83
629.12	702.65
629.46	698.06
629.81	693.43
630.15	688.59
630.50	683.58
630.84	678.87
631.19	674.20
631.53	669.72
631.88	664.45
632.22	659.67
632.57	655.29
632.91	650.84
633.26	646.47
633.60	642.04
633.95	637.60
634.29	633.04
634.64	628.80
634.98	624.05
635.32	619.89
635.67	615.81
636.01	611.78
636.36	607.63
636.70	603.52
637.05	599.36
637.39	595.33
637.73	591.48
638.08	587.58
638.42	583.47
638.77	579.30
639.11	575.21
639.45	571.08
639.80	566.64
640.14	562.63
640.49	558.67
640.83	554.95
641.17	551.33
641.52	547.61
641.86	544.15
642.20	541.19
642.55	537.53
642.89	534.04
643.23	530.64
643.58	527.50
643.92	523.96
644.26	520.65
644.61	517.50
644.95	514.28
645.29	511.02
645.64	507.92
645.98	504.72
646.32	501.89
646.66	498.90
647.01	496.14
647.35	493.53
647.69	490.77
648.04	487.94
648.38	485.14
648.72	482.38
649.06	479.24
649.41	476.20
649.75	473.30
650.09	470.58
650.43	467.67
650.78	464.79
651.12	462.19
651.46	459.45
651.80	456.74
652.14	454.01
652.49	451.47
652.83	448.84
653.17	446.49
653.51	443.88
653.85	441.46
654.20	438.94
654.54	436.26
654.88	433.72
655.22	431.45
655.56	429.10
655.90	426.84
656.25	424.73
656.59	422.45
656.93	420.31
657.27	418.24
657.61	415.97
657.95	413.76
658.29	411.39
658.64	409.38
658.98	407.18
659.32	405.03
659.66	402.93
660.00	400.91
660.34	398.85
660.68	396.87
661.02	394.88
661.36	392.96
661.70	391.01
662.05	389.17
662.39	387.35
662.73	385.66
663.07	384.14
663.41	382.25
663.75	380.30
664.09	378.52
664.43	376.60
664.77	375.00
665.11	373.34
665.45	371.84
665.79	370.21
666.13	368.50
666.47	366.77
666.81	365.18
667.15	363.49
667.49	362.05
667.83	360.77
668.17	359.31
668.51	357.94
668.85	356.70
669.19	355.62
669.53	354.01
669.87	352.45
670.21	350.84
670.55	349.55
670.89	348.61
671.23	347.31
671.57	345.94
671.91	344.64
672.25	343.36
672.58	342.23
672.92	340.77
673.26	339.54
673.60	338.51
673.94	337.34
674.28	336.36
674.62	335.17
674.96	333.81
675.30	332.60
675.64	331.40
675.97	330.22
676.31	328.75
676.65	327.70
676.99	326.87
677.33	325.71
677.67	324.63
678.01	323.28
678.34	322.25
678.68	321.37
679.02	320.34
679.36	319.33
679.70	318.20
680.04	317.32
680.37	316.45
680.71	315.48
681.05	314.57
681.39	313.66
681.73	312.70
682.06	311.74
682.40	310.90
682.74	310.06
683.08	309.37
683.42	308.57
683.75	307.79
684.09	306.69
684.43	305.89
684.77	305.03
685.10	304.23
685.44	303.46
685.78	302.63
686.12	301.90
686.45	301.08
686.79	300.23
687.13	299.64
687.46	298.88
687.80	298.15
688.14	297.28
688.48	296.51
688.81	295.81
689.15	295.25
689.49	294.59
689.82	293.93
690.16	293.00
690.50	292.30
690.83	291.54
691.17	290.85
691.51	290.10
691.84	289.53
692.18	288.90
692.52	288.18
692.85	287.59
693.19	287.12
693.52	286.54
693.86	285.93
694.20	285.19
694.53	284.61
694.87	283.99
695.21	283.37
695.54	282.72
695.88	282.07
696.21	281.40
696.55	280.72
696.88	280.10
697.22	279.56
697.56	279.03
697.89	278.47
698.23	277.97
698.56	277.50
698.90	276.98
699.23	276.45
699.57	276.00
699.90	275.43
700.24	274.77
700.58	274.35
700.91	273.98
701.25	273.91
701.58	273.85
701.92	273.54
702.25	273.16
702.59	272.73
702.92	272.31
703.26	271.90
703.59	271.58
703.93	271.61
704.26	271.26
704.60	270.90
704.93	270.41
705.26	269.91
705.60	269.52
705.93	269.00
706.27	268.73
706.60	268.50
706.94	268.29
707.27	267.88
707.61	267.49
707.94	267.08
708.27	266.34
708.61	265.58
708.94	265.08
709.28	264.71
709.61	264.29
709.94	263.98
710.28	263.64
710.61	263.18
710.95	262.34
711.28	262.28
711.61	261.93
711.95	261.78
712.28	261.47
712.61	261.13
712.95	261.05
713.28	260.86
713.61	260.44
713.95	259.88
714.28	259.65
714.61	259.29
714.95	258.99
715.28	258.56
715.61	258.15
715.95	257.86
716.28	257.44
716.61	257.31
716.95	256.94
717.28	256.63
717.61	256.40
717.94	256.14
718.28	255.53
718.61	255.16
718.94	254.76
719.27	254.47
719.61	254.29
719.94	253.94
720.27	253.48
720.60	253.14
720.94	253.00
721.27	252.74
721.60	252.60
721.93	252.30
722.27	252.30
722.60	252.18
722.93	251.94
723.26	251.83
723.59	251.49
723.93	251.31
724.26	251.13
724.59	250.88
724.92	250.65
725.25	250.52
725.59	250.36
725.92	250.27
726.25	250.04
726.58	249.82
726.91	249.60
727.24	249.40
727.57	249.20
727.91	248.88
728.24	248.74
728.57	248.46
728.90	248.39
729.23	248.10
729.56	248.17
729.89	248.00
730.22	247.80
730.55	247.61
730.89	247.38
731.22	247.20
731.55	247.04
731.88	246.94
732.21	246.65
732.54	246.44
732.87	246.28
733.20	246.22
733.53	246.12
733.86	245.95
734.19	245.76
734.52	245.74
734.85	245.93
735.18	245.64
735.51	245.58
735.84	245.40
736.17	245.37
736.50	244.89
736.83	245.25
737.16	245.12
737.49	245.04
737.82	244.91
738.15	244.86
738.48	244.69
738.81	244.51
739.14	244.37
739.47	244.22
739.80	243.95
740.13	243.77
740.46	243.49
740.79	243.30
741.12	243.13
741.45	242.81
741.78	242.48
742.11	242.55
742.44	242.31
742.77	242.24
743.10	241.97
743.43	241.84
743.75	241.26
744.08	241.72
744.41	241.55
744.74	241.37
745.07	241.02
745.40	241.01
745.73	241.06
746.06	240.99
746.39	240.87
746.71	240.73
747.04	240.51
747.37	240.30
747.70	240.29
748.03	240.21
748.36	240.12
748.68	239.94
749.01	239.63
749.34	239.55
749.67	239.37
750.00	239.27
750.33	239.47
750.65	239.35
750.98	238.61
751.31	238.45
751.64	238.39
751.97	238.67
752.29	238.47
752.62	238.12
752.95	237.94
753.28	237.86
753.60	237.75
753.93	237.85
754.26	237.84
754.59	237.53
754.91	237.32
755.24	237.21
755.57	237.14
755.90	237.04
756.22	236.88
756.55	236.78
756.88	236.62
757.20	236.16
757.53	235.97
757.86	235.86
758.19	235.83
758.51	235.71
758.84	235.37
759.17	235.19
759.49	235.07
759.82	235.19
760.15	235.16
760.47	235.08
760.80	234.85
761.13	234.82
761.45	234.76
761.78	234.66
762.11	234.60
762.43	234.46
762.76	234.38
763.08	234.37
763.41	234.38
763.74	234.32
764.06	234.33
764.39	234.23
764.71	234.21
765.04	234.07
765.37	234.01
765.69	233.85
766.02	233.84
766.34	233.85
766.67	233.60
767.00	233.57
767.32	233.71
767.65	233.89
767.97	233.77
768.30	233.78
768.62	233.81
768.95	233.74
769.27	233.63
769.60	233.67
769.92	233.52
770.25	233.26
770.57	233.10
770.90	233.02
771.22	232.92
771.55	232.88
771.87	232.83
772.20	232.72
772.52	233.09
772.85	233.65
773.17	233.58
773.50	233.51
773.82	233.40
774.15	233.14
774.47	232.86
774.80	232.79
775.12	232.70
775.45	232.57
775.77	232.57
776.09	232.60
776.42	232.53
776.74	232.66
777.07	232.64
777.39	232.66
777.72	232.55
778.04	232.59
778.36	232.45
778.69	232.49
779.01	232.56
779.33	232.09
779.66	231.49
779.98	231.38
780.31	231.32
780.63	231.40
780.95	231.43
781.28	231.38
781.60	231.28
781.92	231.24
782.25	231.26
782.57	231.16
782.89	231.14
783.22	231.07
783.54	230.89
783.86	230.89
784.19	230.82
784.51	230.96
784.83	230.79
785.16	230.75
785.48	230.59
785.80	230.52
786.12	230.54
786.45	230.43
786.77	230.44
787.09	230.35
787.42	230.24
787.74	230.17
788.06	230.13
788.38	230.04
788.71	229.98
789.03	229.97
789.35	230.01
789.67	229.87
789.99	229.82
790.32	229.67
790.64	229.68
790.96	230.01
791.28	229.81
791.61	229.84
791.93	229.85
792.25	229.87
792.57	230.14
792.89	229.99
793.21	230.00
793.54	229.94
793.86	229.92
794.18	229.88
794.50	229.91
794.82	229.86
795.14	229.97
795.47	230.04
795.79	229.96
796.11	229.80
796.43	229.72
796.75	229.75
797.07	229.78
797.39	229.73
797.71	229.38
798.04	229.36
798.36	229.28
798.68	229.26
799.00	229.24
799.32	229.01
799.64	229.08
799.96	229.14
800.28	229.22
800.60	229.20
800.92	229.21
801.24	229.09
801.56	229.18
801.89	229.17
802.21	229.17
802.53	229.12
802.85	229.24
803.17	229.48
803.49	229.37
803.81	229.34
804.13	229.26
804.45	229.23
804.77	229.18
805.09	229.23
805.41	229.21
805.73	229.21
806.05	229.06
806.37	229.05
806.69	228.98
807.01	228.86
807.33	228.90
807.65	228.67
807.97	228.89
808.28	228.77
808.60	228.70
808.92	228.64
809.24	228.89
809.56	228.74
809.88	228.61
810.20	228.63
810.52	228.74
810.84	228.69
811.16	228.64
811.48	228.61
811.80	228.73
812.12	228.67
812.43	228.69
812.75	228.70
813.07	228.66
813.39	228.61
813.71	228.56
814.03	228.57
814.35	228.60
814.67	228.40
814.98	228.36
815.30	228.33
815.62	228.20
815.94	227.91
816.26	228.20
816.58	228.05
816.89	228.10
817.21	227.97
817.53	227.95
817.85	227.97
