SpectraSuite Data File
++++++++++++++++++++++++++++++++++++
Date: Wed Sep 04 17:41:43 EDT 2013
User: lab3
Dark Spectrum Present: Yes
Reference Spectrum Present: No
Number of Sampled Component Spectra: 1
Spectrometers: USB2E7196
Integration Time (usec): 170000 (USB2E7196)
Spectra Averaged: 20 (USB2E7196)
Boxcar Smoothing: 10 (USB2E7196)
Correct for Electrical Dark: No (USB2E7196)
Strobe/Lamp Enabled: No (USB2E7196)
Correct for Detector Non-linearity: No (USB2E7196)
Correct for Stray Light: No (USB2E7196)
Number of Pixels in Processed Spectrum: 2048
>>>>>Begin Processed Spectral Data<<<<<
339.09	0.00
339.48	211.95
339.86	214.15
340.24	215.75
340.63	216.95
341.01	226.50
341.39	218.15
341.78	221.30
342.16	222.35
342.54	223.25
342.93	211.86
343.31	222.55
343.69	223.17
344.07	223.62
344.46	224.13
344.84	224.52
345.22	224.47
345.60	224.81
345.99	225.00
346.37	225.12
346.75	225.15
347.13	225.27
347.52	225.38
347.90	225.60
348.28	225.67
348.66	225.80
349.05	225.61
349.43	225.69
349.81	225.77
350.19	225.81
350.57	225.84
350.96	225.97
351.34	226.12
351.72	226.18
352.10	226.30
352.48	226.20
352.87	226.21
353.25	226.25
353.63	226.34
354.01	226.39
354.39	226.53
354.77	226.66
355.15	226.82
355.54	226.66
355.92	226.53
356.30	226.54
356.68	226.95
357.06	227.01
357.44	226.98
357.82	226.99
358.20	227.43
358.58	227.56
358.97	227.58
359.35	227.69
359.73	227.85
360.11	227.93
360.49	228.11
360.87	228.14
361.25	228.23
361.63	228.41
362.01	228.47
362.39	228.48
362.77	228.54
363.15	228.55
363.53	228.68
363.91	228.80
364.29	228.85
364.67	228.40
365.05	228.51
365.43	228.56
365.81	228.62
366.19	228.43
366.57	228.65
366.95	228.68
367.33	228.52
367.71	228.49
368.09	228.56
368.47	228.58
368.85	228.57
369.23	228.63
369.61	228.37
369.99	228.52
370.37	228.52
370.75	228.70
371.13	228.56
371.51	228.52
371.89	228.50
372.27	228.50
372.65	228.51
373.03	228.44
373.41	228.40
373.78	228.37
374.16	228.10
374.54	227.86
374.92	227.75
375.30	227.68
375.68	227.52
376.06	227.40
376.44	227.25
376.82	227.29
377.19	227.22
377.57	227.17
377.95	226.95
378.33	226.82
378.71	226.53
379.09	226.49
379.47	226.51
379.84	226.34
380.22	226.17
380.60	226.03
380.98	225.92
381.36	225.84
381.73	225.64
382.11	225.64
382.49	225.59
382.87	225.53
383.25	225.51
383.62	225.99
384.00	225.81
384.38	225.76
384.76	225.76
385.13	225.90
385.51	225.91
385.89	225.82
386.27	225.79
386.64	225.80
387.02	225.76
387.40	225.66
387.78	225.66
388.15	225.69
388.53	225.62
388.91	225.66
389.29	225.58
389.66	225.65
390.04	225.60
390.42	225.64
390.79	225.63
391.17	225.65
391.55	225.15
391.92	225.18
392.30	225.29
392.68	225.14
393.05	225.10
393.43	225.07
393.81	225.13
394.18	225.11
394.56	225.12
394.94	225.22
395.31	225.16
395.69	225.41
396.06	225.50
396.44	225.66
396.82	225.61
397.19	225.96
397.57	226.00
397.95	226.16
398.32	226.10
398.70	226.15
399.07	226.26
399.45	226.30
399.82	226.44
400.20	226.44
400.58	226.61
400.95	226.51
401.33	226.76
401.70	227.18
402.08	227.26
402.45	227.41
402.83	227.62
403.20	227.80
403.58	227.83
403.95	228.09
404.33	228.20
404.71	228.46
405.08	228.85
405.46	229.00
405.83	229.24
406.21	229.49
406.58	229.78
406.96	230.03
407.33	230.35
407.70	230.71
408.08	231.41
408.45	231.86
408.83	232.35
409.20	232.67
409.58	232.79
409.95	233.27
410.33	233.72
410.70	234.04
411.08	234.62
411.45	235.10
411.82	235.56
412.20	236.27
412.57	237.16
412.95	237.41
413.32	238.23
413.69	238.90
414.07	239.65
414.44	240.47
414.82	241.35
415.19	242.35
415.56	243.30
415.94	244.08
416.31	245.21
416.68	246.33
417.06	247.70
417.43	248.99
417.81	250.52
418.18	252.00
418.55	253.62
418.93	255.28
419.30	257.05
419.67	258.88
420.04	260.73
420.42	262.55
420.79	265.16
421.16	267.40
421.54	270.00
421.91	272.52
422.28	275.07
422.66	277.76
423.03	280.66
423.40	283.47
423.77	286.40
424.15	289.33
424.52	292.40
424.89	295.82
425.26	299.11
425.64	302.24
426.01	305.71
426.38	309.26
426.75	313.01
427.13	316.74
427.50	320.54
427.87	324.55
428.24	328.55
428.61	332.22
428.99	336.75
429.36	341.21
429.73	345.74
430.10	350.37
430.47	355.17
430.85	359.75
431.22	364.99
431.59	370.73
431.96	375.95
432.33	381.75
432.70	387.20
433.08	393.73
433.45	399.93
433.82	406.07
434.19	413.09
434.56	419.84
434.93	426.31
435.30	432.88
435.68	440.04
436.05	447.13
436.42	453.97
436.79	460.34
437.16	467.34
437.53	474.63
437.90	481.87
438.27	489.03
438.64	496.41
439.01	503.21
439.38	509.18
439.75	515.16
440.13	521.72
440.50	528.13
440.87	533.20
441.24	538.50
441.61	544.36
441.98	548.50
442.35	553.27
442.72	558.26
443.09	563.19
443.46	566.26
443.83	568.34
444.20	570.06
444.57	572.40
444.94	573.39
445.31	574.42
445.68	575.67
446.05	575.82
446.42	574.83
446.79	573.60
447.16	572.19
447.53	571.04
447.90	568.13
448.27	565.01
448.64	561.06
449.01	558.09
449.37	552.93
449.74	547.99
450.11	542.58
450.48	536.21
450.85	529.61
451.22	523.87
451.59	518.37
451.96	513.19
452.33	506.35
452.70	500.15
453.07	493.08
453.43	485.45
453.80	478.49
454.17	471.91
454.54	465.68
454.91	458.95
455.28	452.39
455.65	446.21
456.02	440.79
456.38	435.60
456.75	429.16
457.12	423.75
457.49	418.58
457.86	413.23
458.23	409.01
458.59	404.17
458.96	399.33
459.33	395.13
459.70	390.95
460.07	387.68
460.43	383.90
460.80	380.30
461.17	377.28
461.54	373.96
461.91	370.80
462.27	367.50
462.64	364.76
463.01	361.88
463.38	359.34
463.74	355.89
464.11	353.40
464.48	351.21
464.85	349.07
465.21	347.31
465.58	345.28
465.95	342.84
466.32	341.15
466.68	339.31
467.05	337.46
467.42	335.65
467.78	333.66
468.15	331.90
468.52	330.62
468.88	328.64
469.25	327.01
469.62	325.84
469.98	324.65
470.35	323.42
470.72	322.28
471.08	320.76
471.45	319.73
471.82	318.68
472.18	317.48
472.55	316.54
472.92	315.42
473.28	314.48
473.65	313.67
474.02	312.68
474.38	312.04
474.75	311.34
475.11	310.63
475.48	310.20
475.85	309.66
476.21	309.16
476.58	308.88
476.94	308.70
477.31	308.32
477.67	307.96
478.04	307.72
478.41	307.58
478.77	307.97
479.14	307.70
479.50	307.67
479.87	307.85
480.23	307.91
480.60	307.93
480.96	308.11
481.33	308.54
481.69	308.83
482.06	308.96
482.42	309.35
482.79	309.72
483.15	310.06
483.52	310.66
483.88	311.17
484.25	311.72
484.61	312.40
484.98	313.09
485.34	314.01
485.71	314.91
486.07	315.85
486.44	316.38
486.80	317.46
487.17	318.56
487.53	319.73
487.90	321.06
488.26	322.67
488.62	324.20
488.99	325.57
489.35	327.24
489.72	329.11
490.08	330.95
490.44	332.88
490.81	334.96
491.17	337.09
491.54	339.28
491.90	341.67
492.26	344.10
492.63	346.60
492.99	349.15
493.36	352.04
493.72	355.00
494.08	358.16
494.45	361.59
494.81	365.05
495.17	368.69
495.54	372.53
495.90	376.19
496.26	380.22
496.63	384.48
496.99	388.89
497.35	393.38
497.72	398.05
498.08	403.07
498.44	408.22
498.80	413.57
499.17	419.08
499.53	424.73
499.89	430.63
500.26	436.83
500.62	443.17
500.98	449.80
501.34	456.47
501.71	463.37
502.07	470.23
502.43	477.34
502.79	484.71
503.16	492.39
503.52	500.49
503.88	508.59
504.24	517.08
504.60	525.85
504.97	534.89
505.33	544.06
505.69	553.56
506.05	563.22
506.41	573.02
506.78	583.07
507.14	593.52
507.50	604.26
507.86	615.10
508.22	626.28
508.59	637.21
508.95	648.78
509.31	660.96
509.67	673.26
510.03	685.45
510.39	697.98
510.75	710.65
511.12	723.37
511.48	736.60
511.84	749.81
512.20	762.99
512.56	776.63
512.92	790.74
513.28	804.76
513.64	819.10
514.00	833.73
514.37	848.56
514.73	863.56
515.09	878.40
515.45	893.47
515.81	908.41
516.17	924.05
516.53	939.63
516.89	954.67
517.25	970.15
517.61	986.52
517.97	1003.00
518.33	1019.11
518.69	1035.78
519.05	1052.34
519.41	1069.03
519.77	1086.19
520.13	1102.86
520.49	1119.14
520.85	1137.14
521.21	1153.70
521.57	1170.33
521.93	1186.67
522.29	1203.09
522.65	1219.40
523.01	1235.70
523.37	1251.78
523.73	1268.14
524.09	1283.76
524.45	1299.74
524.81	1316.00
525.17	1331.93
525.53	1347.27
525.89	1363.18
526.25	1378.62
526.61	1394.09
526.97	1409.55
527.33	1425.26
527.68	1441.62
528.04	1457.61
528.40	1471.53
528.76	1487.18
529.12	1502.33
529.48	1517.60
529.84	1532.26
530.20	1547.73
530.56	1562.94
530.91	1578.35
531.27	1592.98
531.63	1607.73
531.99	1622.35
532.35	1636.29
532.71	1650.64
533.07	1665.33
533.42	1679.55
533.78	1693.31
534.14	1706.94
534.50	1720.15
534.86	1733.27
535.21	1744.85
535.57	1757.20
535.93	1769.35
536.29	1781.23
536.65	1793.26
537.00	1804.71
537.36	1816.37
537.72	1827.01
538.08	1838.04
538.44	1848.32
538.79	1858.75
539.15	1869.52
539.51	1880.12
539.87	1890.05
540.22	1898.52
540.58	1907.37
540.94	1914.92
541.29	1922.45
541.65	1929.88
542.01	1937.41
542.37	1943.14
542.72	1949.45
543.08	1955.10
543.44	1961.63
543.79	1966.79
544.15	1972.01
544.51	1977.32
544.87	1982.15
545.22	1986.15
545.58	1989.66
545.94	1992.98
546.29	1995.24
546.65	1997.19
547.01	1998.51
547.36	2000.13
547.72	2001.46
548.07	2001.81
548.43	2003.14
548.79	2004.07
549.14	2004.20
549.50	2004.56
549.86	2004.94
550.21	2005.12
550.57	2005.20
550.92	2003.74
551.28	2002.18
551.64	2001.13
551.99	1999.91
552.35	1998.56
552.70	1997.79
553.06	1996.58
553.41	1994.97
553.77	1994.25
554.13	1993.19
554.48	1991.95
554.84	1990.45
555.19	1989.31
555.55	1988.45
555.90	1985.96
556.26	1983.36
556.61	1980.39
556.97	1976.47
557.32	1973.80
557.68	1970.81
558.03	1967.53
558.39	1964.48
558.74	1961.71
559.10	1957.16
559.45	1952.75
559.81	1947.88
560.16	1941.93
560.52	1936.44
560.87	1931.57
561.23	1925.64
561.58	1919.53
561.94	1912.75
562.29	1905.86
562.64	1898.89
563.00	1890.96
563.35	1884.40
563.71	1877.79
564.06	1871.60
564.42	1865.20
564.77	1858.73
565.12	1851.65
565.48	1844.91
565.83	1837.70
566.19	1830.81
566.54	1824.02
566.89	1816.86
567.25	1809.81
567.60	1803.42
567.96	1796.93
568.31	1789.73
568.66	1782.35
569.02	1774.61
569.37	1767.67
569.72	1761.15
570.08	1753.80
570.43	1745.85
570.78	1738.32
571.14	1730.72
571.49	1722.45
571.84	1714.58
572.20	1705.86
572.55	1697.66
572.90	1688.97
573.26	1680.48
573.61	1671.43
573.96	1662.70
574.31	1653.25
574.67	1643.90
575.02	1634.21
575.37	1624.06
575.72	1613.98
576.08	1604.63
576.43	1595.18
576.78	1585.26
577.13	1574.54
577.49	1564.63
577.84	1555.91
578.19	1546.70
578.54	1537.10
578.90	1527.96
579.25	1518.85
579.60	1509.50
579.95	1499.80
580.30	1489.89
580.66	1480.11
581.01	1470.23
581.36	1459.64
581.71	1450.30
582.06	1440.96
582.42	1431.83
582.77	1422.46
583.12	1413.83
583.47	1404.77
583.82	1396.05
584.17	1387.14
584.53	1378.85
584.88	1369.58
585.23	1359.98
585.58	1349.83
585.93	1340.43
586.28	1331.13
586.63	1321.04
586.98	1310.91
587.34	1301.66
587.69	1292.37
588.04	1283.44
588.39	1274.79
588.74	1266.53
589.09	1258.06
589.44	1248.88
589.79	1240.14
590.14	1231.93
590.49	1223.12
590.84	1214.59
591.19	1206.05
591.54	1197.44
591.89	1188.55
592.25	1181.34
592.60	1173.31
592.95	1165.53
593.30	1157.39
593.65	1148.81
594.00	1140.79
594.35	1134.29
594.70	1126.01
595.05	1118.00
595.40	1109.48
595.75	1101.31
596.10	1093.60
596.45	1085.63
596.80	1078.35
597.15	1070.64
597.50	1062.45
597.85	1054.89
598.19	1046.85
598.54	1039.04
598.89	1031.10
599.24	1024.01
599.59	1016.16
599.94	1008.82
600.29	1001.67
600.64	994.53
600.99	987.28
601.34	980.59
601.69	972.66
602.04	965.90
602.39	959.33
602.74	953.23
603.08	946.76
603.43	940.34
603.78	933.55
604.13	926.94
604.48	920.25
604.83	913.61
605.18	906.84
605.53	900.45
605.87	893.99
606.22	888.40
606.57	881.99
606.92	875.64
607.27	869.57
607.62	863.44
607.96	857.66
608.31	852.46
608.66	846.76
609.01	841.01
609.36	835.35
609.70	829.57
610.05	823.76
610.40	818.20
610.75	812.19
611.10	806.62
611.44	800.72
611.79	795.27
612.14	790.16
612.49	784.90
612.83	779.96
613.18	774.76
613.53	769.53
613.88	764.17
614.22	758.73
614.57	753.22
614.92	747.91
615.27	742.70
615.61	737.38
615.96	732.13
616.31	727.06
616.65	722.24
617.00	717.29
617.35	712.34
617.70	707.30
618.04	702.55
618.39	697.81
618.74	693.55
619.08	689.00
619.43	684.09
619.78	679.45
620.12	674.62
620.47	669.96
620.82	665.13
621.16	660.60
621.51	656.51
621.85	652.38
622.20	648.05
622.55	643.45
622.89	638.98
623.24	634.79
623.59	630.45
623.93	626.31
624.28	622.12
624.62	618.51
624.97	614.80
625.32	610.80
625.66	606.86
626.01	602.73
626.35	598.95
626.70	595.22
627.04	591.46
627.39	587.68
627.73	584.18
628.08	580.77
628.43	577.26
628.77	573.52
629.12	569.93
629.46	566.58
629.81	563.51
630.15	560.31
630.50	556.88
630.84	553.67
631.19	550.30
631.53	547.06
631.88	543.37
632.22	539.90
632.57	537.00
632.91	533.93
633.26	530.94
633.60	527.67
633.95	524.58
634.29	521.32
634.64	518.25
634.98	514.92
635.32	511.99
635.67	509.05
636.01	506.08
636.36	503.06
636.70	500.22
637.05	497.28
637.39	494.45
637.73	491.83
638.08	489.08
638.42	486.20
638.77	483.49
639.11	480.53
639.45	477.60
639.80	474.53
640.14	471.75
640.49	469.00
640.83	466.33
641.17	463.77
641.52	461.28
641.86	458.86
642.20	456.73
642.55	454.12
642.89	451.67
643.23	449.30
643.58	447.14
643.92	444.63
644.26	442.26
644.61	440.07
644.95	437.70
645.29	435.43
645.64	433.35
645.98	431.18
646.32	429.30
646.66	427.15
647.01	425.16
647.35	423.19
647.69	421.18
648.04	419.31
648.38	417.40
648.72	415.44
649.06	413.30
649.41	411.18
649.75	408.99
650.09	407.00
650.43	405.00
650.78	403.07
651.12	401.16
651.46	399.23
651.80	397.23
652.14	395.34
652.49	393.59
652.83	391.75
653.17	389.93
653.51	388.00
653.85	386.47
654.20	384.73
654.54	382.90
654.88	381.06
655.22	379.59
655.56	377.91
655.90	376.31
656.25	374.73
656.59	373.19
656.93	371.78
657.27	370.31
657.61	368.64
657.95	367.02
658.29	365.48
658.64	364.14
658.98	362.75
659.32	361.28
659.66	359.73
660.00	358.23
660.34	356.74
660.68	355.29
661.02	353.82
661.36	352.37
661.70	350.99
662.05	349.74
662.39	348.29
662.73	347.12
663.07	346.00
663.41	344.82
663.75	343.51
664.09	342.26
664.43	340.98
664.77	339.81
665.11	338.59
665.45	337.53
665.79	336.35
666.13	335.09
666.47	333.84
666.81	332.58
667.15	331.38
667.49	330.35
667.83	329.50
668.17	328.43
668.51	327.56
668.85	326.63
669.19	325.80
669.53	324.61
669.87	323.41
670.21	322.21
670.55	321.10
670.89	320.35
671.23	319.42
671.57	318.40
671.91	317.45
672.25	316.47
672.58	315.66
672.92	314.62
673.26	313.72
673.60	312.85
673.94	312.07
674.28	311.38
674.62	310.62
674.96	309.65
675.30	308.80
675.64	307.80
675.97	306.90
676.31	305.87
676.65	305.04
676.99	304.43
677.33	303.66
677.67	303.02
678.01	302.03
678.34	301.35
678.68	300.77
679.02	300.03
679.36	299.30
679.70	298.45
680.04	297.76
680.37	297.05
680.71	296.39
681.05	295.78
681.39	294.98
681.73	294.24
682.06	293.60
682.40	293.01
682.74	292.52
683.08	292.15
683.42	291.56
683.75	291.07
684.09	290.35
684.43	289.84
684.77	289.16
685.10	288.57
685.44	287.97
685.78	287.24
686.12	286.70
686.45	286.20
686.79	285.62
687.13	285.20
687.46	284.65
687.80	284.21
688.14	283.59
688.48	283.22
688.81	282.62
689.15	282.20
689.49	281.67
689.82	281.10
690.16	280.34
690.50	279.82
690.83	279.28
691.17	278.70
691.51	278.16
691.84	277.71
692.18	277.12
692.52	276.66
692.85	276.27
693.19	276.01
693.52	275.58
693.86	275.14
694.20	274.54
694.53	274.16
694.87	273.67
695.21	273.17
695.54	272.66
695.88	272.15
696.21	271.50
696.55	270.97
696.88	270.59
697.22	270.05
697.56	269.71
697.89	269.28
698.23	268.95
698.56	268.55
698.90	268.17
699.23	267.79
699.57	267.32
699.90	266.89
700.24	266.33
700.58	265.97
700.91	265.76
701.25	265.84
701.58	265.79
701.92	265.48
702.25	265.23
702.59	264.82
702.92	264.63
703.26	264.38
703.59	264.14
703.93	264.16
704.26	263.97
704.60	263.67
704.93	263.25
705.26	262.84
705.60	262.61
705.93	262.17
706.27	262.02
706.60	261.82
706.94	261.72
707.27	261.39
707.61	261.08
707.94	260.67
708.27	260.01
708.61	259.39
708.94	259.13
709.28	258.87
709.61	258.53
709.94	258.19
710.28	257.91
710.61	257.57
710.95	256.79
711.28	256.78
711.61	256.37
711.95	256.24
712.28	255.95
712.61	255.59
712.95	255.59
713.28	255.55
713.61	255.14
713.95	254.71
714.28	254.50
714.61	254.16
714.95	253.82
715.28	253.47
715.61	253.20
715.95	252.84
716.28	252.47
716.61	252.34
716.95	252.08
717.28	251.81
717.61	251.56
717.94	251.36
718.28	250.83
718.61	250.56
718.94	250.22
719.27	249.99
719.61	249.77
719.94	249.41
720.27	248.87
720.60	248.66
720.94	248.43
721.27	248.23
721.60	248.13
721.93	247.82
722.27	247.74
722.60	247.60
722.93	247.35
723.26	247.18
723.59	246.86
723.93	246.73
724.26	246.53
724.59	246.36
724.92	246.26
725.25	246.21
725.59	246.04
725.92	245.93
726.25	245.77
726.58	245.57
726.91	245.46
727.24	245.32
727.57	245.15
727.91	244.95
728.24	244.86
728.57	244.62
728.90	244.66
729.23	244.45
729.56	244.45
729.89	244.33
730.22	244.11
730.55	243.97
730.89	243.80
731.22	243.63
731.55	243.46
731.88	243.21
732.21	242.97
732.54	242.87
732.87	242.71
733.20	242.65
733.53	242.56
733.86	242.46
734.19	242.35
734.52	242.33
734.85	242.47
735.18	242.17
735.51	242.15
735.84	242.05
736.17	241.98
736.50	241.65
736.83	242.15
737.16	242.05
737.49	242.00
737.82	241.85
738.15	241.84
738.48	241.69
738.81	241.65
739.14	241.54
739.47	241.36
739.80	241.22
740.13	241.12
740.46	240.94
740.79	240.70
741.12	240.60
741.45	240.42
741.78	240.10
742.11	240.17
742.44	239.99
742.77	239.90
743.10	239.70
743.43	239.53
743.75	238.88
744.08	239.40
744.41	239.25
744.74	239.10
745.07	238.89
745.40	238.93
745.73	239.02
746.06	238.89
746.39	238.90
746.71	238.81
747.04	238.59
747.37	238.53
747.70	238.55
748.03	238.50
748.36	238.42
748.68	238.30
749.01	238.04
749.34	237.93
749.67	237.74
750.00	237.73
750.33	237.98
750.65	237.91
750.98	237.21
751.31	237.11
751.64	237.11
751.97	237.34
752.29	237.14
752.62	236.84
752.95	236.67
753.28	236.56
753.60	236.45
753.93	236.48
754.26	236.37
754.59	236.08
754.91	235.85
755.24	235.72
755.57	235.64
755.90	235.60
756.22	235.50
756.55	235.45
756.88	235.22
757.20	234.88
757.53	234.66
757.86	234.66
758.19	234.57
758.51	234.42
758.84	234.02
759.17	233.91
759.49	233.85
759.82	234.07
760.15	234.00
760.47	233.92
760.80	233.78
761.13	233.81
761.45	233.74
761.78	233.72
762.11	233.67
762.43	233.59
762.76	233.41
763.08	233.39
763.41	233.30
763.74	233.31
764.06	233.19
764.39	233.18
764.71	233.03
765.04	232.98
765.37	232.89
765.69	232.85
766.02	232.76
766.34	232.60
766.67	232.33
767.00	232.30
767.32	232.45
767.65	232.64
767.97	232.54
768.30	232.53
768.62	232.44
768.95	232.31
769.27	232.20
769.60	232.30
769.92	232.18
770.25	232.06
770.57	231.94
770.90	231.86
771.22	231.79
771.55	231.72
771.87	231.64
772.20	231.55
772.52	231.92
772.85	232.52
773.17	232.52
773.50	232.44
773.82	232.36
774.15	232.12
774.47	231.71
774.80	231.62
775.12	231.56
775.45	231.60
775.77	231.67
776.09	231.70
776.42	231.60
776.74	231.69
777.07	231.61
777.39	231.54
777.72	231.53
778.04	231.54
778.36	231.44
778.69	231.45
779.01	231.49
779.33	231.01
779.66	230.39
779.98	230.32
780.31	230.31
780.63	230.44
780.95	230.45
781.28	230.43
781.60	230.38
781.92	230.32
782.25	230.19
782.57	230.13
782.89	230.04
783.22	229.98
783.54	229.89
783.86	229.93
784.19	229.90
784.51	229.97
784.83	229.82
785.16	229.78
785.48	229.73
785.80	229.75
786.12	229.74
786.45	229.66
786.77	229.69
787.09	229.60
787.42	229.31
787.74	229.32
788.06	229.36
788.38	229.26
788.71	229.20
789.03	229.25
789.35	229.29
789.67	229.27
789.99	229.30
790.32	229.21
790.64	229.21
790.96	229.58
791.28	229.36
791.61	229.40
791.93	229.45
792.25	229.54
792.57	229.83
792.89	229.74
793.21	229.82
793.54	229.76
793.86	229.77
794.18	229.93
794.50	229.80
794.82	229.79
795.14	229.91
795.47	229.98
795.79	229.86
796.11	229.69
796.43	229.61
796.75	229.56
797.07	229.53
797.39	229.52
797.71	229.19
798.04	229.22
798.36	229.26
798.68	229.25
799.00	229.13
799.32	228.86
799.64	229.02
799.96	228.98
800.28	229.11
800.60	229.08
800.92	228.97
801.24	228.97
801.56	229.01
801.89	228.93
802.21	228.88
802.53	228.84
802.85	228.98
803.17	229.21
803.49	229.06
803.81	229.07
804.13	228.98
804.45	228.89
804.77	228.87
805.09	228.78
805.41	228.76
805.73	228.68
806.05	228.54
806.37	228.33
806.69	228.21
807.01	228.10
807.33	228.12
807.65	227.94
807.97	228.09
808.28	227.98
808.60	227.94
808.92	227.94
809.24	228.29
809.56	228.19
809.88	227.97
810.20	228.03
810.52	228.02
810.84	227.97
811.16	227.88
811.48	227.80
811.80	227.96
812.12	227.84
812.43	227.91
812.75	227.94
813.07	228.01
813.39	228.20
813.71	228.06
814.03	227.98
814.35	228.03
814.67	227.88
814.98	227.88
815.30	227.86
815.62	227.76
815.94	227.40
816.26	227.58
816.58	227.52
816.89	227.61
817.21	227.52
817.53	227.55
817.85	227.63
818.17	227.73
818.48	227.56
818.80	227.68
