SpectraSuite Data File
++++++++++++++++++++++++++++++++++++
Date: Wed Sep 04 17:52:52 EDT 2013
User: lab3
Dark Spectrum Present: Yes
Reference Spectrum Present: No
Number of Sampled Component Spectra: 1
Spectrometers: USB2E7196
Integration Time (usec): 170000 (USB2E7196)
Spectra Averaged: 20 (USB2E7196)
Boxcar Smoothing: 10 (USB2E7196)
Correct for Electrical Dark: No (USB2E7196)
Strobe/Lamp Enabled: No (USB2E7196)
Correct for Detector Non-linearity: No (USB2E7196)
Correct for Stray Light: No (USB2E7196)
Number of Pixels in Processed Spectrum: 2048
>>>>>Begin Processed Spectral Data<<<<<
339.09	0.00
339.48	214.30
339.86	213.80
340.24	215.85
340.63	218.30
341.01	226.50
341.39	219.85
341.78	222.90
342.16	223.30
342.54	223.20
342.93	212.31
343.31	223.03
343.69	223.52
344.07	224.01
344.46	224.50
344.84	224.88
345.22	224.83
345.60	225.06
345.99	225.27
346.37	225.34
346.75	225.41
347.13	225.53
347.52	225.56
347.90	225.82
348.28	225.84
348.66	226.05
349.05	225.97
349.43	226.04
349.81	226.10
350.19	226.18
350.57	226.20
350.96	226.38
351.34	226.50
351.72	226.65
352.10	226.79
352.48	226.81
352.87	226.83
353.25	226.86
353.63	226.94
354.01	226.91
354.39	227.02
354.77	227.14
355.15	227.32
355.54	227.35
355.92	227.19
356.30	227.28
356.68	227.55
357.06	227.63
357.44	227.66
357.82	227.71
358.20	228.14
358.58	228.15
358.97	228.21
359.35	228.27
359.73	228.33
360.11	228.36
360.49	228.42
360.87	228.45
361.25	228.62
361.63	228.85
362.01	228.96
362.39	229.05
362.77	229.12
363.15	229.15
363.53	229.22
363.91	229.29
364.29	229.29
364.67	228.88
365.05	228.93
365.43	228.96
365.81	229.10
366.19	229.00
366.57	229.24
366.95	229.17
367.33	229.11
367.71	229.18
368.09	229.30
368.47	229.34
368.85	229.34
369.23	229.43
369.61	229.23
369.99	229.45
370.37	229.55
370.75	229.73
371.13	229.57
371.51	229.47
371.89	229.48
372.27	229.48
372.65	229.44
373.03	229.39
373.41	229.33
373.78	229.22
374.16	228.96
374.54	228.81
374.92	228.77
375.30	228.72
375.68	228.51
376.06	228.41
376.44	228.28
376.82	228.29
377.19	228.20
377.57	228.07
377.95	227.75
378.33	227.57
378.71	227.30
379.09	227.32
379.47	227.33
379.84	227.22
380.22	227.06
380.60	226.91
380.98	226.79
381.36	226.76
381.73	226.65
382.11	226.67
382.49	226.52
382.87	226.32
383.25	226.30
383.62	226.79
384.00	226.70
384.38	226.66
384.76	226.71
385.13	226.78
385.51	226.82
385.89	226.68
386.27	226.64
386.64	226.62
387.02	226.57
387.40	226.46
387.78	226.48
388.15	226.59
388.53	226.53
388.91	226.50
389.29	226.41
389.66	226.43
390.04	226.30
390.42	226.38
390.79	226.49
391.17	226.45
391.55	225.95
391.92	225.91
392.30	225.98
392.68	225.89
393.05	225.90
393.43	225.92
393.81	225.96
394.18	225.94
394.56	225.95
394.94	226.10
395.31	226.10
395.69	226.27
396.06	226.27
396.44	226.36
396.82	226.37
397.19	226.71
397.57	226.72
397.95	226.90
398.32	226.87
398.70	227.00
399.07	227.19
399.45	227.25
399.82	227.36
400.20	227.32
400.58	227.36
400.95	227.23
401.33	227.42
401.70	227.93
402.08	228.03
402.45	228.17
402.83	228.39
403.20	228.60
403.58	228.69
403.95	228.97
404.33	229.31
404.71	229.53
405.08	229.97
405.46	230.26
405.83	230.52
406.21	230.80
406.58	231.12
406.96	231.37
407.33	231.79
407.70	232.16
408.08	232.94
408.45	233.39
408.83	233.89
409.20	234.26
409.58	234.40
409.95	235.00
410.33	235.51
410.70	235.96
411.08	236.64
411.45	237.20
411.82	237.74
412.20	238.47
412.57	239.49
412.95	239.83
413.32	240.65
413.69	241.51
414.07	242.45
414.44	243.39
414.82	244.43
415.19	245.49
415.56	246.68
415.94	247.67
416.31	249.15
416.68	250.58
417.06	252.22
417.43	253.86
417.81	255.56
418.18	257.30
418.55	259.12
418.93	261.14
419.30	263.29
419.67	265.59
420.04	267.72
420.42	269.99
420.79	273.06
421.16	275.82
421.54	278.85
421.91	281.79
422.28	284.80
422.66	287.94
423.03	291.40
423.40	294.72
423.77	298.26
424.15	301.79
424.52	305.51
424.89	309.59
425.26	313.48
425.64	317.27
426.01	321.55
426.38	325.88
426.75	330.32
427.13	334.83
427.50	339.43
427.87	344.31
428.24	349.14
428.61	353.52
428.99	358.77
429.36	364.13
429.73	369.55
430.10	375.10
430.47	380.83
430.85	386.36
431.22	392.57
431.59	399.26
431.96	405.57
432.33	412.47
432.70	419.16
433.08	427.02
433.45	434.41
433.82	441.67
434.19	449.85
434.56	457.90
434.93	465.40
435.30	473.25
435.68	481.93
436.05	490.43
436.42	498.76
436.79	506.48
437.16	514.62
437.53	523.49
437.90	532.17
438.27	540.62
438.64	549.65
439.01	557.95
439.38	565.17
439.75	572.16
440.13	580.15
440.50	587.74
440.87	593.75
441.24	600.09
441.61	606.97
441.98	612.01
442.35	617.82
442.72	623.99
443.09	629.81
443.46	633.13
443.83	635.34
444.20	637.29
444.57	639.90
444.94	641.08
445.31	642.25
445.68	643.58
446.05	643.85
446.42	642.47
446.79	640.98
447.16	639.36
447.53	638.19
447.90	634.54
448.27	630.83
448.64	626.07
449.01	622.42
449.37	616.31
449.74	610.25
450.11	603.54
450.48	595.83
450.85	587.83
451.22	581.04
451.59	574.52
451.96	568.22
452.33	560.29
452.70	553.06
453.07	544.26
453.43	535.23
453.80	526.95
454.17	518.99
454.54	511.37
454.91	503.17
455.28	495.24
455.65	487.79
456.02	481.01
456.38	474.67
456.75	466.96
457.12	460.62
457.49	454.47
457.86	448.07
458.23	442.95
458.59	437.20
458.96	431.45
459.33	426.43
459.70	421.37
460.07	417.24
460.43	412.56
460.80	408.42
461.17	404.82
461.54	400.86
461.91	397.08
462.27	393.19
462.64	390.05
463.01	386.38
463.38	383.12
463.74	379.00
464.11	375.94
464.48	373.31
464.85	370.49
465.21	368.33
465.58	366.00
465.95	363.18
466.32	361.02
466.68	358.75
467.05	356.48
467.42	354.39
467.78	352.06
468.15	350.00
468.52	348.41
468.88	346.13
469.25	344.15
469.62	342.73
469.98	341.10
470.35	339.62
470.72	338.27
471.08	336.54
471.45	335.41
471.82	334.25
472.18	332.80
472.55	331.70
472.92	330.29
473.28	329.18
473.65	328.00
474.02	326.93
474.38	326.12
474.75	325.40
475.11	324.41
475.48	323.82
475.85	323.14
476.21	322.45
476.58	321.93
476.94	321.59
477.31	321.03
477.67	320.57
478.04	320.15
478.41	319.90
478.77	320.26
479.14	319.88
479.50	319.70
479.87	319.75
480.23	319.75
480.60	319.79
480.96	319.78
481.33	320.13
481.69	320.32
482.06	320.60
482.42	320.85
482.79	321.35
483.15	321.77
483.52	322.46
483.88	322.94
484.25	323.41
484.61	324.06
484.98	324.67
485.34	325.58
485.71	326.50
486.07	327.49
486.44	327.95
486.80	329.03
487.17	330.07
487.53	331.47
487.90	332.90
488.26	334.59
488.62	336.29
488.99	337.85
489.35	339.53
489.72	341.33
490.08	343.25
490.44	345.16
490.81	347.38
491.17	349.48
491.54	351.89
491.90	354.50
492.26	357.04
492.63	359.87
492.99	362.71
493.36	365.93
493.72	369.15
494.08	372.69
494.45	376.47
494.81	380.47
495.17	384.26
495.54	388.53
495.90	392.68
496.26	397.02
496.63	401.67
496.99	406.42
497.35	411.46
497.72	416.78
498.08	422.27
498.44	427.89
498.80	433.89
499.17	439.89
499.53	446.10
499.89	452.92
500.26	459.74
500.62	466.89
500.98	474.13
501.34	481.56
501.71	489.23
502.07	497.03
502.43	505.12
502.79	513.47
503.16	522.00
503.52	530.95
503.88	540.22
504.24	549.86
504.60	560.02
504.97	570.23
505.33	580.65
505.69	591.75
506.05	602.76
506.41	613.83
506.78	625.75
507.14	637.91
507.50	650.00
507.86	662.51
508.22	675.41
508.59	688.48
508.95	702.15
509.31	716.30
509.67	730.59
510.03	744.85
510.39	759.55
510.75	774.51
511.12	789.91
511.48	805.55
511.84	821.35
512.20	837.08
512.56	853.47
512.92	870.16
513.28	886.95
513.64	904.12
514.00	921.76
514.37	939.28
514.73	957.37
515.09	975.73
515.45	994.27
515.81	1012.72
516.17	1031.38
516.53	1049.88
516.89	1068.41
517.25	1087.70
517.61	1107.86
517.97	1128.24
518.33	1148.36
518.69	1168.68
519.05	1189.34
519.41	1209.97
519.77	1230.97
520.13	1251.68
520.49	1272.37
520.85	1294.63
521.21	1315.85
521.57	1337.11
521.93	1357.82
522.29	1378.75
522.65	1399.23
523.01	1419.97
523.37	1440.40
523.73	1461.30
524.09	1481.91
524.45	1502.50
524.81	1523.30
525.17	1543.97
525.53	1564.26
525.89	1584.98
526.25	1605.72
526.61	1625.90
526.97	1646.76
527.33	1667.97
527.68	1689.48
528.04	1710.70
528.40	1730.15
528.76	1750.98
529.12	1771.32
529.48	1792.16
529.84	1812.18
530.20	1833.26
530.56	1854.04
530.91	1874.91
531.27	1895.31
531.63	1915.80
531.99	1936.50
532.35	1956.33
532.71	1976.53
533.07	1996.98
533.42	2016.54
533.78	2035.92
534.14	2055.89
534.50	2074.77
534.86	2093.81
535.21	2111.26
535.57	2129.37
535.93	2147.06
536.29	2164.67
536.65	2182.76
537.00	2200.33
537.36	2217.85
537.72	2234.26
538.08	2250.88
538.44	2267.34
538.79	2283.96
539.15	2300.30
539.51	2316.15
539.87	2331.57
540.22	2345.23
540.58	2359.66
540.94	2372.83
541.29	2385.64
541.65	2397.63
542.01	2410.03
542.37	2420.21
542.72	2431.27
543.08	2441.69
543.44	2453.18
543.79	2462.93
544.15	2472.73
544.51	2482.30
544.87	2491.90
545.22	2500.66
545.58	2508.84
545.94	2516.01
546.29	2522.11
546.65	2528.31
547.01	2533.67
547.36	2538.95
547.72	2544.30
548.07	2548.06
548.43	2553.49
548.79	2558.09
549.14	2562.59
549.50	2566.35
549.86	2570.59
550.21	2574.18
550.57	2578.05
550.92	2579.24
551.28	2580.71
551.64	2582.85
551.99	2584.74
552.35	2586.15
552.70	2588.17
553.06	2589.72
553.41	2590.95
553.77	2592.48
554.13	2593.97
554.48	2595.54
554.84	2596.46
555.19	2597.76
555.55	2599.47
555.90	2598.68
556.26	2597.61
556.61	2595.51
556.97	2593.30
557.32	2592.51
557.68	2591.25
558.03	2589.53
558.39	2588.14
558.74	2587.22
559.10	2583.95
559.45	2580.47
559.81	2576.00
560.16	2570.28
560.52	2564.94
560.87	2560.62
561.23	2555.41
561.58	2549.57
561.94	2542.72
562.29	2535.51
562.64	2528.23
563.00	2519.68
563.35	2513.14
563.71	2506.71
564.06	2500.79
564.42	2494.53
564.77	2487.52
565.12	2480.16
565.48	2472.52
565.83	2464.64
566.19	2456.76
566.54	2448.84
566.89	2440.91
567.25	2433.39
567.60	2426.50
567.96	2419.09
568.31	2410.84
568.66	2402.27
569.02	2393.54
569.37	2385.39
569.72	2377.91
570.08	2368.74
570.43	2359.77
570.78	2350.69
571.14	2341.10
571.49	2330.67
571.84	2320.84
572.20	2310.34
572.55	2300.13
572.90	2288.97
573.26	2278.86
573.61	2267.82
573.96	2256.76
574.31	2244.47
574.67	2232.71
575.02	2220.13
575.37	2207.49
575.72	2194.53
576.08	2182.57
576.43	2169.83
576.78	2156.91
577.13	2143.01
577.49	2130.64
577.84	2118.56
578.19	2106.41
578.54	2093.91
578.90	2082.00
579.25	2069.76
579.60	2057.11
579.95	2044.35
580.30	2031.42
580.66	2017.95
581.01	2004.34
581.36	1990.62
581.71	1978.16
582.06	1964.99
582.42	1952.54
582.77	1940.04
583.12	1928.17
583.47	1915.71
583.82	1903.96
584.17	1891.73
584.53	1880.21
584.88	1867.05
585.23	1853.99
585.58	1840.12
585.93	1827.12
586.28	1814.13
586.63	1800.37
586.98	1786.47
587.34	1773.01
587.69	1759.77
588.04	1747.54
588.39	1735.47
588.74	1723.09
589.09	1711.29
589.44	1698.77
589.79	1686.89
590.14	1674.98
590.49	1662.86
590.84	1650.90
591.19	1638.76
591.54	1626.49
591.89	1614.40
592.25	1604.45
592.60	1593.05
592.95	1581.59
593.30	1569.53
593.65	1557.35
594.00	1545.21
594.35	1535.24
594.70	1523.76
595.05	1512.74
595.40	1500.33
595.75	1488.73
596.10	1477.77
596.45	1466.03
596.80	1455.33
597.15	1443.75
597.50	1432.12
597.85	1420.84
598.19	1409.11
598.54	1397.73
598.89	1386.80
599.24	1376.21
599.59	1364.45
599.94	1353.58
600.29	1343.21
600.64	1333.25
600.99	1322.99
601.34	1313.70
601.69	1302.60
602.04	1292.82
602.39	1282.97
602.74	1273.96
603.08	1264.44
603.43	1254.98
603.78	1245.43
604.13	1235.69
604.48	1226.30
604.83	1216.60
605.18	1206.67
605.53	1197.55
605.87	1188.30
606.22	1179.68
606.57	1170.48
606.92	1161.26
607.27	1152.47
607.62	1143.86
607.96	1135.24
608.31	1127.19
608.66	1118.86
609.01	1110.49
609.36	1101.92
609.70	1093.47
610.05	1084.80
610.40	1076.32
610.75	1067.88
611.10	1059.60
611.44	1051.16
611.79	1042.87
612.14	1035.20
612.49	1027.45
612.83	1019.73
613.18	1011.87
613.53	1004.15
613.88	996.47
614.22	988.95
614.57	980.97
614.92	973.05
615.27	965.48
615.61	957.73
615.96	949.76
616.31	942.19
616.65	935.36
617.00	928.14
617.35	920.92
617.70	913.90
618.04	906.80
618.39	899.89
618.74	893.56
619.08	886.79
619.43	879.76
619.78	872.90
620.12	865.86
620.47	858.97
620.82	851.80
621.16	844.96
621.51	838.42
621.85	832.40
622.20	825.85
622.55	819.40
622.89	813.05
623.24	806.87
623.59	800.45
623.93	793.89
624.28	787.70
624.62	782.19
624.97	776.30
625.32	770.54
625.66	764.51
626.01	758.42
626.35	753.07
626.70	747.44
627.04	742.33
627.39	736.89
627.73	731.72
628.08	726.68
628.43	721.19
628.77	715.92
629.12	710.54
629.46	705.85
629.81	701.16
630.15	696.45
630.50	691.66
630.84	687.09
631.19	682.38
631.53	677.73
631.88	672.46
632.22	667.62
632.57	663.21
632.91	658.74
633.26	654.41
633.60	649.66
633.95	645.14
634.29	640.33
634.64	635.83
634.98	631.15
635.32	626.75
635.67	622.69
636.01	618.35
636.36	614.10
636.70	609.90
637.05	605.51
637.39	601.30
637.73	597.29
638.08	593.22
638.42	588.87
638.77	584.70
639.11	580.32
639.45	575.96
639.80	571.32
640.14	567.31
640.49	563.15
640.83	559.23
641.17	555.46
641.52	551.60
641.86	548.04
642.20	544.92
642.55	541.30
642.89	537.67
643.23	534.28
643.58	531.02
643.92	527.45
644.26	524.01
644.61	520.86
644.95	517.47
645.29	513.99
645.64	511.05
645.98	507.98
646.32	505.28
646.66	502.34
647.01	499.56
647.35	496.85
647.69	493.96
648.04	491.19
648.38	488.51
648.72	485.85
649.06	482.84
649.41	479.67
649.75	476.79
650.09	474.10
650.43	471.22
650.78	468.32
651.12	465.52
651.46	462.87
651.80	459.99
652.14	457.30
652.49	454.92
652.83	452.35
653.17	449.76
653.51	447.04
653.85	444.68
654.20	442.31
654.54	439.62
654.88	437.17
655.22	434.96
655.56	432.54
655.90	430.12
656.25	427.93
656.59	425.69
656.93	423.53
657.27	421.33
657.61	419.00
657.95	416.87
658.29	414.72
658.64	412.56
658.98	410.42
659.32	408.28
659.66	406.17
660.00	404.17
660.34	402.05
660.68	400.19
661.02	398.12
661.36	396.14
661.70	394.21
662.05	392.24
662.39	390.17
662.73	388.47
663.07	386.90
663.41	385.09
663.75	383.18
664.09	381.25
664.43	379.43
664.77	377.68
665.11	375.87
665.45	374.20
665.79	372.63
666.13	370.93
666.47	369.37
666.81	367.60
667.15	365.85
667.49	364.41
667.83	362.97
668.17	361.60
668.51	360.10
668.85	358.71
669.19	357.49
669.53	355.99
669.87	354.34
670.21	352.78
670.55	351.37
670.89	350.29
671.23	349.03
671.57	347.62
671.91	346.36
672.25	344.96
672.58	343.70
672.92	342.27
673.26	340.99
673.60	339.65
673.94	338.42
674.28	337.36
674.62	336.17
674.96	334.81
675.30	333.55
675.64	332.34
675.97	331.15
676.31	329.79
676.65	328.57
676.99	327.64
677.33	326.40
677.67	325.35
678.01	324.03
678.34	322.94
678.68	322.01
679.02	320.96
679.36	320.04
679.70	319.05
680.04	318.11
680.37	317.21
680.71	316.26
681.05	315.43
681.39	314.41
681.73	313.48
682.06	312.60
682.40	311.77
682.74	310.92
683.08	310.19
683.42	309.32
683.75	308.61
684.09	307.65
684.43	306.91
684.77	306.08
685.10	305.42
685.44	304.67
685.78	303.87
686.12	303.06
686.45	302.33
686.79	301.45
687.13	300.75
687.46	299.90
687.80	299.29
688.14	298.51
688.48	297.83
688.81	297.10
689.15	296.48
689.49	295.79
689.82	295.15
690.16	294.26
690.50	293.66
690.83	292.93
691.17	292.20
691.51	291.52
691.84	290.93
692.18	290.11
692.52	289.43
692.85	288.76
693.19	288.40
693.52	287.68
693.86	287.11
694.20	286.47
694.53	285.97
694.87	285.29
695.21	284.60
695.54	284.00
695.88	283.26
696.21	282.49
696.55	281.90
696.88	281.30
697.22	280.71
697.56	280.15
697.89	279.51
698.23	279.01
698.56	278.40
698.90	277.91
699.23	277.40
699.57	276.90
699.90	276.45
700.24	275.74
700.58	275.34
700.91	274.91
701.25	274.74
701.58	274.62
701.92	274.23
702.25	273.87
702.59	273.36
702.92	273.04
703.26	272.76
703.59	272.26
703.93	272.19
704.26	271.85
704.60	271.44
704.93	271.05
705.26	270.59
705.60	270.19
705.93	269.60
706.27	269.40
706.60	269.07
706.94	268.77
707.27	268.33
707.61	267.87
707.94	267.39
708.27	266.67
708.61	265.85
708.94	265.33
709.28	264.93
709.61	264.56
709.94	264.19
710.28	263.79
710.61	263.47
710.95	262.58
711.28	262.56
711.61	262.14
711.95	261.95
712.28	261.55
712.61	261.25
712.95	261.15
713.28	260.88
713.61	260.44
713.95	259.98
714.28	259.69
714.61	259.32
714.95	258.96
715.28	258.56
715.61	258.25
715.95	258.02
716.28	257.59
716.61	257.24
716.95	256.84
717.28	256.44
717.61	256.09
717.94	255.79
718.28	255.07
718.61	254.78
718.94	254.30
719.27	254.03
719.61	253.73
719.94	253.34
720.27	252.85
720.60	252.61
720.94	252.33
721.27	252.08
721.60	251.96
721.93	251.76
722.27	251.75
722.60	251.61
722.93	251.37
723.26	251.19
723.59	250.94
723.93	250.83
724.26	250.71
724.59	250.50
724.92	250.41
725.25	250.35
725.59	250.14
725.92	250.06
726.25	249.83
726.58	249.71
726.91	249.53
727.24	249.46
727.57	249.20
727.91	249.01
728.24	248.91
728.57	248.69
728.90	248.61
729.23	248.27
729.56	248.21
729.89	248.05
730.22	247.98
730.55	247.87
730.89	247.68
731.22	247.54
731.55	247.36
731.88	247.24
732.21	246.97
732.54	246.72
732.87	246.48
733.20	246.45
733.53	246.34
733.86	246.18
734.19	246.00
734.52	245.91
734.85	246.13
735.18	245.90
735.51	245.88
735.84	245.69
736.17	245.66
736.50	245.39
736.83	245.79
737.16	245.60
737.49	245.49
737.82	245.32
738.15	245.13
738.48	244.98
738.81	244.86
739.14	244.79
739.47	244.71
739.80	244.59
740.13	244.49
740.46	244.22
740.79	243.98
741.12	243.75
741.45	243.49
741.78	243.05
742.11	243.04
742.44	242.75
742.77	242.64
743.10	242.48
743.43	242.29
743.75	241.61
744.08	241.98
744.41	241.82
744.74	241.64
745.07	241.44
745.40	241.39
745.73	241.35
746.06	241.19
746.39	241.06
746.71	240.95
747.04	240.76
747.37	240.59
747.70	240.60
748.03	240.52
748.36	240.53
748.68	240.35
749.01	240.02
749.34	239.87
749.67	239.83
750.00	239.72
750.33	239.95
750.65	239.87
750.98	239.20
751.31	239.09
751.64	238.96
751.97	239.08
752.29	238.90
752.62	238.52
752.95	238.32
753.28	238.13
753.60	237.93
753.93	237.87
754.26	237.72
754.59	237.53
754.91	237.36
755.24	237.25
755.57	237.13
755.90	237.07
756.22	236.93
756.55	236.66
756.88	236.39
757.20	235.93
757.53	235.69
757.86	235.60
758.19	235.46
758.51	235.38
758.84	235.05
759.17	234.90
759.49	234.86
759.82	235.01
760.15	235.00
760.47	234.93
760.80	234.72
761.13	234.74
761.45	234.58
761.78	234.52
762.11	234.40
762.43	234.25
762.76	234.18
763.08	234.11
763.41	234.11
763.74	234.09
764.06	234.01
764.39	233.97
764.71	233.85
765.04	233.78
765.37	233.67
765.69	233.63
766.02	233.57
766.34	233.53
766.67	233.22
767.00	233.32
767.32	233.59
767.65	233.81
767.97	233.72
768.30	233.74
768.62	233.68
768.95	233.54
769.27	233.48
769.60	233.58
769.92	233.52
770.25	233.34
770.57	233.21
770.90	233.16
771.22	233.07
771.55	233.06
771.87	233.05
772.20	233.05
772.52	233.40
772.85	233.92
773.17	233.83
773.50	233.81
773.82	233.58
774.15	233.32
774.47	232.98
774.80	232.99
775.12	232.90
775.45	232.76
775.77	232.80
776.09	232.80
776.42	232.64
776.74	232.81
777.07	232.78
777.39	232.80
777.72	232.73
778.04	232.75
778.36	232.71
778.69	232.67
779.01	232.63
779.33	232.22
779.66	231.68
779.98	231.60
780.31	231.59
780.63	231.78
780.95	231.78
781.28	231.76
781.60	231.62
781.92	231.55
782.25	231.58
782.57	231.55
782.89	231.60
783.22	231.56
783.54	231.41
783.86	231.47
784.19	231.32
784.51	231.47
784.83	231.31
785.16	231.21
785.48	231.14
785.80	231.14
786.12	231.14
786.45	231.13
786.77	231.15
787.09	231.09
787.42	230.85
787.74	230.81
788.06	230.74
788.38	230.68
788.71	230.65
789.03	230.62
789.35	230.69
789.67	230.60
789.99	230.55
790.32	230.44
790.64	230.43
790.96	230.85
791.28	230.64
791.61	230.64
791.93	230.67
792.25	230.67
792.57	230.93
792.89	230.75
793.21	230.65
793.54	230.63
793.86	230.60
794.18	230.63
794.50	230.48
794.82	230.49
795.14	230.50
795.47	230.51
795.79	230.47
796.11	230.27
796.43	230.19
796.75	230.15
797.07	230.12
797.39	230.07
797.71	229.75
798.04	229.75
798.36	229.80
798.68	229.68
799.00	229.72
799.32	229.40
799.64	229.56
799.96	229.59
800.28	229.65
800.60	229.61
800.92	229.68
801.24	229.64
801.56	229.70
801.89	229.67
802.21	229.73
802.53	229.70
802.85	229.84
803.17	230.01
803.49	229.94
803.81	229.86
804.13	229.79
804.45	229.72
804.77	229.71
805.09	229.69
805.41	229.73
805.73	229.56
806.05	229.45
806.37	229.36
806.69	229.25
807.01	229.20
807.33	229.16
807.65	228.91
807.97	229.10
808.28	228.98
808.60	228.94
808.92	228.80
809.24	229.07
809.56	228.93
809.88	228.74
810.20	228.76
810.52	228.85
810.84	228.81
811.16	228.68
811.48	228.66
811.80	228.81
812.12	228.78
812.43	228.87
812.75	228.91
813.07	228.84
813.39	228.87
813.71	228.79
814.03	228.75
814.35	228.80
814.67	228.55
814.98	228.45
815.30	228.45
815.62	228.38
815.94	228.00
816.26	228.20
816.58	228.06
816.89	228.10
817.21	228.07
817.53	228.05
817.85	228.12
