SpectraSuite Data File
++++++++++++++++++++++++++++++++++++
Date: Wed Sep 04 17:53:13 EDT 2013
User: lab3
Dark Spectrum Present: Yes
Reference Spectrum Present: No
Number of Sampled Component Spectra: 1
Spectrometers: USB2E7196
Integration Time (usec): 170000 (USB2E7196)
Spectra Averaged: 20 (USB2E7196)
Boxcar Smoothing: 10 (USB2E7196)
Correct for Electrical Dark: No (USB2E7196)
Strobe/Lamp Enabled: No (USB2E7196)
Correct for Detector Non-linearity: No (USB2E7196)
Correct for Stray Light: No (USB2E7196)
Number of Pixels in Processed Spectrum: 2048
>>>>>Begin Processed Spectral Data<<<<<
339.09	0.00
339.48	213.25
339.86	215.40
340.24	216.20
340.63	218.60
341.01	226.25
341.39	219.85
341.78	223.20
342.16	223.30
342.54	223.65
342.93	212.58
343.31	223.30
343.69	223.82
344.07	224.24
344.46	224.74
344.84	225.08
345.22	225.08
345.60	225.34
345.99	225.44
346.37	225.60
346.75	225.69
347.13	225.72
347.52	225.79
347.90	225.99
348.28	226.07
348.66	226.24
349.05	226.14
349.43	226.20
349.81	226.30
350.19	226.33
350.57	226.41
350.96	226.48
351.34	226.55
351.72	226.69
352.10	226.75
352.48	226.74
352.87	226.75
353.25	226.71
353.63	226.82
354.01	226.90
354.39	226.96
354.77	227.02
355.15	227.23
355.54	227.20
355.92	227.12
356.30	227.20
356.68	227.56
357.06	227.63
357.44	227.56
357.82	227.65
358.20	228.09
358.58	228.13
358.97	228.24
359.35	228.43
359.73	228.60
360.11	228.68
360.49	228.81
360.87	228.91
361.25	229.05
361.63	229.17
362.01	229.27
362.39	229.34
362.77	229.41
363.15	229.42
363.53	229.51
363.91	229.54
364.29	229.52
364.67	229.09
365.05	229.18
365.43	229.32
365.81	229.47
366.19	229.35
366.57	229.59
366.95	229.62
367.33	229.52
367.71	229.47
368.09	229.62
368.47	229.56
368.85	229.53
369.23	229.69
369.61	229.60
369.99	229.72
370.37	229.78
370.75	230.07
371.13	229.90
371.51	229.76
371.89	229.84
372.27	229.86
372.65	229.90
373.03	229.85
373.41	229.76
373.78	229.55
374.16	229.26
374.54	229.02
374.92	228.88
375.30	228.81
375.68	228.66
376.06	228.63
376.44	228.59
376.82	228.60
377.19	228.48
377.57	228.40
377.95	228.20
378.33	228.01
378.71	227.61
379.09	227.66
379.47	227.68
379.84	227.51
380.22	227.40
380.60	227.21
380.98	227.10
381.36	227.06
381.73	226.95
382.11	227.01
382.49	227.01
382.87	226.85
383.25	226.79
383.62	227.29
384.00	227.07
384.38	227.00
384.76	227.03
385.13	227.11
385.51	227.03
385.89	226.99
386.27	226.97
386.64	227.06
387.02	226.95
387.40	226.88
387.78	226.90
388.15	226.91
388.53	226.90
388.91	226.87
389.29	226.75
389.66	226.81
390.04	226.71
390.42	226.70
390.79	226.77
391.17	226.73
391.55	226.16
391.92	226.14
392.30	226.24
392.68	226.11
393.05	226.13
393.43	226.19
393.81	226.20
394.18	226.16
394.56	226.17
394.94	226.26
395.31	226.29
395.69	226.43
396.06	226.52
396.44	226.58
396.82	226.62
397.19	226.90
397.57	226.91
397.95	226.97
398.32	226.86
398.70	226.94
399.07	227.15
399.45	227.27
399.82	227.41
400.20	227.38
400.58	227.43
400.95	227.30
401.33	227.52
401.70	227.86
402.08	228.05
402.45	228.14
402.83	228.43
403.20	228.59
403.58	228.64
403.95	228.87
404.33	229.15
404.71	229.32
405.08	229.78
405.46	230.01
405.83	230.33
406.21	230.62
406.58	230.93
406.96	231.21
407.33	231.56
407.70	231.91
408.08	232.70
408.45	233.16
408.83	233.62
409.20	233.91
409.58	234.11
409.95	234.64
410.33	235.19
410.70	235.55
411.08	236.25
411.45	236.88
411.82	237.45
412.20	238.22
412.57	239.26
412.95	239.59
413.32	240.48
413.69	241.26
414.07	242.22
414.44	243.23
414.82	244.16
415.19	245.33
415.56	246.55
415.94	247.53
416.31	249.02
416.68	250.47
417.06	252.14
417.43	253.71
417.81	255.48
418.18	257.20
418.55	259.10
418.93	260.97
419.30	263.03
419.67	265.20
420.04	267.46
420.42	269.72
420.79	272.80
421.16	275.57
421.54	278.61
421.91	281.59
422.28	284.60
422.66	287.90
423.03	291.39
423.40	294.63
423.77	298.22
424.15	301.78
424.52	305.48
424.89	309.60
425.26	313.54
425.64	317.22
426.01	321.51
426.38	325.91
426.75	330.52
427.13	335.10
427.50	339.85
427.87	344.71
428.24	349.65
428.61	354.04
428.99	359.37
429.36	364.82
429.73	370.30
430.10	375.79
430.47	381.55
430.85	387.10
431.22	393.21
431.59	399.92
431.96	406.11
432.33	413.15
432.70	419.71
433.08	427.63
433.45	435.14
433.82	442.55
434.19	450.62
434.56	458.67
434.93	466.42
435.30	474.12
435.68	482.70
436.05	491.03
436.42	499.49
436.79	507.14
437.16	515.49
437.53	524.34
437.90	533.02
438.27	541.44
438.64	550.35
439.01	558.68
439.38	565.78
439.75	572.95
440.13	580.85
440.50	588.48
440.87	594.51
441.24	600.80
441.61	607.53
441.98	612.60
442.35	618.37
442.72	624.29
443.09	630.11
443.46	633.52
443.83	635.85
444.20	637.78
444.57	640.45
444.94	641.52
445.31	642.63
445.68	644.25
446.05	644.45
446.42	643.13
446.79	641.82
447.16	640.14
447.53	638.90
447.90	635.19
448.27	631.55
448.64	626.78
449.01	623.27
449.37	617.25
449.74	611.39
450.11	604.59
450.48	596.87
450.85	589.05
451.22	582.19
451.59	575.65
451.96	569.34
452.33	561.19
452.70	553.88
453.07	545.12
453.43	535.89
453.80	527.54
454.17	519.52
454.54	511.80
454.91	503.85
455.28	495.80
455.65	488.41
456.02	481.52
456.38	475.08
456.75	467.21
457.12	460.69
457.49	454.39
457.86	448.04
458.23	442.88
458.59	437.07
458.96	431.34
459.33	426.22
459.70	421.19
460.07	417.23
460.43	412.56
460.80	408.43
461.17	404.59
461.54	400.62
461.91	396.93
462.27	392.97
462.64	389.61
463.01	386.04
463.38	382.76
463.74	378.80
464.11	375.78
464.48	373.12
464.85	370.28
465.21	368.07
465.58	365.78
465.95	362.95
466.32	360.72
466.68	358.44
467.05	356.19
467.42	353.87
467.78	351.47
468.15	349.29
468.52	347.65
468.88	345.44
469.25	343.47
469.62	341.91
469.98	340.33
470.35	338.89
470.72	337.50
471.08	335.78
471.45	334.46
471.82	333.22
472.18	331.82
472.55	330.80
472.92	329.45
473.28	328.30
473.65	327.25
474.02	326.17
474.38	325.40
474.75	324.66
475.11	323.87
475.48	323.25
475.85	322.73
476.21	321.97
476.58	321.53
476.94	321.17
477.31	320.69
477.67	320.41
478.04	320.04
478.41	319.88
478.77	320.22
479.14	319.94
479.50	319.83
479.87	319.78
480.23	319.79
480.60	319.84
480.96	319.89
481.33	320.22
481.69	320.38
482.06	320.62
482.42	320.89
482.79	321.27
483.15	321.77
483.52	322.37
483.88	322.94
484.25	323.44
484.61	324.11
484.98	324.76
485.34	325.61
485.71	326.47
486.07	327.44
486.44	328.00
486.80	329.19
487.17	330.36
487.53	331.76
487.90	333.19
488.26	334.87
488.62	336.49
488.99	337.97
489.35	339.80
489.72	341.64
490.08	343.63
490.44	345.67
490.81	347.83
491.17	349.92
491.54	352.47
491.90	355.05
492.26	357.70
492.63	360.52
492.99	363.39
493.36	366.67
493.72	370.06
494.08	373.47
494.45	377.17
494.81	380.98
495.17	384.89
495.54	389.02
495.90	393.16
496.26	397.64
496.63	402.29
496.99	407.09
497.35	412.03
497.72	417.34
498.08	422.81
498.44	428.56
498.80	434.52
499.17	440.51
499.53	446.80
499.89	453.55
500.26	460.34
500.62	467.28
500.98	474.54
501.34	481.90
501.71	489.61
502.07	497.31
502.43	505.41
502.79	513.71
503.16	522.41
503.52	531.36
503.88	540.55
504.24	550.21
504.60	560.27
504.97	570.64
505.33	581.03
505.69	592.12
506.05	603.04
506.41	614.30
506.78	625.86
507.14	637.77
507.50	649.88
507.86	662.38
508.22	675.38
508.59	688.31
508.95	702.02
509.31	716.06
509.67	730.42
510.03	744.69
510.39	759.42
510.75	774.35
511.12	789.53
511.48	805.26
511.84	821.02
512.20	836.83
512.56	852.94
512.92	869.70
513.28	886.48
513.64	903.77
514.00	921.25
514.37	938.99
514.73	957.24
515.09	975.41
515.45	993.93
515.81	1012.22
516.17	1030.97
516.53	1049.29
516.89	1068.03
517.25	1087.40
517.61	1107.58
517.97	1127.72
518.33	1148.10
518.69	1168.32
519.05	1188.58
519.41	1209.15
519.77	1230.45
520.13	1251.23
520.49	1271.72
520.85	1293.69
521.21	1314.86
521.57	1336.10
521.93	1356.68
522.29	1377.68
522.65	1398.54
523.01	1419.35
523.37	1439.93
523.73	1460.94
524.09	1481.66
524.45	1502.32
524.81	1523.16
525.17	1543.72
525.53	1564.48
525.89	1584.97
526.25	1605.85
526.61	1626.36
526.97	1647.55
527.33	1668.55
527.68	1690.22
528.04	1711.51
528.40	1731.02
528.76	1751.81
529.12	1771.85
529.48	1792.60
529.84	1812.74
530.20	1833.71
530.56	1854.54
530.91	1875.73
531.27	1896.08
531.63	1916.64
531.99	1937.13
532.35	1957.11
532.71	1977.22
533.07	1997.54
533.42	2017.23
533.78	2036.96
534.14	2056.69
534.50	2075.64
534.86	2094.39
535.21	2112.08
535.57	2130.51
535.93	2148.33
536.29	2165.90
536.65	2184.09
537.00	2201.60
537.36	2218.69
537.72	2234.89
538.08	2251.81
538.44	2268.03
538.79	2284.46
539.15	2300.86
539.51	2316.75
539.87	2331.98
540.22	2346.01
540.58	2360.31
540.94	2373.50
541.29	2386.07
541.65	2398.31
542.01	2410.43
542.37	2421.18
542.72	2432.10
543.08	2442.63
543.44	2454.26
543.79	2464.30
544.15	2474.23
544.51	2484.23
544.87	2493.96
545.22	2502.74
545.58	2510.37
545.94	2517.48
546.29	2523.60
546.65	2529.80
547.01	2535.33
547.36	2540.58
547.72	2545.78
548.07	2549.62
548.43	2554.77
548.79	2559.32
549.14	2563.68
549.50	2567.84
549.86	2571.53
550.21	2574.95
550.57	2578.21
550.92	2579.37
551.28	2580.65
551.64	2582.95
551.99	2584.92
552.35	2586.57
552.70	2588.50
553.06	2590.29
553.41	2591.29
553.77	2593.19
554.13	2594.50
554.48	2596.02
554.84	2597.42
555.19	2598.81
555.55	2600.42
555.90	2599.90
556.26	2599.39
556.61	2597.60
556.97	2595.19
557.32	2594.31
557.68	2592.96
558.03	2591.61
558.39	2590.57
558.74	2589.60
559.10	2586.29
559.45	2582.62
559.81	2578.04
560.16	2572.95
560.52	2567.96
560.87	2563.81
561.23	2558.51
561.58	2552.57
561.94	2545.59
562.29	2537.96
562.64	2530.68
563.00	2522.40
563.35	2515.80
563.71	2509.07
564.06	2503.19
564.42	2496.39
564.77	2489.74
565.12	2482.23
565.48	2474.32
565.83	2466.13
566.19	2458.03
566.54	2450.43
566.89	2442.36
567.25	2434.65
567.60	2427.22
567.96	2419.73
568.31	2411.70
568.66	2402.85
569.02	2393.87
569.37	2385.60
569.72	2378.07
570.08	2369.08
570.43	2359.43
570.78	2350.42
571.14	2341.16
571.49	2330.68
571.84	2321.04
572.20	2310.25
572.55	2300.15
572.90	2289.08
573.26	2278.90
573.61	2268.13
573.96	2256.82
574.31	2244.82
574.67	2233.25
575.02	2220.69
575.37	2207.73
575.72	2194.61
576.08	2182.60
576.43	2170.22
576.78	2157.30
577.13	2143.67
577.49	2130.85
577.84	2118.84
578.19	2106.70
578.54	2093.59
578.90	2081.85
579.25	2069.88
579.60	2057.65
579.95	2044.98
580.30	2032.24
580.66	2018.63
581.01	2005.16
581.36	1991.12
581.71	1978.63
582.06	1965.76
582.42	1953.43
582.77	1940.79
583.12	1928.86
583.47	1916.49
583.82	1904.55
584.17	1892.69
584.53	1881.07
584.88	1868.02
585.23	1855.43
585.58	1841.23
585.93	1828.32
586.28	1814.75
586.63	1800.83
586.98	1786.31
587.34	1772.79
587.69	1759.52
588.04	1747.36
588.39	1735.22
588.74	1723.12
589.09	1711.06
589.44	1698.19
589.79	1686.06
590.14	1674.51
590.49	1662.27
590.84	1650.46
591.19	1638.52
591.54	1626.30
591.89	1614.17
592.25	1604.33
592.60	1592.87
592.95	1581.83
593.30	1569.90
593.65	1558.29
594.00	1546.44
594.35	1536.77
594.70	1525.30
595.05	1514.13
595.40	1502.06
595.75	1490.22
596.10	1479.14
596.45	1467.64
596.80	1456.87
597.15	1445.68
597.50	1433.77
597.85	1422.61
598.19	1410.89
598.54	1399.37
598.89	1388.10
599.24	1377.60
599.59	1365.92
599.94	1355.20
600.29	1344.58
600.64	1334.35
600.99	1323.57
601.34	1313.75
601.69	1302.65
602.04	1292.94
602.39	1282.83
602.74	1273.72
603.08	1264.46
603.43	1255.32
603.78	1245.58
604.13	1236.20
604.48	1226.58
604.83	1217.06
605.18	1207.37
605.53	1197.81
605.87	1188.64
606.22	1180.26
606.57	1170.77
606.92	1161.28
607.27	1152.38
607.62	1143.63
607.96	1135.13
608.31	1127.36
608.66	1119.28
609.01	1110.80
609.36	1102.11
609.70	1093.75
610.05	1084.84
610.40	1076.23
610.75	1067.50
611.10	1059.34
611.44	1050.66
611.79	1042.40
612.14	1034.53
612.49	1026.76
612.83	1019.50
613.18	1011.87
613.53	1003.98
613.88	996.02
614.22	988.63
614.57	980.67
614.92	972.82
615.27	965.37
615.61	957.63
615.96	949.99
616.31	942.47
616.65	935.74
617.00	928.58
617.35	921.56
617.70	914.50
618.04	907.45
618.39	900.58
618.74	894.16
619.08	887.28
619.43	880.16
619.78	873.09
620.12	865.79
620.47	858.85
620.82	851.75
621.16	845.12
621.51	838.83
621.85	832.78
622.20	826.28
622.55	819.65
622.89	813.20
623.24	806.85
623.59	800.69
623.93	794.17
624.28	788.12
624.62	782.60
624.97	776.77
625.32	770.99
625.66	764.97
626.01	758.94
626.35	753.57
626.70	748.10
627.04	742.96
627.39	737.69
627.73	732.31
628.08	727.26
628.43	721.88
628.77	716.31
629.12	710.92
629.46	706.16
629.81	701.55
630.15	696.68
630.50	691.93
630.84	687.21
631.19	682.58
631.53	678.09
631.88	672.78
632.22	667.97
632.57	663.60
632.91	659.09
633.26	654.76
633.60	649.98
633.95	645.49
634.29	640.72
634.64	636.12
634.98	631.38
635.32	627.03
635.67	622.98
636.01	618.88
636.36	614.52
636.70	610.54
637.05	606.21
637.39	602.18
637.73	598.06
638.08	593.96
638.42	589.73
638.77	585.31
639.11	580.97
639.45	576.63
639.80	572.12
640.14	568.13
640.49	564.13
640.83	560.42
641.17	556.74
641.52	553.10
641.86	549.57
642.20	546.43
642.55	542.74
642.89	539.22
643.23	535.75
643.58	532.51
643.92	528.73
644.26	525.33
644.61	522.03
644.95	518.62
645.29	515.29
645.64	512.27
645.98	509.20
646.32	506.35
646.66	503.34
647.01	500.43
647.35	497.61
647.69	494.66
648.04	491.77
648.38	488.89
648.72	485.98
649.06	483.00
649.41	479.98
649.75	477.06
650.09	474.28
650.43	471.37
650.78	468.48
651.12	465.69
651.46	462.87
651.80	460.07
652.14	457.38
652.49	454.82
652.83	452.13
653.17	449.69
653.51	446.98
653.85	444.68
654.20	442.15
654.54	439.49
654.88	436.99
655.22	434.70
655.56	432.35
655.90	430.05
656.25	427.87
656.59	425.67
656.93	423.49
657.27	421.42
657.61	419.09
657.95	416.89
658.29	414.75
658.64	412.76
658.98	410.67
659.32	408.45
659.66	406.26
660.00	404.17
660.34	401.94
660.68	399.94
661.02	397.75
661.36	395.87
661.70	393.93
662.05	392.01
662.39	390.10
662.73	388.35
663.07	386.65
663.41	384.79
663.75	382.78
664.09	380.94
664.43	378.92
664.77	377.32
665.11	375.52
665.45	373.88
665.79	372.24
666.13	370.61
666.47	368.96
666.81	367.35
667.15	365.65
667.49	364.28
667.83	363.00
668.17	361.58
668.51	360.16
668.85	358.80
669.19	357.58
669.53	356.04
669.87	354.46
670.21	352.96
670.55	351.65
670.89	350.65
671.23	349.25
671.57	347.84
671.91	346.49
672.25	345.12
672.58	344.00
672.92	342.49
673.26	341.13
673.60	339.85
673.94	338.56
674.28	337.45
674.62	336.25
674.96	334.95
675.30	333.87
675.64	332.63
675.97	331.49
676.31	330.22
676.65	328.95
676.99	328.00
677.33	326.78
677.67	325.70
678.01	324.41
678.34	323.40
678.68	322.57
679.02	321.41
679.36	320.57
679.70	319.37
680.04	318.46
680.37	317.50
680.71	316.59
681.05	315.77
681.39	314.88
681.73	313.88
682.06	312.93
682.40	311.93
682.74	311.16
683.08	310.27
683.42	309.33
683.75	308.64
684.09	307.65
684.43	306.89
684.77	305.90
685.10	305.05
685.44	304.26
685.78	303.42
686.12	302.69
686.45	301.77
686.79	301.02
687.13	300.38
687.46	299.71
687.80	299.09
688.14	298.30
688.48	297.58
688.81	296.80
689.15	296.23
689.49	295.51
689.82	294.77
690.16	293.93
690.50	293.23
690.83	292.47
691.17	291.65
691.51	290.95
691.84	290.49
692.18	289.81
692.52	289.19
692.85	288.50
693.19	288.12
693.52	287.52
693.86	286.90
694.20	286.25
694.53	285.59
694.87	284.93
695.21	284.30
695.54	283.68
695.88	283.08
696.21	282.33
696.55	281.79
696.88	281.13
697.22	280.54
697.56	280.01
697.89	279.42
698.23	279.00
698.56	278.42
698.90	277.85
699.23	277.33
699.57	276.76
699.90	276.17
700.24	275.45
700.58	274.99
700.91	274.48
701.25	274.33
701.58	274.16
701.92	273.81
702.25	273.38
702.59	272.80
702.92	272.43
703.26	272.03
703.59	271.62
703.93	271.55
704.26	271.22
704.60	270.83
704.93	270.45
705.26	270.00
705.60	269.67
705.93	269.18
706.27	268.92
706.60	268.65
706.94	268.50
707.27	268.04
707.61	267.71
707.94	267.40
708.27	266.66
708.61	265.94
708.94	265.42
709.28	264.96
709.61	264.65
709.94	264.26
710.28	263.90
710.61	263.52
710.95	262.86
711.28	262.80
711.61	262.38
711.95	262.07
712.28	261.71
712.61	261.37
712.95	261.27
713.28	261.08
713.61	260.66
713.95	260.20
714.28	259.97
714.61	259.54
714.95	259.18
715.28	258.76
715.61	258.43
715.95	258.15
716.28	257.81
716.61	257.60
716.95	257.29
717.28	257.02
717.61	256.69
717.94	256.38
718.28	255.78
718.61	255.45
718.94	255.17
719.27	254.87
719.61	254.63
719.94	254.20
720.27	253.73
720.60	253.44
720.94	253.20
721.27	252.92
721.60	252.72
721.93	252.46
722.27	252.40
722.60	252.28
722.93	252.03
723.26	251.90
723.59	251.57
723.93	251.38
724.26	251.15
724.59	250.86
724.92	250.61
725.25	250.46
725.59	250.29
725.92	250.14
726.25	249.94
726.58	249.71
726.91	249.52
727.24	249.44
727.57	249.24
727.91	248.95
728.24	248.82
728.57	248.61
728.90	248.48
729.23	248.16
729.56	248.21
729.89	248.03
730.22	247.76
730.55	247.56
730.89	247.33
731.22	247.16
731.55	246.98
731.88	246.84
732.21	246.56
732.54	246.36
732.87	246.14
733.20	246.02
733.53	245.85
733.86	245.69
734.19	245.33
734.52	245.23
734.85	245.41
735.18	245.17
735.51	245.16
735.84	245.01
736.17	244.92
736.50	244.44
736.83	244.83
737.16	244.70
737.49	244.59
737.82	244.45
738.15	244.32
738.48	244.17
738.81	243.99
739.14	243.84
739.47	243.68
739.80	243.57
740.13	243.45
740.46	243.24
740.79	243.09
741.12	242.99
741.45	242.80
741.78	242.35
742.11	242.32
742.44	242.15
742.77	242.06
743.10	241.91
743.43	241.76
743.75	241.07
744.08	241.53
744.41	241.34
744.74	241.17
745.07	240.96
745.40	240.97
745.73	241.07
746.06	240.93
746.39	240.87
746.71	240.65
747.04	240.49
747.37	240.44
747.70	240.38
748.03	240.27
748.36	240.24
748.68	240.12
749.01	239.97
749.34	239.78
749.67	239.71
750.00	239.66
750.33	239.93
750.65	239.91
750.98	239.25
751.31	239.21
751.64	239.20
751.97	239.28
752.29	239.21
752.62	238.91
752.95	238.76
753.28	238.66
753.60	238.61
753.93	238.62
754.26	238.52
754.59	238.32
754.91	238.16
755.24	237.98
755.57	237.94
755.90	237.83
756.22	237.70
756.55	237.53
756.88	237.28
757.20	236.82
757.53	236.56
757.86	236.43
758.19	236.34
758.51	236.18
758.84	235.91
759.17	235.72
759.49	235.65
759.82	235.85
760.15	235.68
760.47	235.51
760.80	235.30
761.13	235.30
761.45	235.14
761.78	235.05
762.11	235.00
762.43	234.83
762.76	234.65
763.08	234.63
763.41	234.57
763.74	234.53
764.06	234.43
764.39	234.45
764.71	234.44
765.04	234.26
765.37	234.13
765.69	234.07
766.02	233.96
766.34	233.77
766.67	233.51
767.00	233.66
767.32	233.86
767.65	234.09
767.97	233.91
768.30	233.94
768.62	233.89
768.95	233.78
769.27	233.72
769.60	233.74
769.92	233.53
770.25	233.37
770.57	233.30
770.90	233.28
771.22	233.14
771.55	232.99
771.87	233.00
772.20	232.94
772.52	233.29
772.85	233.80
773.17	233.74
773.50	233.69
773.82	233.44
774.15	233.17
774.47	232.78
774.80	232.74
775.12	232.62
775.45	232.50
775.77	232.39
776.09	232.38
776.42	232.24
776.74	232.43
777.07	232.41
777.39	232.36
777.72	232.22
778.04	232.18
778.36	232.17
778.69	232.13
779.01	232.11
779.33	231.60
779.66	231.02
779.98	230.98
780.31	230.95
780.63	231.17
780.95	231.19
781.28	231.14
781.60	231.03
781.92	231.02
782.25	230.96
782.57	231.00
782.89	230.95
783.22	231.01
783.54	230.83
783.86	230.80
784.19	230.77
784.51	230.92
784.83	230.90
785.16	230.86
785.48	230.81
785.80	230.87
786.12	230.89
786.45	230.86
786.77	230.86
787.09	230.76
787.42	230.57
787.74	230.58
788.06	230.58
788.38	230.55
788.71	230.53
789.03	230.58
789.35	230.64
789.67	230.51
789.99	230.46
790.32	230.35
790.64	230.40
790.96	230.73
791.28	230.55
791.61	230.47
791.93	230.44
792.25	230.41
792.57	230.67
792.89	230.60
793.21	230.60
793.54	230.60
793.86	230.58
794.18	230.55
794.50	230.40
794.82	230.40
795.14	230.48
795.47	230.48
795.79	230.51
796.11	230.39
796.43	230.36
796.75	230.37
797.07	230.33
797.39	230.31
797.71	230.00
798.04	229.97
798.36	230.06
798.68	230.03
799.00	230.05
799.32	229.79
799.64	229.89
799.96	229.91
800.28	229.99
800.60	229.96
800.92	229.96
801.24	229.96
801.56	229.95
801.89	229.91
802.21	229.88
802.53	229.69
802.85	229.78
803.17	230.03
803.49	229.90
803.81	229.89
804.13	229.72
804.45	229.58
804.77	229.60
805.09	229.48
805.41	229.39
805.73	229.26
806.05	229.10
806.37	229.00
806.69	228.83
807.01	228.73
807.33	228.66
807.65	228.52
807.97	228.74
808.28	228.64
808.60	228.54
808.92	228.48
809.24	228.83
809.56	228.75
809.88	228.54
810.20	228.50
810.52	228.58
810.84	228.55
811.16	228.53
811.48	228.46
811.80	228.60
812.12	228.59
812.43	228.74
812.75	228.79
813.07	228.73
813.39	228.86
813.71	228.79
814.03	228.83
814.35	228.82
814.67	228.54
814.98	228.55
815.30	228.54
815.62	228.44
815.94	228.08
816.26	228.23
816.58	228.17
816.89	228.24
817.21	228.10
817.53	228.13
817.85	228.10
