SpectraSuite Data File
++++++++++++++++++++++++++++++++++++
Date: Wed Sep 04 17:39:52 EDT 2013
User: lab3
Dark Spectrum Present: Yes
Reference Spectrum Present: No
Number of Sampled Component Spectra: 1
Spectrometers: USB2E7196
Integration Time (usec): 170000 (USB2E7196)
Spectra Averaged: 20 (USB2E7196)
Boxcar Smoothing: 10 (USB2E7196)
Correct for Electrical Dark: No (USB2E7196)
Strobe/Lamp Enabled: No (USB2E7196)
Correct for Detector Non-linearity: No (USB2E7196)
Correct for Stray Light: No (USB2E7196)
Number of Pixels in Processed Spectrum: 2048
>>>>>Begin Processed Spectral Data<<<<<
339.09	0.00
339.48	212.50
339.86	213.15
340.24	215.75
340.63	216.65
341.01	225.70
341.39	219.25
341.78	221.90
342.16	223.75
342.54	223.00
342.93	211.66
343.31	222.29
343.69	222.84
344.07	223.35
344.46	223.82
344.84	224.17
345.22	224.12
345.60	224.39
345.99	224.54
346.37	224.62
346.75	224.65
347.13	224.74
347.52	224.75
347.90	225.01
348.28	225.11
348.66	225.25
349.05	225.22
349.43	225.38
349.81	225.45
350.19	225.60
350.57	225.65
350.96	225.78
351.34	225.91
351.72	225.98
352.10	226.03
352.48	226.05
352.87	226.13
353.25	226.18
353.63	226.22
354.01	226.26
354.39	226.32
354.77	226.47
355.15	226.59
355.54	226.70
355.92	226.59
356.30	226.54
356.68	226.87
357.06	226.84
357.44	226.80
357.82	226.85
358.20	227.27
358.58	227.27
358.97	227.34
359.35	227.52
359.73	227.64
360.11	227.70
360.49	227.76
360.87	227.88
361.25	228.03
361.63	228.20
362.01	228.36
362.39	228.44
362.77	228.53
363.15	228.57
363.53	228.52
363.91	228.59
364.29	228.75
364.67	228.34
365.05	228.42
365.43	228.49
365.81	228.56
366.19	228.36
366.57	228.68
366.95	228.66
367.33	228.53
367.71	228.56
368.09	228.70
368.47	228.66
368.85	228.57
369.23	228.63
369.61	228.52
369.99	228.65
370.37	228.63
370.75	228.87
371.13	228.76
371.51	228.76
371.89	228.80
372.27	228.77
372.65	228.70
373.03	228.69
373.41	228.72
373.78	228.61
374.16	228.33
374.54	228.02
374.92	227.89
375.30	227.88
375.68	227.75
376.06	227.68
376.44	227.65
376.82	227.64
377.19	227.59
377.57	227.48
377.95	227.21
378.33	227.10
378.71	226.69
379.09	226.66
379.47	226.62
379.84	226.45
380.22	226.32
380.60	226.20
380.98	226.08
381.36	225.90
381.73	225.83
382.11	225.79
382.49	225.78
382.87	225.65
383.25	225.53
383.62	225.99
384.00	225.87
384.38	225.84
384.76	225.86
385.13	225.89
385.51	225.88
385.89	225.78
386.27	225.78
386.64	225.83
387.02	225.76
387.40	225.65
387.78	225.68
388.15	225.66
388.53	225.63
388.91	225.60
389.29	225.53
389.66	225.49
390.04	225.44
390.42	225.45
390.79	225.48
391.17	225.51
391.55	224.93
391.92	224.85
392.30	224.84
392.68	224.74
393.05	224.72
393.43	224.71
393.81	224.75
394.18	224.60
394.56	224.56
394.94	224.68
395.31	224.68
395.69	224.80
396.06	224.84
396.44	224.96
396.82	224.91
397.19	225.19
397.57	225.30
397.95	225.47
398.32	225.39
398.70	225.50
399.07	225.67
399.45	225.75
399.82	225.83
400.20	225.85
400.58	225.98
400.95	225.88
401.33	226.03
401.70	226.45
402.08	226.68
402.45	226.81
402.83	227.04
403.20	227.24
403.58	227.36
403.95	227.66
404.33	227.85
404.71	228.09
405.08	228.54
405.46	228.73
405.83	228.88
406.21	229.18
406.58	229.44
406.96	229.60
407.33	229.95
407.70	230.26
408.08	231.00
408.45	231.35
408.83	231.80
409.20	232.16
409.58	232.16
409.95	232.65
410.33	233.10
410.70	233.38
411.08	233.96
411.45	234.46
411.82	234.83
412.20	235.50
412.57	236.39
412.95	236.59
413.32	237.30
413.69	238.01
414.07	238.78
414.44	239.60
414.82	240.53
415.19	241.59
415.56	242.62
415.94	243.43
416.31	244.69
416.68	245.87
417.06	247.26
417.43	248.74
417.81	250.18
418.18	251.79
418.55	253.44
418.93	255.05
419.30	256.73
419.67	258.63
420.04	260.51
420.42	262.36
420.79	265.04
421.16	267.26
421.54	269.83
421.91	272.25
422.28	274.79
422.66	277.48
423.03	280.38
423.40	283.16
423.77	286.08
424.15	288.99
424.52	292.13
424.89	295.55
425.26	298.80
425.64	302.01
426.01	305.34
426.38	308.85
426.75	312.55
427.13	316.39
427.50	320.36
427.87	324.42
428.24	328.50
428.61	332.07
428.99	336.62
429.36	341.10
429.73	345.75
430.10	350.37
430.47	355.08
430.85	359.60
431.22	364.73
431.59	370.52
431.96	375.69
432.33	381.41
432.70	386.83
433.08	393.38
433.45	399.38
433.82	405.50
434.19	412.35
434.56	419.05
434.93	425.40
435.30	431.71
435.68	438.75
436.05	445.81
436.42	452.63
436.79	458.92
437.16	465.84
437.53	472.97
437.90	480.05
438.27	487.16
438.64	494.55
439.01	501.31
439.38	507.18
439.75	513.04
440.13	519.63
440.50	525.88
440.87	530.89
441.24	536.24
441.61	542.01
441.98	546.17
442.35	551.11
442.72	556.08
443.09	561.07
443.46	563.95
443.83	565.85
444.20	567.70
444.57	570.07
444.94	570.96
445.31	572.05
445.68	573.41
446.05	573.63
446.42	572.52
446.79	571.60
447.16	570.30
447.53	569.38
447.90	566.50
448.27	563.50
448.64	559.59
449.01	556.54
449.37	551.69
449.74	546.85
450.11	541.22
450.48	534.77
450.85	528.14
451.22	522.58
451.59	517.19
451.96	512.05
452.33	505.30
452.70	499.44
453.07	492.36
453.43	484.80
453.80	477.85
454.17	471.37
454.54	464.99
454.91	458.15
455.28	451.65
455.65	445.43
456.02	440.13
456.38	434.86
456.75	428.56
457.12	423.12
457.49	417.86
457.86	412.55
458.23	408.42
458.59	403.79
458.96	399.07
459.33	394.79
459.70	390.49
460.07	387.26
460.43	383.35
460.80	379.87
461.17	376.85
461.54	373.60
461.91	370.55
462.27	367.31
462.64	364.71
463.01	361.76
463.38	359.20
463.74	355.68
464.11	353.18
464.48	351.01
464.85	348.72
465.21	347.12
465.58	345.24
465.95	342.90
466.32	341.06
466.68	339.09
467.05	337.37
467.42	335.66
467.78	333.73
468.15	331.95
468.52	330.59
468.88	328.69
469.25	327.10
469.62	325.91
469.98	324.62
470.35	323.43
470.72	322.24
471.08	320.79
471.45	319.77
471.82	318.80
472.18	317.70
472.55	316.91
472.92	315.70
473.28	314.87
473.65	314.05
474.02	313.16
474.38	312.65
474.75	312.05
475.11	311.36
475.48	310.81
475.85	310.36
476.21	309.81
476.58	309.50
476.94	309.24
477.31	308.84
477.67	308.57
478.04	308.18
478.41	308.08
478.77	308.52
479.14	308.36
479.50	308.34
479.87	308.38
480.23	308.45
480.60	308.60
480.96	308.72
481.33	309.06
481.69	309.29
482.06	309.46
482.42	309.78
482.79	310.21
483.15	310.63
483.52	311.14
483.88	311.66
484.25	312.20
484.61	312.75
484.98	313.41
485.34	314.28
485.71	315.28
486.07	316.14
486.44	316.67
486.80	317.68
487.17	318.76
487.53	320.01
487.90	321.23
488.26	322.80
488.62	324.31
488.99	325.75
489.35	327.45
489.72	329.24
490.08	331.09
490.44	332.90
490.81	334.99
491.17	337.03
491.54	339.29
491.90	341.73
492.26	344.25
492.63	346.82
492.99	349.39
493.36	352.19
493.72	355.21
494.08	358.28
494.45	361.57
494.81	365.10
495.17	368.60
495.54	372.54
495.90	376.30
496.26	380.30
496.63	384.55
496.99	388.82
497.35	393.31
497.72	397.91
498.08	402.88
498.44	407.97
498.80	413.55
499.17	418.97
499.53	424.63
499.89	430.55
500.26	436.46
500.62	442.76
500.98	449.39
501.34	456.01
501.71	462.88
502.07	469.85
502.43	477.01
502.79	484.38
503.16	491.80
503.52	499.63
503.88	507.83
504.24	516.27
504.60	524.96
504.97	534.08
505.33	543.33
505.69	553.08
506.05	562.61
506.41	572.26
506.78	582.44
507.14	592.58
507.50	603.25
507.86	614.29
508.22	625.52
508.59	636.62
508.95	648.40
509.31	660.51
509.67	672.58
510.03	684.60
510.39	697.14
510.75	710.15
511.12	723.13
511.48	736.11
511.84	749.40
512.20	762.88
512.56	776.43
512.92	790.52
513.28	804.35
513.64	818.65
514.00	833.36
514.37	848.05
514.73	863.21
515.09	878.24
515.45	893.49
515.81	908.44
516.17	923.94
516.53	939.15
516.89	954.32
517.25	970.27
517.61	986.93
517.97	1003.43
518.33	1019.55
518.69	1035.80
519.05	1052.59
519.41	1069.19
519.77	1086.30
520.13	1102.92
520.49	1119.20
520.85	1137.16
521.21	1154.11
521.57	1170.64
521.93	1187.13
522.29	1203.72
522.65	1219.89
523.01	1235.97
523.37	1252.08
523.73	1268.41
524.09	1284.26
524.45	1300.17
524.81	1316.01
525.17	1331.65
525.53	1347.21
525.89	1363.23
526.25	1379.11
526.61	1394.24
526.97	1409.87
527.33	1425.37
527.68	1441.55
528.04	1457.58
528.40	1471.75
528.76	1486.99
529.12	1502.14
529.48	1517.34
529.84	1531.96
530.20	1547.61
530.56	1562.81
530.91	1578.05
531.27	1592.55
531.63	1607.26
531.99	1622.09
532.35	1636.29
532.71	1650.58
533.07	1665.30
533.42	1678.96
533.78	1692.83
534.14	1706.83
534.50	1720.04
534.86	1733.10
535.21	1745.00
535.57	1757.48
535.93	1769.42
536.29	1781.41
536.65	1793.66
537.00	1805.51
537.36	1817.20
537.72	1827.69
538.08	1838.65
538.44	1849.18
538.79	1859.69
539.15	1870.37
539.51	1880.26
539.87	1889.75
540.22	1898.09
540.58	1906.91
540.94	1915.01
541.29	1922.37
541.65	1929.94
542.01	1937.16
542.37	1943.09
542.72	1949.17
543.08	1954.49
543.44	1961.19
543.79	1966.45
544.15	1971.23
544.51	1976.22
544.87	1980.80
545.22	1984.70
545.58	1988.23
545.94	1991.39
546.29	1993.93
546.65	1996.15
547.01	1998.01
547.36	1999.75
547.72	2001.75
548.07	2001.74
548.43	2002.64
548.79	2003.31
549.14	2003.48
549.50	2003.78
549.86	2004.17
550.21	2004.45
550.57	2005.05
550.92	2003.21
551.28	2001.56
551.64	2000.66
551.99	1999.29
552.35	1998.05
552.70	1997.18
553.06	1995.91
553.41	1994.33
553.77	1993.29
554.13	1991.86
554.48	1990.77
554.84	1989.02
555.19	1987.56
555.55	1986.72
555.90	1984.01
556.26	1981.53
556.61	1978.05
556.97	1974.10
557.32	1971.45
557.68	1968.08
558.03	1964.46
558.39	1961.42
558.74	1958.93
559.10	1954.88
559.45	1950.22
559.81	1945.05
560.16	1939.44
560.52	1933.79
560.87	1928.51
561.23	1922.35
561.58	1916.44
561.94	1909.53
562.29	1902.90
562.64	1895.88
563.00	1888.04
563.35	1881.86
563.71	1875.30
564.06	1869.16
564.42	1862.95
564.77	1856.16
565.12	1849.50
565.48	1842.42
565.83	1835.41
566.19	1828.14
566.54	1821.05
566.89	1814.22
567.25	1807.34
567.60	1800.95
567.96	1794.47
568.31	1787.91
568.66	1780.89
569.02	1773.19
569.37	1766.24
569.72	1759.70
570.08	1751.95
570.43	1744.30
570.78	1736.56
571.14	1728.82
571.49	1720.66
571.84	1713.00
572.20	1704.58
572.55	1696.38
572.90	1687.79
573.26	1679.49
573.61	1670.63
573.96	1661.71
574.31	1652.20
574.67	1642.92
575.02	1632.98
575.37	1622.88
575.72	1612.55
576.08	1602.95
576.43	1593.34
576.78	1583.41
577.13	1572.90
577.49	1563.34
577.84	1554.44
578.19	1545.23
578.54	1535.96
578.90	1526.92
579.25	1517.75
579.60	1508.10
579.95	1498.44
580.30	1488.51
580.66	1478.45
581.01	1468.61
581.36	1458.56
581.71	1449.22
582.06	1439.82
582.42	1430.77
582.77	1421.77
583.12	1413.09
583.47	1404.19
583.82	1395.28
584.17	1386.29
584.53	1377.90
584.88	1368.45
585.23	1358.81
585.58	1348.84
585.93	1339.17
586.28	1329.65
586.63	1319.55
586.98	1309.58
587.34	1300.16
587.69	1290.97
588.04	1282.09
588.39	1273.40
588.74	1264.42
589.09	1255.75
589.44	1246.65
589.79	1237.84
590.14	1229.44
590.49	1220.55
590.84	1211.99
591.19	1203.72
591.54	1195.09
591.89	1186.31
592.25	1179.20
592.60	1171.31
592.95	1163.31
593.30	1154.86
593.65	1146.24
594.00	1137.95
594.35	1131.57
594.70	1123.36
595.05	1115.38
595.40	1106.95
595.75	1098.65
596.10	1091.08
596.45	1083.14
596.80	1075.79
597.15	1067.92
597.50	1059.85
597.85	1052.42
598.19	1044.35
598.54	1036.30
598.89	1028.64
599.24	1021.36
599.59	1013.43
599.94	1005.86
600.29	998.81
600.64	991.95
600.99	984.86
601.34	978.12
601.69	970.09
602.04	963.39
602.39	956.85
602.74	950.61
603.08	944.34
603.43	938.03
603.78	931.47
604.13	924.90
604.48	918.56
604.83	911.85
605.18	905.13
605.53	899.05
605.87	892.85
606.22	887.10
606.57	880.82
606.92	874.51
607.27	868.50
607.62	862.76
607.96	856.94
608.31	851.78
608.66	846.27
609.01	840.67
609.36	834.95
609.70	829.14
610.05	823.45
610.40	817.85
610.75	812.14
611.10	806.61
611.44	800.82
611.79	795.38
612.14	790.19
612.49	784.81
612.83	779.62
613.18	774.28
613.53	769.16
613.88	763.94
614.22	758.68
614.57	753.28
614.92	747.76
615.27	742.67
615.61	737.36
615.96	732.28
616.31	727.11
616.65	722.34
617.00	717.42
617.35	712.36
617.70	707.44
618.04	702.45
618.39	697.68
618.74	693.47
619.08	688.75
619.43	684.01
619.78	679.35
620.12	674.55
620.47	670.01
620.82	665.13
621.16	660.59
621.51	656.41
621.85	652.31
622.20	647.97
622.55	643.43
622.89	639.13
623.24	634.84
623.59	630.59
623.93	626.35
624.28	622.17
624.62	618.67
624.97	614.87
625.32	610.80
625.66	606.81
626.01	602.54
626.35	598.74
626.70	594.97
627.04	591.53
627.39	587.73
627.73	584.13
628.08	580.77
628.43	577.03
628.77	573.31
629.12	569.68
629.46	566.50
629.81	563.30
630.15	559.85
630.50	556.52
630.84	553.22
631.19	549.91
631.53	546.95
631.88	543.13
632.22	539.65
632.57	536.84
632.91	533.85
633.26	530.91
633.60	527.75
633.95	524.66
634.29	521.18
634.64	518.15
634.98	514.91
635.32	511.90
635.67	509.32
636.01	506.44
636.36	503.41
636.70	500.50
637.05	497.56
637.39	494.95
637.73	492.07
638.08	489.38
638.42	486.55
638.77	483.64
639.11	480.76
639.45	477.81
639.80	474.63
640.14	471.69
640.49	469.01
640.83	466.45
641.17	464.00
641.52	461.60
641.86	459.14
642.20	457.01
642.55	454.26
642.89	451.64
643.23	449.12
643.58	447.03
643.92	444.58
644.26	442.27
644.61	439.92
644.95	437.65
645.29	435.28
645.64	433.20
645.98	430.96
646.32	429.01
646.66	426.91
647.01	424.93
647.35	423.01
647.69	420.94
648.04	419.00
648.38	416.95
648.72	414.99
649.06	412.91
649.41	410.73
649.75	408.73
650.09	406.84
650.43	404.85
650.78	402.80
651.12	400.77
651.46	398.82
651.80	396.95
652.14	395.04
652.49	393.40
652.83	391.54
653.17	389.69
653.51	387.79
653.85	386.17
654.20	384.45
654.54	382.70
654.88	380.90
655.22	379.31
655.56	377.69
655.90	376.06
656.25	374.58
656.59	373.17
656.93	371.83
657.27	370.43
657.61	368.89
657.95	367.23
658.29	365.74
658.64	364.36
658.98	362.83
659.32	361.35
659.66	359.87
660.00	358.53
660.34	357.19
660.68	355.83
661.02	354.45
661.36	353.21
661.70	351.89
662.05	350.55
662.39	349.26
662.73	348.05
663.07	346.91
663.41	345.63
663.75	344.18
664.09	342.84
664.43	341.40
664.77	340.28
665.11	339.12
665.45	337.99
665.79	336.91
666.13	335.74
666.47	334.56
666.81	333.35
667.15	332.00
667.49	330.94
667.83	330.05
668.17	328.94
668.51	327.82
668.85	326.82
669.19	326.10
669.53	324.90
669.87	323.69
670.21	322.51
670.55	321.41
670.89	320.62
671.23	319.62
671.57	318.58
671.91	317.53
672.25	316.63
672.58	315.88
672.92	314.78
673.26	313.90
673.60	313.12
673.94	312.29
674.28	311.52
674.62	310.81
674.96	309.82
675.30	308.94
675.64	308.09
675.97	307.17
676.31	306.07
676.65	305.22
676.99	304.55
677.33	303.80
677.67	303.11
678.01	302.15
678.34	301.45
678.68	300.85
679.02	300.08
679.36	299.31
679.70	298.47
680.04	297.83
680.37	297.16
680.71	296.41
681.05	295.77
681.39	295.19
681.73	294.41
682.06	293.77
682.40	293.21
682.74	292.69
683.08	292.30
683.42	291.68
683.75	291.13
684.09	290.55
684.43	289.94
684.77	289.26
685.10	288.74
685.44	288.12
685.78	287.41
686.12	286.94
686.45	286.44
686.79	285.74
687.13	285.22
687.46	284.59
687.80	284.00
688.14	283.37
688.48	282.75
688.81	282.20
689.15	281.77
689.49	281.17
689.82	280.60
690.16	279.87
690.50	279.42
690.83	278.89
691.17	278.27
691.51	277.75
691.84	277.32
692.18	276.76
692.52	276.28
692.85	275.87
693.19	275.47
693.52	274.94
693.86	274.55
694.20	274.03
694.53	273.68
694.87	273.34
695.21	272.84
695.54	272.50
695.88	271.95
696.21	271.31
696.55	270.83
696.88	270.40
697.22	269.93
697.56	269.51
697.89	269.07
698.23	268.73
698.56	268.26
698.90	267.88
699.23	267.48
699.57	267.10
699.90	266.69
700.24	266.15
700.58	265.76
700.91	265.41
701.25	265.39
701.58	265.32
701.92	265.04
702.25	264.81
702.59	264.34
702.92	264.13
703.26	263.85
703.59	263.65
703.93	263.72
704.26	263.52
704.60	263.21
704.93	262.90
705.26	262.45
705.60	262.27
705.93	261.86
706.27	261.72
706.60	261.50
706.94	261.38
707.27	261.14
707.61	260.96
707.94	260.67
708.27	260.09
708.61	259.35
708.94	259.01
709.28	258.64
709.61	258.39
709.94	258.08
710.28	257.84
710.61	257.51
710.95	256.75
711.28	256.73
711.61	256.46
711.95	256.27
712.28	255.99
712.61	255.65
712.95	255.66
713.28	255.60
713.61	255.25
713.95	254.87
714.28	254.61
714.61	254.32
714.95	254.06
715.28	253.72
715.61	253.52
715.95	253.24
716.28	252.96
716.61	252.75
716.95	252.47
717.28	252.21
717.61	251.98
717.94	251.75
718.28	251.16
718.61	250.85
718.94	250.55
719.27	250.35
719.61	250.18
719.94	249.79
720.27	249.26
720.60	249.03
720.94	248.76
721.27	248.56
721.60	248.38
721.93	248.14
722.27	248.06
722.60	247.95
722.93	247.71
723.26	247.65
723.59	247.40
723.93	247.26
724.26	247.08
724.59	246.83
724.92	246.69
725.25	246.66
725.59	246.48
725.92	246.36
726.25	246.27
726.58	246.10
726.91	245.92
727.24	245.84
727.57	245.68
727.91	245.45
728.24	245.32
728.57	245.08
728.90	244.97
729.23	244.67
729.56	244.69
729.89	244.58
730.22	244.23
730.55	244.08
730.89	243.92
731.22	243.71
731.55	243.61
731.88	243.50
732.21	243.20
732.54	243.00
732.87	242.81
733.20	242.62
733.53	242.49
733.86	242.40
734.19	242.17
734.52	242.10
734.85	242.28
735.18	242.10
735.51	242.21
735.84	242.12
736.17	242.16
736.50	241.81
736.83	242.21
737.16	242.14
737.49	242.01
737.82	241.81
738.15	241.88
738.48	241.65
738.81	241.47
739.14	241.31
739.47	241.23
739.80	241.06
740.13	241.02
740.46	240.77
740.79	240.61
741.12	240.50
741.45	240.27
741.78	239.90
742.11	239.96
742.44	239.63
742.77	239.52
743.10	239.28
743.43	239.18
743.75	238.61
744.08	239.12
744.41	238.95
744.74	238.90
745.07	238.61
745.40	238.61
745.73	238.75
746.06	238.67
746.39	238.65
746.71	238.55
747.04	238.36
747.37	238.30
747.70	238.20
748.03	238.15
748.36	238.16
748.68	238.13
749.01	237.85
749.34	237.81
749.67	237.72
750.00	237.69
750.33	237.95
750.65	237.79
750.98	237.09
751.31	237.01
751.64	236.84
751.97	236.95
752.29	236.92
752.62	236.56
752.95	236.45
753.28	236.25
753.60	236.19
753.93	236.18
754.26	236.16
754.59	236.02
754.91	235.88
755.24	235.79
755.57	235.66
755.90	235.57
756.22	235.44
756.55	235.29
756.88	235.10
757.20	234.71
757.53	234.55
757.86	234.44
758.19	234.42
758.51	234.38
758.84	234.09
759.17	233.92
759.49	233.89
759.82	234.08
760.15	234.06
760.47	233.90
760.80	233.77
761.13	233.76
761.45	233.63
761.78	233.55
762.11	233.43
762.43	233.28
762.76	233.13
763.08	233.06
763.41	233.07
763.74	233.06
764.06	232.92
764.39	232.91
764.71	232.87
765.04	232.70
765.37	232.58
765.69	232.45
766.02	232.30
766.34	232.18
766.67	231.91
767.00	231.93
767.32	232.15
767.65	232.36
767.97	232.26
768.30	232.24
768.62	232.19
768.95	232.10
769.27	232.02
769.60	232.12
769.92	231.98
770.25	231.79
770.57	231.59
770.90	231.56
771.22	231.40
771.55	231.30
771.87	231.35
772.20	231.30
772.52	231.71
772.85	232.33
773.17	232.33
773.50	232.24
773.82	232.15
774.15	231.81
774.47	231.47
774.80	231.28
775.12	231.19
775.45	231.06
775.77	231.07
776.09	231.10
776.42	231.05
776.74	231.23
777.07	231.18
777.39	231.22
777.72	231.15
778.04	231.15
778.36	231.12
778.69	231.06
779.01	231.12
779.33	230.69
779.66	230.07
779.98	229.97
780.31	230.00
780.63	230.18
780.95	230.27
781.28	230.21
781.60	230.15
781.92	230.13
782.25	230.09
782.57	230.02
782.89	229.89
783.22	229.82
783.54	229.63
783.86	229.63
784.19	229.53
784.51	229.56
784.83	229.58
785.16	229.62
785.48	229.60
785.80	229.50
786.12	229.57
786.45	229.59
786.77	229.53
787.09	229.46
787.42	229.12
787.74	229.09
788.06	229.12
788.38	229.09
788.71	229.04
789.03	229.05
789.35	229.12
789.67	229.12
789.99	229.11
790.32	229.09
790.64	229.06
790.96	229.42
791.28	229.27
791.61	229.18
791.93	229.16
792.25	229.15
792.57	229.50
792.89	229.38
793.21	229.32
793.54	229.30
793.86	229.27
794.18	229.33
794.50	229.28
794.82	229.21
795.14	229.25
795.47	229.26
795.79	229.31
796.11	229.17
796.43	229.10
796.75	229.01
797.07	228.97
797.39	229.04
797.71	228.69
798.04	228.69
798.36	228.70
798.68	228.68
799.00	228.72
799.32	228.42
799.64	228.49
799.96	228.52
800.28	228.65
800.60	228.61
800.92	228.64
801.24	228.51
801.56	228.59
801.89	228.59
802.21	228.68
802.53	228.58
802.85	228.75
803.17	228.97
803.49	228.97
803.81	228.97
804.13	228.85
804.45	228.82
804.77	228.82
805.09	228.82
805.41	228.73
805.73	228.57
806.05	228.48
806.37	228.39
806.69	228.16
807.01	228.12
807.33	228.07
807.65	227.89
807.97	228.13
808.28	228.00
808.60	227.98
808.92	227.87
809.24	228.11
809.56	228.00
809.88	227.80
810.20	227.70
810.52	227.76
810.84	227.70
811.16	227.56
811.48	227.51
811.80	227.63
812.12	227.60
812.43	227.67
812.75	227.68
813.07	227.61
813.39	227.82
813.71	227.69
814.03	227.66
814.35	227.69
814.67	227.49
814.98	227.45
815.30	227.35
815.62	227.29
815.94	226.94
816.26	227.15
816.58	227.06
816.89	227.20
817.21	227.07
817.53	227.13
817.85	227.24
818.17	227.31
818.48	227.14
818.80	227.23
