SpectraSuite Data File
++++++++++++++++++++++++++++++++++++
Date: Wed Sep 04 17:50:15 EDT 2013
User: lab3
Dark Spectrum Present: Yes
Reference Spectrum Present: No
Number of Sampled Component Spectra: 1
Spectrometers: USB2E7196
Integration Time (usec): 170000 (USB2E7196)
Spectra Averaged: 20 (USB2E7196)
Boxcar Smoothing: 10 (USB2E7196)
Correct for Electrical Dark: No (USB2E7196)
Strobe/Lamp Enabled: No (USB2E7196)
Correct for Detector Non-linearity: No (USB2E7196)
Correct for Stray Light: No (USB2E7196)
Number of Pixels in Processed Spectrum: 2048
>>>>>Begin Processed Spectral Data<<<<<
339.09	0.00
339.48	212.50
339.86	214.90
340.24	216.00
340.63	215.95
341.01	225.20
341.39	220.55
341.78	221.10
342.16	223.35
342.54	222.55
342.93	212.02
343.31	222.72
343.69	223.31
344.07	223.70
344.46	224.18
344.84	224.69
345.22	224.73
345.60	225.05
345.99	225.24
346.37	225.36
346.75	225.45
347.13	225.51
347.52	225.66
347.90	225.85
348.28	225.96
348.66	226.03
349.05	225.90
349.43	226.02
349.81	226.18
350.19	226.18
350.57	226.24
350.96	226.35
351.34	226.44
351.72	226.50
352.10	226.64
352.48	226.68
352.87	226.70
353.25	226.71
353.63	226.69
354.01	226.74
354.39	226.83
354.77	226.89
355.15	227.09
355.54	227.04
355.92	226.86
356.30	226.88
356.68	227.27
357.06	227.42
357.44	227.35
357.82	227.39
358.20	227.86
358.58	228.01
358.97	227.99
359.35	228.06
359.73	228.17
360.11	228.26
360.49	228.30
360.87	228.32
361.25	228.43
361.63	228.57
362.01	228.71
362.39	228.75
362.77	228.87
363.15	228.90
363.53	228.95
363.91	229.07
364.29	229.09
364.67	228.67
365.05	228.74
365.43	228.86
365.81	228.98
366.19	228.83
366.57	228.95
366.95	228.92
367.33	228.88
367.71	228.95
368.09	229.06
368.47	229.10
368.85	229.11
369.23	229.20
369.61	229.10
369.99	229.26
370.37	229.26
370.75	229.44
371.13	229.28
371.51	229.19
371.89	229.27
372.27	229.30
372.65	229.30
373.03	229.29
373.41	229.18
373.78	229.04
374.16	228.71
374.54	228.57
374.92	228.52
375.30	228.47
375.68	228.29
376.06	228.22
376.44	228.05
376.82	227.95
377.19	227.82
377.57	227.77
377.95	227.53
378.33	227.46
378.71	227.13
379.09	227.13
379.47	227.15
379.84	226.96
380.22	226.78
380.60	226.63
380.98	226.42
381.36	226.43
381.73	226.36
382.11	226.35
382.49	226.25
382.87	226.15
383.25	226.08
383.62	226.56
384.00	226.45
384.38	226.44
384.76	226.49
385.13	226.61
385.51	226.59
385.89	226.42
386.27	226.44
386.64	226.50
387.02	226.41
387.40	226.28
387.78	226.37
388.15	226.41
388.53	226.35
388.91	226.42
389.29	226.29
389.66	226.30
390.04	226.34
390.42	226.45
390.79	226.41
391.17	226.47
391.55	225.94
391.92	225.87
392.30	226.00
392.68	225.94
393.05	225.99
393.43	226.01
393.81	226.11
394.18	225.96
394.56	226.02
394.94	226.15
395.31	226.24
395.69	226.37
396.06	226.48
396.44	226.56
396.82	226.58
397.19	226.92
397.57	227.00
397.95	227.08
398.32	226.94
398.70	227.13
399.07	227.29
399.45	227.37
399.82	227.47
400.20	227.45
400.58	227.55
400.95	227.42
401.33	227.59
401.70	228.02
402.08	228.22
402.45	228.26
402.83	228.49
403.20	228.61
403.58	228.57
403.95	228.79
404.33	229.00
404.71	229.15
405.08	229.51
405.46	229.67
405.83	229.90
406.21	230.25
406.58	230.55
406.96	230.80
407.33	231.19
407.70	231.61
408.08	232.26
408.45	232.72
408.83	233.14
409.20	233.45
409.58	233.65
409.95	234.20
410.33	234.78
410.70	235.12
411.08	235.80
411.45	236.46
411.82	236.99
412.20	237.82
412.57	238.90
412.95	239.25
413.32	240.12
413.69	240.99
414.07	241.88
414.44	242.84
414.82	243.86
415.19	245.03
415.56	246.15
415.94	247.18
416.31	248.51
416.68	249.98
417.06	251.59
417.43	253.17
417.81	254.89
418.18	256.74
418.55	258.69
418.93	260.67
419.30	262.83
419.67	265.13
420.04	267.30
420.42	269.49
420.79	272.64
421.16	275.42
421.54	278.42
421.91	281.35
422.28	284.43
422.66	287.64
423.03	291.03
423.40	294.33
423.77	297.85
424.15	301.52
424.52	305.31
424.89	309.49
425.26	313.49
425.64	317.24
426.01	321.27
426.38	325.67
426.75	330.21
427.13	334.79
427.50	339.46
427.87	344.40
428.24	349.33
428.61	353.66
428.99	358.88
429.36	364.38
429.73	369.83
430.10	375.20
430.47	380.79
430.85	386.45
431.22	392.70
431.59	399.42
431.96	405.58
432.33	412.35
432.70	418.80
433.08	426.60
433.45	433.95
433.82	441.32
434.19	449.42
434.56	457.38
434.93	464.90
435.30	472.54
435.68	481.08
436.05	489.37
436.42	497.73
436.79	505.44
437.16	513.74
437.53	522.49
437.90	531.26
438.27	539.78
438.64	548.56
439.01	556.67
439.38	563.82
439.75	570.86
440.13	578.92
440.50	586.50
440.87	592.55
441.24	598.85
441.61	605.80
441.98	610.85
442.35	616.54
442.72	622.62
443.09	628.53
443.46	631.97
443.83	634.34
444.20	636.30
444.57	638.84
444.94	639.83
445.31	641.01
445.68	642.32
446.05	642.45
446.42	641.25
446.79	639.94
447.16	638.31
447.53	637.09
447.90	633.47
448.27	629.86
448.64	624.95
449.01	621.33
449.37	615.26
449.74	609.37
450.11	602.70
450.48	594.87
450.85	586.78
451.22	579.95
451.59	573.36
451.96	567.11
452.33	559.13
452.70	551.87
453.07	543.19
453.43	534.10
453.80	525.91
454.17	517.81
454.54	510.04
454.91	501.98
455.28	494.15
455.65	486.60
456.02	479.77
456.38	473.54
456.75	465.82
457.12	459.24
457.49	452.74
457.86	446.39
458.23	441.35
458.59	435.76
458.96	429.98
459.33	424.98
459.70	420.02
460.07	415.99
460.43	411.34
460.80	407.04
461.17	403.36
461.54	399.36
461.91	395.65
462.27	391.88
462.64	388.59
463.01	384.98
463.38	381.78
463.74	377.77
464.11	374.69
464.48	372.14
464.85	369.29
465.21	367.26
465.58	364.95
465.95	362.12
466.32	359.95
466.68	357.71
467.05	355.44
467.42	353.15
467.78	350.84
468.15	348.68
468.52	347.15
468.88	344.90
469.25	342.99
469.62	341.48
469.98	339.88
470.35	338.46
470.72	337.04
471.08	335.36
471.45	334.10
471.82	332.91
472.18	331.39
472.55	330.44
472.92	329.15
473.28	328.00
473.65	326.90
474.02	325.80
474.38	324.94
474.75	324.20
475.11	323.33
475.48	322.74
475.85	322.19
476.21	321.52
476.58	321.09
476.94	320.69
477.31	320.20
477.67	319.74
478.04	319.39
478.41	319.15
478.77	319.49
479.14	319.32
479.50	319.12
479.87	319.18
480.23	319.17
480.60	319.17
480.96	319.27
481.33	319.71
481.69	319.89
482.06	320.17
482.42	320.40
482.79	320.72
483.15	321.11
483.52	321.68
483.88	322.15
484.25	322.74
484.61	323.36
484.98	324.10
485.34	325.09
485.71	326.00
486.07	326.98
486.44	327.51
486.80	328.55
487.17	329.73
487.53	331.22
487.90	332.69
488.26	334.44
488.62	336.09
488.99	337.66
489.35	339.49
489.72	341.32
490.08	343.29
490.44	345.40
490.81	347.72
491.17	349.90
491.54	352.36
491.90	355.02
492.26	357.62
492.63	360.43
492.99	363.25
493.36	366.30
493.72	369.63
494.08	372.99
494.45	376.79
494.81	380.72
495.17	384.41
495.54	388.54
495.90	392.59
496.26	396.97
496.63	401.61
496.99	406.32
497.35	411.36
497.72	416.70
498.08	422.05
498.44	427.48
498.80	433.56
499.17	439.63
499.53	445.71
499.89	452.54
500.26	459.36
500.62	466.32
500.98	473.71
501.34	481.11
501.71	488.94
502.07	496.57
502.43	504.53
502.79	513.00
503.16	521.68
503.52	530.60
503.88	539.95
504.24	549.50
504.60	559.53
504.97	569.63
505.33	579.94
505.69	591.01
506.05	602.11
506.41	613.27
506.78	624.85
507.14	636.80
507.50	648.88
507.86	661.45
508.22	674.47
508.59	687.35
508.95	700.86
509.31	714.91
509.67	729.15
510.03	743.43
510.39	757.96
510.75	772.99
511.12	788.22
511.48	803.72
511.84	819.37
512.20	835.21
512.56	851.51
512.92	868.35
513.28	884.98
513.64	902.13
514.00	919.49
514.37	936.99
514.73	954.96
515.09	972.89
515.45	991.15
515.81	1009.37
516.17	1028.15
516.53	1046.68
516.89	1065.16
517.25	1084.32
517.61	1104.40
517.97	1124.59
518.33	1144.36
518.69	1164.52
519.05	1184.85
519.41	1205.18
519.77	1226.08
520.13	1246.65
520.49	1267.12
520.85	1289.31
521.21	1310.48
521.57	1331.70
521.93	1352.57
522.29	1373.59
522.65	1394.25
523.01	1415.04
523.37	1435.46
523.73	1456.56
524.09	1477.24
524.45	1497.84
524.81	1518.60
525.17	1539.17
525.53	1559.41
525.89	1580.26
526.25	1600.84
526.61	1620.90
526.97	1642.08
527.33	1662.99
527.68	1684.40
528.04	1705.52
528.40	1725.10
528.76	1745.88
529.12	1766.17
529.48	1786.92
529.84	1807.10
530.20	1828.25
530.56	1848.55
530.91	1869.25
531.27	1889.13
531.63	1909.31
531.99	1929.61
532.35	1949.55
532.71	1969.60
533.07	1990.24
533.42	2009.95
533.78	2029.65
534.14	2049.57
534.50	2068.30
534.86	2087.31
535.21	2105.01
535.57	2123.47
535.93	2140.91
536.29	2158.24
536.65	2176.25
537.00	2193.69
537.36	2211.16
537.72	2227.33
538.08	2244.37
538.44	2261.14
538.79	2277.46
539.15	2294.07
539.51	2309.90
539.87	2324.85
540.22	2338.54
540.58	2352.76
540.94	2365.69
541.29	2378.24
541.65	2390.56
542.01	2402.72
542.37	2413.07
542.72	2423.83
543.08	2433.84
543.44	2445.28
543.79	2455.12
544.15	2464.62
544.51	2474.40
544.87	2483.66
545.22	2492.27
545.58	2500.04
545.94	2507.11
546.29	2513.35
546.65	2519.14
547.01	2524.93
547.36	2530.68
547.72	2536.19
548.07	2539.81
548.43	2544.86
548.79	2549.56
549.14	2553.70
549.50	2557.55
549.86	2561.34
550.21	2565.01
550.57	2568.58
550.92	2569.69
551.28	2571.03
551.64	2573.43
551.99	2574.78
552.35	2576.04
552.70	2577.96
553.06	2579.71
553.41	2580.82
553.77	2582.35
554.13	2583.90
554.48	2585.02
554.84	2585.74
555.19	2586.69
555.55	2588.50
555.90	2587.78
556.26	2586.68
556.61	2584.65
556.97	2582.25
557.32	2581.61
557.68	2580.42
558.03	2578.77
558.39	2577.42
558.74	2576.14
559.10	2572.35
559.45	2568.73
559.81	2564.33
560.16	2559.03
560.52	2553.60
560.87	2548.71
561.23	2543.11
561.58	2537.13
561.94	2530.18
562.29	2522.77
562.64	2515.53
563.00	2507.01
563.35	2500.35
563.71	2493.63
564.06	2487.30
564.42	2481.01
564.77	2473.89
565.12	2466.33
565.48	2458.35
565.83	2450.30
566.19	2442.43
566.54	2434.55
566.89	2426.48
567.25	2418.81
567.60	2411.73
567.96	2404.45
568.31	2396.64
568.66	2388.20
569.02	2379.25
569.37	2371.34
569.72	2364.22
570.08	2355.12
570.43	2345.74
570.78	2336.84
571.14	2327.56
571.49	2317.23
571.84	2307.50
572.20	2296.91
572.55	2286.60
572.90	2275.89
573.26	2265.71
573.61	2254.56
573.96	2243.53
574.31	2232.00
574.67	2220.31
575.02	2207.76
575.37	2194.93
575.72	2181.65
576.08	2170.01
576.43	2157.56
576.78	2144.15
577.13	2130.27
577.49	2117.70
577.84	2106.05
578.19	2094.08
578.54	2081.16
578.90	2069.71
579.25	2057.41
579.60	2044.87
579.95	2032.05
580.30	2019.00
580.66	2005.84
581.01	1992.75
581.36	1979.14
581.71	1966.58
582.06	1953.78
582.42	1941.41
582.77	1929.20
583.12	1917.47
583.47	1904.85
583.82	1893.24
584.17	1881.47
584.53	1869.72
584.88	1856.77
585.23	1843.52
585.58	1829.51
585.93	1816.71
586.28	1803.42
586.63	1789.84
586.98	1775.91
587.34	1763.13
587.69	1750.10
588.04	1737.47
588.39	1725.30
588.74	1713.08
589.09	1701.08
589.44	1688.33
589.79	1676.30
590.14	1664.21
590.49	1652.28
590.84	1640.45
591.19	1628.09
591.54	1615.98
591.89	1603.84
592.25	1593.94
592.60	1582.72
592.95	1571.23
593.30	1559.56
593.65	1547.99
594.00	1536.08
594.35	1526.29
594.70	1514.25
595.05	1502.92
595.40	1491.24
595.75	1479.56
596.10	1468.55
596.45	1456.97
596.80	1446.20
597.15	1434.79
597.50	1423.03
597.85	1412.12
598.19	1400.86
598.54	1389.54
598.89	1378.37
599.24	1368.26
599.59	1356.85
599.94	1346.08
600.29	1335.94
600.64	1325.91
600.99	1315.27
601.34	1305.91
601.69	1294.75
602.04	1285.24
602.39	1275.70
602.74	1266.56
603.08	1257.41
603.43	1248.18
603.78	1238.66
604.13	1229.35
604.48	1219.80
604.83	1210.44
605.18	1200.55
605.53	1190.92
605.87	1181.85
606.22	1173.63
606.57	1164.18
606.92	1154.80
607.27	1146.11
607.62	1137.15
607.96	1128.59
608.31	1120.52
608.66	1112.10
609.01	1103.67
609.36	1095.11
609.70	1086.74
610.05	1078.21
610.40	1069.78
610.75	1061.18
611.10	1053.00
611.44	1044.50
611.79	1036.46
612.14	1028.69
612.49	1020.80
612.83	1013.37
613.18	1005.61
613.53	997.76
613.88	989.96
614.22	982.35
614.57	974.36
614.92	966.88
615.27	959.28
615.61	951.77
615.96	944.05
616.31	936.75
616.65	929.90
617.00	922.59
617.35	915.38
617.70	908.30
618.04	901.29
618.39	894.29
618.74	888.00
619.08	881.16
619.43	874.14
619.78	867.25
620.12	860.27
620.47	853.39
620.82	846.40
621.16	839.62
621.51	833.20
621.85	827.04
622.20	820.40
622.55	814.05
622.89	807.61
623.24	801.57
623.59	795.40
623.93	788.93
624.28	783.07
624.62	777.61
624.97	771.93
625.32	766.30
625.66	760.49
626.01	754.37
626.35	748.84
626.70	743.47
627.04	738.42
627.39	732.89
627.73	727.70
628.08	722.53
628.43	717.24
628.77	711.98
629.12	706.73
629.46	702.02
629.81	697.33
630.15	692.59
630.50	687.84
630.84	682.98
631.19	678.40
631.53	673.77
631.88	668.50
632.22	663.68
632.57	659.28
632.91	654.77
633.26	650.44
633.60	646.04
633.95	641.45
634.29	636.60
634.64	632.44
634.98	627.87
635.32	623.58
635.67	619.73
636.01	615.62
636.36	611.54
636.70	607.53
637.05	603.22
637.39	599.23
637.73	595.16
638.08	591.34
638.42	587.25
638.77	582.96
639.11	578.76
639.45	574.47
639.80	570.08
640.14	566.12
640.49	562.30
640.83	558.38
641.17	554.84
641.52	551.29
641.86	547.70
642.20	544.64
642.55	541.12
642.89	537.60
643.23	533.97
643.58	530.73
643.92	527.16
644.26	523.89
644.61	520.57
644.95	517.15
645.29	513.72
645.64	510.60
645.98	507.69
646.32	504.81
646.66	501.84
647.01	499.05
647.35	496.23
647.69	493.24
648.04	490.46
648.38	487.67
648.72	484.87
649.06	481.85
649.41	478.78
649.75	475.65
650.09	472.79
650.43	470.05
650.78	467.00
651.12	464.17
651.46	461.37
651.80	458.63
652.14	456.09
652.49	453.75
652.83	451.18
653.17	448.54
653.51	445.90
653.85	443.59
654.20	441.11
654.54	438.51
654.88	436.04
655.22	433.76
655.56	431.32
655.90	428.96
656.25	426.69
656.59	424.50
656.93	422.56
657.27	420.49
657.61	418.12
657.95	416.00
658.29	413.91
658.64	411.82
658.98	409.65
659.32	407.43
659.66	405.21
660.00	403.14
660.34	401.07
660.68	399.04
661.02	396.95
661.36	395.05
661.70	393.12
662.05	391.28
662.39	389.46
662.73	387.55
663.07	385.84
663.41	384.06
663.75	382.08
664.09	380.21
664.43	378.22
664.77	376.68
665.11	374.96
665.45	373.27
665.79	371.58
666.13	369.93
666.47	368.24
666.81	366.51
667.15	364.66
667.49	363.21
667.83	361.85
668.17	360.36
668.51	358.86
668.85	357.60
669.19	356.43
669.53	354.80
669.87	353.41
670.21	351.99
670.55	350.56
670.89	349.40
671.23	348.00
671.57	346.59
671.91	345.22
672.25	343.94
672.58	342.77
672.92	341.37
673.26	340.23
673.60	339.14
673.94	338.02
674.28	337.00
674.62	335.76
674.96	334.40
675.30	333.28
675.64	332.10
675.97	330.88
676.31	329.42
676.65	328.20
676.99	327.39
677.33	326.18
677.67	325.18
678.01	323.83
678.34	322.79
678.68	321.92
679.02	320.91
679.36	319.90
679.70	318.84
680.04	317.94
680.37	316.88
680.71	315.87
681.05	314.93
681.39	314.07
681.73	313.18
682.06	312.34
682.40	311.47
682.74	310.66
683.08	309.96
683.42	309.11
683.75	308.42
684.09	307.30
684.43	306.53
684.77	305.69
685.10	305.05
685.44	304.25
685.78	303.45
686.12	302.61
686.45	301.73
686.79	300.89
687.13	300.17
687.46	299.44
687.80	298.76
688.14	297.98
688.48	297.28
688.81	296.50
689.15	295.88
689.49	295.19
689.82	294.45
690.16	293.53
690.50	292.87
690.83	292.08
691.17	291.28
691.51	290.62
691.84	289.97
692.18	289.19
692.52	288.56
692.85	287.89
693.19	287.44
693.52	286.93
693.86	286.28
694.20	285.68
694.53	285.11
694.87	284.42
695.21	283.72
695.54	283.09
695.88	282.46
696.21	281.74
696.55	281.04
696.88	280.42
697.22	279.83
697.56	279.29
697.89	278.65
698.23	278.19
698.56	277.62
698.90	277.21
699.23	276.68
699.57	276.17
699.90	275.68
700.24	275.00
700.58	274.55
700.91	274.17
701.25	274.00
701.58	273.86
701.92	273.47
702.25	273.14
702.59	272.59
702.92	272.18
703.26	271.78
703.59	271.42
703.93	271.44
704.26	271.10
704.60	270.67
704.93	270.31
705.26	269.96
705.60	269.59
705.93	268.96
706.27	268.78
706.60	268.53
706.94	268.40
707.27	268.08
707.61	267.69
707.94	267.35
708.27	266.68
708.61	265.90
708.94	265.55
709.28	265.15
709.61	264.80
709.94	264.44
710.28	264.15
710.61	263.82
710.95	263.05
711.28	262.97
711.61	262.54
711.95	262.29
712.28	261.85
712.61	261.50
712.95	261.41
713.28	261.25
713.61	260.81
713.95	260.20
714.28	259.94
714.61	259.57
714.95	259.17
715.28	258.72
715.61	258.37
715.95	257.95
716.28	257.58
716.61	257.35
716.95	257.06
717.28	256.62
717.61	256.26
717.94	255.91
718.28	255.24
718.61	255.03
718.94	254.72
719.27	254.43
719.61	254.18
719.94	253.83
720.27	253.30
720.60	252.98
720.94	252.74
721.27	252.44
721.60	252.31
721.93	252.12
722.27	252.10
722.60	252.05
722.93	251.80
723.26	251.72
723.59	251.40
723.93	251.15
724.26	251.04
724.59	250.77
724.92	250.60
725.25	250.56
725.59	250.37
725.92	250.15
726.25	250.01
726.58	249.79
726.91	249.55
727.24	249.43
727.57	249.23
727.91	248.92
728.24	248.81
728.57	248.47
728.90	248.30
729.23	247.99
729.56	247.93
729.89	247.85
730.22	247.53
730.55	247.39
730.89	247.31
731.22	247.11
731.55	246.92
731.88	246.82
732.21	246.50
732.54	246.25
732.87	246.05
733.20	245.94
733.53	245.83
733.86	245.76
734.19	245.49
734.52	245.43
734.85	245.71
735.18	245.43
735.51	245.53
735.84	245.35
736.17	245.36
736.50	244.96
736.83	245.36
737.16	245.25
737.49	245.20
737.82	244.99
738.15	244.90
738.48	244.87
738.81	244.62
739.14	244.53
739.47	244.36
739.80	244.34
740.13	244.24
740.46	244.03
740.79	243.76
741.12	243.67
741.45	243.50
741.78	243.12
742.11	243.07
742.44	242.84
742.77	242.86
743.10	242.59
743.43	242.47
743.75	241.77
744.08	242.30
744.41	242.09
744.74	241.87
745.07	241.65
745.40	241.49
745.73	241.55
746.06	241.38
746.39	241.32
746.71	241.05
747.04	240.83
747.37	240.66
747.70	240.68
748.03	240.62
748.36	240.52
748.68	240.33
749.01	240.15
749.34	240.00
749.67	239.84
750.00	239.80
750.33	240.04
750.65	239.98
750.98	239.26
751.31	239.13
751.64	239.08
751.97	239.26
752.29	239.12
752.62	238.80
752.95	238.71
753.28	238.50
753.60	238.37
753.93	238.41
754.26	238.32
754.59	238.10
754.91	237.93
755.24	237.79
755.57	237.73
755.90	237.64
756.22	237.48
756.55	237.25
756.88	237.10
757.20	236.67
757.53	236.44
757.86	236.31
758.19	236.23
758.51	236.05
758.84	235.67
759.17	235.52
759.49	235.49
759.82	235.63
760.15	235.62
760.47	235.49
760.80	235.24
761.13	235.20
761.45	235.04
761.78	234.87
762.11	234.75
762.43	234.58
762.76	234.47
763.08	234.42
763.41	234.38
763.74	234.22
764.06	234.16
764.39	234.06
764.71	234.00
765.04	233.85
765.37	233.83
765.69	233.74
766.02	233.73
766.34	233.57
766.67	233.21
767.00	233.19
767.32	233.42
767.65	233.61
767.97	233.49
768.30	233.44
768.62	233.37
768.95	233.27
769.27	233.20
769.60	233.18
769.92	233.04
770.25	232.87
770.57	232.80
770.90	232.70
771.22	232.62
771.55	232.51
771.87	232.43
772.20	232.33
772.52	232.66
772.85	233.14
773.17	233.10
773.50	233.03
773.82	232.93
774.15	232.60
774.47	232.30
774.80	232.22
775.12	232.25
775.45	232.20
775.77	232.23
776.09	232.25
776.42	232.15
776.74	232.22
777.07	232.09
777.39	232.04
777.72	231.99
778.04	232.03
778.36	231.94
778.69	231.91
779.01	231.90
779.33	231.45
779.66	230.87
779.98	230.81
780.31	230.86
780.63	230.96
780.95	231.07
781.28	230.93
781.60	230.83
781.92	230.68
782.25	230.66
782.57	230.60
782.89	230.51
783.22	230.42
783.54	230.25
783.86	230.28
784.19	230.21
784.51	230.32
784.83	230.21
785.16	230.15
785.48	230.12
785.80	230.07
786.12	230.14
786.45	230.01
786.77	230.06
787.09	230.07
787.42	229.88
787.74	229.81
788.06	229.85
788.38	229.79
788.71	229.79
789.03	229.82
789.35	229.81
789.67	229.69
789.99	229.70
790.32	229.66
790.64	229.76
790.96	230.15
791.28	229.93
791.61	229.91
791.93	229.96
792.25	229.93
792.57	230.30
792.89	230.12
793.21	230.26
793.54	230.15
793.86	229.98
794.18	230.03
794.50	229.98
794.82	229.97
795.14	230.11
795.47	230.18
795.79	230.13
796.11	230.05
796.43	230.05
796.75	230.02
797.07	230.06
797.39	229.94
797.71	229.53
798.04	229.53
798.36	229.51
798.68	229.51
799.00	229.57
799.32	229.24
799.64	229.36
799.96	229.35
800.28	229.45
800.60	229.48
800.92	229.46
801.24	229.36
801.56	229.35
801.89	229.25
802.21	229.21
802.53	229.04
802.85	229.07
803.17	229.23
803.49	229.15
803.81	229.13
804.13	229.15
804.45	229.08
804.77	229.09
805.09	229.06
805.41	229.00
805.73	228.87
806.05	228.81
806.37	228.71
806.69	228.57
807.01	228.46
807.33	228.44
807.65	228.28
807.97	228.60
808.28	228.45
808.60	228.36
808.92	228.27
809.24	228.61
809.56	228.50
809.88	228.38
810.20	228.39
810.52	228.40
810.84	228.40
811.16	228.37
811.48	228.34
811.80	228.50
812.12	228.45
812.43	228.53
812.75	228.53
813.07	228.52
813.39	228.53
813.71	228.54
814.03	228.44
814.35	228.43
814.67	228.06
814.98	228.12
815.30	228.12
815.62	228.04
815.94	227.76
816.26	228.07
816.58	227.98
816.89	227.98
817.21	227.86
817.53	227.81
817.85	227.80
