SpectraSuite Data File
++++++++++++++++++++++++++++++++++++
Date: Wed Sep 04 18:00:21 EDT 2013
User: lab3
Dark Spectrum Present: Yes
Reference Spectrum Present: No
Number of Sampled Component Spectra: 1
Spectrometers: USB2E7196
Integration Time (usec): 170000 (USB2E7196)
Spectra Averaged: 20 (USB2E7196)
Boxcar Smoothing: 10 (USB2E7196)
Correct for Electrical Dark: No (USB2E7196)
Strobe/Lamp Enabled: No (USB2E7196)
Correct for Detector Non-linearity: No (USB2E7196)
Correct for Stray Light: No (USB2E7196)
Number of Pixels in Processed Spectrum: 2048
>>>>>Begin Processed Spectral Data<<<<<
339.09	0.00
339.48	212.80
339.86	215.05
340.24	217.15
340.63	217.55
341.01	225.80
341.39	220.15
341.78	222.85
342.16	223.90
342.54	224.00
342.93	212.49
343.31	223.23
343.69	223.75
344.07	224.21
344.46	224.67
344.84	225.13
345.22	225.19
345.60	225.48
345.99	225.74
346.37	225.83
346.75	225.99
347.13	226.05
347.52	226.12
347.90	226.34
348.28	226.44
348.66	226.60
349.05	226.45
349.43	226.52
349.81	226.70
350.19	226.74
350.57	226.81
350.96	226.92
351.34	227.01
351.72	227.12
352.10	227.18
352.48	227.21
352.87	227.17
353.25	227.20
353.63	227.23
354.01	227.16
354.39	227.27
354.77	227.27
355.15	227.57
355.54	227.47
355.92	227.35
356.30	227.42
356.68	227.80
357.06	227.89
357.44	227.94
357.82	227.90
358.20	228.35
358.58	228.34
358.97	228.45
359.35	228.62
359.73	228.81
360.11	228.86
360.49	228.89
360.87	229.05
361.25	229.22
361.63	229.44
362.01	229.58
362.39	229.52
362.77	229.67
363.15	229.56
363.53	229.71
363.91	229.82
364.29	229.89
364.67	229.44
365.05	229.53
365.43	229.60
365.81	229.75
366.19	229.64
366.57	229.87
366.95	229.90
367.33	229.75
367.71	229.75
368.09	229.93
368.47	229.98
368.85	229.92
369.23	229.86
369.61	229.71
369.99	229.90
370.37	230.02
370.75	230.19
371.13	230.15
371.51	230.05
371.89	230.06
372.27	230.02
372.65	230.09
373.03	230.07
373.41	230.01
373.78	229.88
374.16	229.57
374.54	229.40
374.92	229.22
375.30	229.20
375.68	229.10
376.06	229.09
376.44	229.02
376.82	228.98
377.19	228.99
377.57	228.93
377.95	228.54
378.33	228.41
378.71	228.07
379.09	228.05
379.47	228.05
379.84	227.95
380.22	227.83
380.60	227.60
380.98	227.51
381.36	227.39
381.73	227.30
382.11	227.30
382.49	227.26
382.87	227.24
383.25	227.21
383.62	227.66
384.00	227.40
384.38	227.35
384.76	227.43
385.13	227.50
385.51	227.35
385.89	227.31
386.27	227.33
386.64	227.32
387.02	227.21
387.40	227.09
387.78	227.05
388.15	226.97
388.53	226.98
388.91	226.87
389.29	226.81
389.66	226.81
390.04	226.68
390.42	226.68
390.79	226.60
391.17	226.58
391.55	226.00
391.92	225.95
392.30	225.94
392.68	225.82
393.05	225.78
393.43	225.85
393.81	225.94
394.18	225.83
394.56	225.84
394.94	225.98
395.31	226.01
395.69	226.18
396.06	226.33
396.44	226.41
396.82	226.45
397.19	226.78
397.57	226.83
397.95	227.06
398.32	227.00
398.70	227.12
399.07	227.25
399.45	227.33
399.82	227.49
400.20	227.51
400.58	227.56
400.95	227.47
401.33	227.69
401.70	228.05
402.08	228.24
402.45	228.39
402.83	228.56
403.20	228.75
403.58	228.82
403.95	229.10
404.33	229.37
404.71	229.73
405.08	230.13
405.46	230.37
405.83	230.65
406.21	230.93
406.58	231.28
406.96	231.57
407.33	232.01
407.70	232.42
408.08	233.32
408.45	233.80
408.83	234.24
409.20	234.59
409.58	234.78
409.95	235.33
410.33	235.85
410.70	236.24
411.08	236.86
411.45	237.55
411.82	238.04
412.20	238.82
412.57	239.73
412.95	240.15
413.32	241.03
413.69	241.86
414.07	242.82
414.44	243.79
414.82	244.76
415.19	245.88
415.56	246.99
415.94	247.90
416.31	249.25
416.68	250.73
417.06	252.34
417.43	253.96
417.81	255.65
418.18	257.55
418.55	259.49
418.93	261.59
419.30	263.69
419.67	265.99
420.04	268.19
420.42	270.50
420.79	273.51
421.16	276.27
421.54	279.29
421.91	282.20
422.28	285.27
422.66	288.66
423.03	292.13
423.40	295.47
423.77	298.97
424.15	302.67
424.52	306.40
424.89	310.62
425.26	314.62
425.64	318.43
426.01	322.51
426.38	326.90
426.75	331.42
427.13	336.03
427.50	340.90
427.87	345.86
428.24	350.70
428.61	355.23
428.99	360.58
429.36	366.15
429.73	371.78
430.10	377.41
430.47	383.11
430.85	388.80
431.22	395.10
431.59	402.08
431.96	408.46
432.33	415.48
432.70	422.29
433.08	430.19
433.45	437.87
433.82	445.40
434.19	453.76
434.56	461.91
434.93	469.63
435.30	477.37
435.68	486.02
436.05	494.65
436.42	503.16
436.79	510.86
437.16	519.20
437.53	527.97
437.90	536.74
438.27	545.41
438.64	554.42
439.01	562.83
439.38	570.00
439.75	577.03
440.13	585.20
440.50	592.68
440.87	598.71
441.24	604.95
441.61	611.93
441.98	617.05
442.35	622.87
442.72	628.87
443.09	634.85
443.46	638.35
443.83	640.66
444.20	642.55
444.57	645.34
444.94	646.50
445.31	647.63
445.68	648.93
446.05	649.07
446.42	647.73
446.79	646.15
447.16	644.46
447.53	643.19
447.90	639.45
448.27	635.62
448.64	630.84
449.01	627.25
449.37	621.02
449.74	614.86
450.11	607.92
450.48	600.20
450.85	591.99
451.22	585.07
451.59	578.30
451.96	571.99
452.33	563.76
452.70	556.30
453.07	547.66
453.43	538.44
453.80	529.88
454.17	521.72
454.54	514.10
454.91	505.83
455.28	497.80
455.65	490.22
456.02	483.35
456.38	476.94
456.75	468.98
457.12	462.46
457.49	456.09
457.86	449.68
458.23	444.44
458.59	438.64
458.96	432.78
459.33	427.71
459.70	422.50
460.07	418.33
460.43	413.60
460.80	409.33
461.17	405.59
461.54	401.77
461.91	397.91
462.27	393.93
462.64	390.74
463.01	387.08
463.38	383.82
463.74	379.95
464.11	376.92
464.48	374.28
464.85	371.38
465.21	369.25
465.58	366.87
465.95	364.00
466.32	361.74
466.68	359.51
467.05	357.28
467.42	355.16
467.78	352.94
468.15	350.81
468.52	349.17
468.88	346.99
469.25	344.90
469.62	343.48
469.98	341.88
470.35	340.21
470.72	338.82
471.08	337.09
471.45	335.74
471.82	334.47
472.18	333.04
472.55	332.07
472.92	330.72
473.28	329.62
473.65	328.39
474.02	327.38
474.38	326.43
474.75	325.63
475.11	324.74
475.48	324.00
475.85	323.35
476.21	322.57
476.58	322.10
476.94	321.63
477.31	321.16
477.67	320.71
478.04	320.43
478.41	320.20
478.77	320.44
479.14	320.12
479.50	320.08
479.87	320.11
480.23	320.09
480.60	320.10
480.96	320.09
481.33	320.57
481.69	320.79
482.06	321.00
482.42	321.25
482.79	321.54
483.15	322.07
483.52	322.61
483.88	323.07
484.25	323.52
484.61	324.25
484.98	324.92
485.34	326.01
485.71	326.91
486.07	327.85
486.44	328.43
486.80	329.50
487.17	330.51
487.53	331.84
487.90	333.22
488.26	334.87
488.62	336.63
488.99	338.12
489.35	339.82
489.72	341.69
490.08	343.66
490.44	345.69
490.81	347.82
491.17	350.01
491.54	352.47
491.90	355.06
492.26	357.70
492.63	360.44
492.99	363.19
493.36	366.31
493.72	369.74
494.08	373.24
494.45	376.97
494.81	381.05
495.17	385.02
495.54	389.28
495.90	393.48
496.26	397.95
496.63	402.71
496.99	407.56
497.35	412.70
497.72	417.96
498.08	423.57
498.44	429.35
498.80	435.48
499.17	441.66
499.53	447.98
499.89	454.76
500.26	461.72
500.62	468.75
500.98	476.11
501.34	483.60
501.71	491.38
502.07	499.33
502.43	507.43
502.79	515.80
503.16	524.43
503.52	533.51
503.88	542.68
504.24	552.46
504.60	562.59
504.97	572.81
505.33	583.38
505.69	594.49
506.05	605.55
506.41	616.82
506.78	628.56
507.14	640.80
507.50	652.93
507.86	665.63
508.22	678.66
508.59	691.92
508.95	705.60
509.31	719.69
509.67	734.02
510.03	748.35
510.39	763.20
510.75	778.42
511.12	793.60
511.48	809.58
511.84	825.34
512.20	841.35
512.56	857.88
512.92	874.78
513.28	891.67
513.64	908.92
514.00	926.51
514.37	944.31
514.73	962.48
515.09	981.01
515.45	999.45
515.81	1017.81
516.17	1036.77
516.53	1055.57
516.89	1074.50
517.25	1093.97
517.61	1114.30
517.97	1134.60
518.33	1154.54
518.69	1174.83
519.05	1195.30
519.41	1215.97
519.77	1237.05
520.13	1257.71
520.49	1278.35
520.85	1300.57
521.21	1321.79
521.57	1343.25
521.93	1364.02
522.29	1385.14
522.65	1405.82
523.01	1426.90
523.37	1447.97
523.73	1469.12
524.09	1489.78
524.45	1510.64
524.81	1531.51
525.17	1552.19
525.53	1572.91
525.89	1593.99
526.25	1614.90
526.61	1635.50
526.97	1656.56
527.33	1678.02
527.68	1700.22
528.04	1721.78
528.40	1741.51
528.76	1762.76
529.12	1783.15
529.48	1804.41
529.84	1824.50
530.20	1845.77
530.56	1866.68
530.91	1887.67
531.27	1908.12
531.63	1929.09
531.99	1949.81
532.35	1970.03
532.71	1990.11
533.07	2010.75
533.42	2030.63
533.78	2050.94
534.14	2070.64
534.50	2089.84
534.86	2108.77
535.21	2126.00
535.57	2144.62
535.93	2162.43
536.29	2180.30
536.65	2198.55
537.00	2216.07
537.36	2234.18
537.72	2250.97
538.08	2268.43
538.44	2285.11
538.79	2301.52
539.15	2317.82
539.51	2333.79
539.87	2349.18
540.22	2363.58
540.58	2378.04
540.94	2391.35
541.29	2403.87
541.65	2416.63
542.01	2429.43
542.37	2440.39
542.72	2451.76
543.08	2462.63
543.44	2474.43
543.79	2484.47
544.15	2494.35
544.51	2504.31
544.87	2513.76
545.22	2522.28
545.58	2529.75
545.94	2537.12
546.29	2543.94
546.65	2550.33
547.01	2556.12
547.36	2561.72
547.72	2567.25
548.07	2571.07
548.43	2576.75
548.79	2581.53
549.14	2585.90
549.50	2589.47
549.86	2593.48
550.21	2597.31
550.57	2600.78
550.92	2602.25
551.28	2603.48
551.64	2606.04
551.99	2608.17
552.35	2609.86
552.70	2611.74
553.06	2613.24
553.41	2614.52
553.77	2616.49
554.13	2618.26
554.48	2619.65
554.84	2621.10
555.19	2622.37
555.55	2624.41
555.90	2623.64
556.26	2622.68
556.61	2621.10
556.97	2619.50
557.32	2618.73
557.68	2617.60
558.03	2615.90
558.39	2614.48
558.74	2613.98
559.10	2610.28
559.45	2607.00
559.81	2602.98
560.16	2598.39
560.52	2593.95
560.87	2589.43
561.23	2583.37
561.58	2577.35
561.94	2570.37
562.29	2562.94
562.64	2555.91
563.00	2547.45
563.35	2541.19
563.71	2534.99
564.06	2528.47
564.42	2521.57
564.77	2514.82
565.12	2507.11
565.48	2499.24
565.83	2491.68
566.19	2483.69
566.54	2476.60
566.89	2468.18
567.25	2459.92
567.60	2452.52
567.96	2444.69
568.31	2436.79
568.66	2428.37
569.02	2419.24
569.37	2411.35
569.72	2403.92
570.08	2394.58
570.43	2385.11
570.78	2376.00
571.14	2366.63
571.49	2356.49
571.84	2346.93
572.20	2336.33
572.55	2326.51
572.90	2315.64
573.26	2305.13
573.61	2293.79
573.96	2282.36
574.31	2270.64
574.67	2259.09
575.02	2246.45
575.37	2233.82
575.72	2220.61
576.08	2208.59
576.43	2196.18
576.78	2182.67
577.13	2168.55
577.49	2155.87
577.84	2143.75
578.19	2131.28
578.54	2118.49
578.90	2106.60
579.25	2094.42
579.60	2081.41
579.95	2068.20
580.30	2055.07
580.66	2041.76
581.01	2028.07
581.36	2014.15
581.71	2001.10
582.06	1987.88
582.42	1975.31
582.77	1962.57
583.12	1950.51
583.47	1938.11
583.82	1925.94
584.17	1914.30
584.53	1902.67
584.88	1889.51
585.23	1876.63
585.58	1862.39
585.93	1849.18
586.28	1835.68
586.63	1821.50
586.98	1807.36
587.34	1794.14
587.69	1780.80
588.04	1768.10
588.39	1756.14
588.74	1743.88
589.09	1731.80
589.44	1719.05
589.79	1706.85
590.14	1694.67
590.49	1682.41
590.84	1670.20
591.19	1657.96
591.54	1645.60
591.89	1633.26
592.25	1623.21
592.60	1611.50
592.95	1600.29
593.30	1588.15
593.65	1576.21
594.00	1564.27
594.35	1554.51
594.70	1542.55
595.05	1531.23
595.40	1518.96
595.75	1506.87
596.10	1495.50
596.45	1483.83
596.80	1472.88
597.15	1461.18
597.50	1449.55
597.85	1438.02
598.19	1426.44
598.54	1414.79
598.89	1403.36
599.24	1392.69
599.59	1380.62
599.94	1370.03
600.29	1359.29
600.64	1348.64
600.99	1337.74
601.34	1328.10
601.69	1316.76
602.04	1306.87
602.39	1297.07
602.74	1287.79
603.08	1278.44
603.43	1269.12
603.78	1259.41
604.13	1249.75
604.48	1240.21
604.83	1230.39
605.18	1220.85
605.53	1211.05
605.87	1202.01
606.22	1193.52
606.57	1184.14
606.92	1175.03
607.27	1165.89
607.62	1157.05
607.96	1148.59
608.31	1140.56
608.66	1132.22
609.01	1123.44
609.36	1114.85
609.70	1106.16
610.05	1097.39
610.40	1088.57
610.75	1079.51
611.10	1071.10
611.44	1062.36
611.79	1053.97
612.14	1046.08
612.49	1037.70
612.83	1030.23
613.18	1022.28
613.53	1014.32
613.88	1006.31
614.22	998.46
614.57	990.61
614.92	982.83
615.27	975.30
615.61	967.75
615.96	959.73
616.31	952.24
616.65	945.05
617.00	937.70
617.35	930.44
617.70	923.45
618.04	916.41
618.39	909.47
618.74	903.09
619.08	896.37
619.43	889.27
619.78	882.42
620.12	875.12
620.47	868.26
620.82	860.91
621.16	854.15
621.51	847.76
621.85	841.27
622.20	834.63
622.55	827.98
622.89	821.48
623.24	815.08
623.59	808.57
623.93	802.16
624.28	795.89
624.62	790.10
624.97	784.26
625.32	778.49
625.66	772.40
626.01	766.10
626.35	760.34
626.70	754.82
627.04	749.54
627.39	744.06
627.73	738.62
628.08	733.67
628.43	728.13
628.77	722.46
629.12	717.24
629.46	712.40
629.81	707.50
630.15	702.40
630.50	697.49
630.84	692.85
631.19	688.19
631.53	683.73
631.88	678.44
632.22	673.52
632.57	668.91
632.91	664.20
633.26	659.78
633.60	655.18
633.95	650.46
634.29	645.57
634.64	641.22
634.98	636.52
635.32	631.87
635.67	627.90
636.01	623.75
636.36	619.23
636.70	614.93
637.05	610.67
637.39	606.74
637.73	602.67
638.08	598.57
638.42	594.26
638.77	589.81
639.11	585.64
639.45	581.31
639.80	576.93
640.14	572.80
640.49	568.77
640.83	564.88
641.17	561.12
641.52	557.35
641.86	553.63
642.20	550.32
642.55	546.75
642.89	543.11
643.23	539.62
643.58	536.52
643.92	532.87
644.26	529.61
644.61	526.26
644.95	522.82
645.29	519.34
645.64	516.03
645.98	513.06
646.32	510.11
646.66	507.09
647.01	504.29
647.35	501.66
647.69	498.68
648.04	495.84
648.38	493.05
648.72	490.20
649.06	487.15
649.41	484.10
649.75	481.12
650.09	478.21
650.43	475.38
650.78	472.23
651.12	469.42
651.46	466.43
651.80	463.70
652.14	460.87
652.49	458.36
652.83	455.85
653.17	453.06
653.51	450.21
653.85	447.78
654.20	445.10
654.54	442.34
654.88	439.84
655.22	437.50
655.56	435.03
655.90	432.60
656.25	430.25
656.59	427.94
656.93	425.72
657.27	423.59
657.61	421.12
657.95	419.01
658.29	416.94
658.64	414.93
658.98	412.57
659.32	410.48
659.66	408.27
660.00	406.02
660.34	404.05
660.68	402.14
661.02	399.97
661.36	398.02
661.70	396.17
662.05	394.25
662.39	392.29
662.73	390.49
663.07	388.88
663.41	387.09
663.75	385.10
664.09	383.28
664.43	381.35
664.77	379.71
665.11	377.95
665.45	376.19
665.79	374.40
666.13	372.76
666.47	371.12
666.81	369.41
667.15	367.78
667.49	366.19
667.83	364.81
668.17	363.40
668.51	361.93
668.85	360.52
669.19	359.41
669.53	357.80
669.87	356.29
670.21	354.69
670.55	353.27
670.89	352.09
671.23	350.70
671.57	349.22
671.91	347.90
672.25	346.53
672.58	345.34
672.92	343.92
673.26	342.60
673.60	341.42
673.94	340.31
674.28	339.22
674.62	337.95
674.96	336.58
675.30	335.30
675.64	334.07
675.97	332.73
676.31	331.29
676.65	330.15
676.99	329.13
677.33	327.94
677.67	326.87
678.01	325.61
678.34	324.50
678.68	323.52
679.02	322.42
679.36	321.37
679.70	320.23
680.04	319.38
680.37	318.40
680.71	317.37
681.05	316.43
681.39	315.40
681.73	314.50
682.06	313.65
682.40	312.75
682.74	311.87
683.08	311.19
683.42	310.32
683.75	309.46
684.09	308.50
684.43	307.78
684.77	306.95
685.10	306.20
685.44	305.40
685.78	304.61
686.12	303.85
686.45	303.00
686.79	302.16
687.13	301.48
687.46	300.81
687.80	300.13
688.14	299.27
688.48	298.57
688.81	297.83
689.15	297.16
689.49	296.38
689.82	295.69
690.16	294.75
690.50	294.04
690.83	293.39
691.17	292.59
691.51	291.84
691.84	291.21
692.18	290.50
692.52	289.85
692.85	289.21
693.19	288.74
693.52	288.21
693.86	287.58
694.20	286.93
694.53	286.25
694.87	285.54
695.21	284.91
695.54	284.30
695.88	283.69
696.21	282.88
696.55	282.31
696.88	281.77
697.22	281.21
697.56	280.67
697.89	279.98
698.23	279.55
698.56	278.97
698.90	278.45
699.23	277.91
699.57	277.38
699.90	276.75
700.24	276.10
700.58	275.65
700.91	275.27
701.25	275.18
701.58	275.03
701.92	274.75
702.25	274.35
702.59	273.87
702.92	273.39
703.26	273.00
703.59	272.67
703.93	272.59
704.26	272.20
704.60	271.78
704.93	271.32
705.26	270.87
705.60	270.59
705.93	270.00
706.27	269.78
706.60	269.46
706.94	269.31
707.27	268.96
707.61	268.49
707.94	268.09
708.27	267.24
708.61	266.45
708.94	265.95
709.28	265.57
709.61	265.15
709.94	264.85
710.28	264.52
710.61	264.05
710.95	263.26
711.28	263.27
711.61	262.84
711.95	262.67
712.28	262.26
712.61	261.87
712.95	261.94
713.28	261.77
713.61	261.40
713.95	260.88
714.28	260.52
714.61	260.13
714.95	259.78
715.28	259.37
715.61	259.10
715.95	258.77
716.28	258.39
716.61	258.17
716.95	257.80
717.28	257.47
717.61	257.24
717.94	256.97
718.28	256.21
718.61	255.93
718.94	255.55
719.27	255.23
719.61	255.02
719.94	254.51
720.27	253.97
720.60	253.55
720.94	253.40
721.27	253.13
721.60	252.99
721.93	252.64
722.27	252.62
722.60	252.36
722.93	252.08
723.26	251.88
723.59	251.58
723.93	251.44
724.26	251.27
724.59	251.04
724.92	250.80
725.25	250.69
725.59	250.51
725.92	250.40
726.25	250.27
726.58	250.00
726.91	249.86
727.24	249.73
727.57	249.54
727.91	249.21
728.24	249.11
728.57	248.84
728.90	248.74
729.23	248.38
729.56	248.50
729.89	248.35
730.22	248.22
730.55	248.01
730.89	247.81
731.22	247.61
731.55	247.41
731.88	247.30
732.21	247.12
732.54	246.87
732.87	246.60
733.20	246.41
733.53	246.26
733.86	246.04
734.19	245.70
734.52	245.72
734.85	245.89
735.18	245.63
735.51	245.65
735.84	245.50
736.17	245.43
736.50	245.03
736.83	245.45
737.16	245.20
737.49	245.10
737.82	244.87
738.15	244.77
738.48	244.62
738.81	244.46
739.14	244.26
739.47	244.14
739.80	244.02
740.13	243.94
740.46	243.78
740.79	243.55
741.12	243.43
741.45	243.16
741.78	242.71
742.11	242.69
742.44	242.42
742.77	242.36
743.10	242.13
743.43	241.94
743.75	241.28
744.08	241.80
744.41	241.66
744.74	241.60
745.07	241.37
745.40	241.30
745.73	241.31
746.06	241.20
746.39	241.12
746.71	240.96
747.04	240.75
747.37	240.57
747.70	240.61
748.03	240.57
748.36	240.57
748.68	240.50
749.01	240.27
749.34	240.17
749.67	240.05
750.00	240.08
750.33	240.35
750.65	240.18
750.98	239.46
751.31	239.31
751.64	239.15
751.97	239.31
752.29	239.17
752.62	238.89
752.95	238.72
753.28	238.54
753.60	238.38
753.93	238.41
754.26	238.39
754.59	238.10
754.91	237.89
755.24	237.68
755.57	237.53
755.90	237.30
756.22	237.19
756.55	236.99
756.88	236.66
757.20	236.18
757.53	235.95
757.86	235.87
758.19	235.80
758.51	235.73
758.84	235.40
759.17	235.20
759.49	235.16
759.82	235.31
760.15	235.30
760.47	235.31
760.80	235.03
761.13	234.99
761.45	234.96
761.78	234.94
762.11	234.90
762.43	234.70
762.76	234.71
763.08	234.71
763.41	234.62
763.74	234.66
764.06	234.57
764.39	234.52
764.71	234.52
765.04	234.41
765.37	234.24
765.69	234.16
766.02	234.14
766.34	233.99
766.67	233.70
767.00	233.65
767.32	233.78
767.65	234.08
767.97	233.92
768.30	233.85
768.62	233.87
768.95	233.73
769.27	233.72
769.60	233.76
769.92	233.53
770.25	233.41
770.57	233.28
770.90	233.26
771.22	233.19
771.55	233.05
771.87	232.99
772.20	232.93
772.52	233.28
772.85	233.81
773.17	233.82
773.50	233.76
773.82	233.65
774.15	233.28
774.47	232.89
774.80	232.82
775.12	232.73
775.45	232.56
775.77	232.65
776.09	232.66
776.42	232.54
776.74	232.63
777.07	232.62
777.39	232.61
777.72	232.57
778.04	232.58
778.36	232.46
778.69	232.37
779.01	232.37
779.33	231.93
779.66	231.31
779.98	231.20
780.31	231.21
780.63	231.38
780.95	231.40
781.28	231.36
781.60	231.28
781.92	231.28
782.25	231.28
782.57	231.15
782.89	231.14
783.22	231.08
783.54	230.95
783.86	230.87
784.19	230.84
784.51	230.90
784.83	230.84
785.16	230.85
785.48	230.96
785.80	230.93
786.12	230.96
786.45	230.92
786.77	230.99
787.09	230.88
787.42	230.67
787.74	230.71
788.06	230.75
788.38	230.77
788.71	230.71
789.03	230.68
789.35	230.72
789.67	230.59
789.99	230.60
790.32	230.58
790.64	230.66
790.96	230.96
791.28	230.86
791.61	230.78
791.93	230.76
792.25	230.69
792.57	231.07
792.89	230.91
793.21	230.95
793.54	230.85
793.86	230.77
794.18	230.75
794.50	230.67
794.82	230.67
795.14	230.65
795.47	230.72
795.79	230.69
796.11	230.56
796.43	230.50
796.75	230.50
797.07	230.48
797.39	230.44
797.71	230.13
798.04	230.08
798.36	230.12
798.68	230.10
799.00	230.11
799.32	229.81
799.64	229.93
799.96	229.81
800.28	229.84
800.60	229.88
800.92	229.95
801.24	229.88
801.56	229.88
801.89	229.74
802.21	229.72
802.53	229.68
802.85	229.85
803.17	230.09
803.49	230.01
803.81	229.97
804.13	229.92
804.45	229.86
804.77	229.93
805.09	229.89
805.41	229.83
805.73	229.70
806.05	229.59
806.37	229.50
806.69	229.56
807.01	229.54
807.33	229.52
807.65	229.32
807.97	229.50
808.28	229.42
808.60	229.43
808.92	229.33
809.24	229.61
809.56	229.45
809.88	229.29
810.20	229.25
810.52	229.28
810.84	229.22
811.16	229.12
811.48	228.99
811.80	229.20
812.12	229.19
812.43	229.36
812.75	229.38
813.07	229.33
813.39	229.26
813.71	229.20
814.03	229.16
814.35	229.28
814.67	229.10
814.98	228.98
815.30	228.95
815.62	228.87
815.94	228.54
816.26	228.80
816.58	228.70
816.89	228.73
817.21	228.61
817.53	228.64
817.85	228.69
