SpectraSuite Data File
++++++++++++++++++++++++++++++++++++
Date: Wed Sep 04 17:57:27 EDT 2013
User: lab3
Dark Spectrum Present: Yes
Reference Spectrum Present: No
Number of Sampled Component Spectra: 1
Spectrometers: USB2E7196
Integration Time (usec): 170000 (USB2E7196)
Spectra Averaged: 20 (USB2E7196)
Boxcar Smoothing: 10 (USB2E7196)
Correct for Electrical Dark: No (USB2E7196)
Strobe/Lamp Enabled: No (USB2E7196)
Correct for Detector Non-linearity: No (USB2E7196)
Correct for Stray Light: No (USB2E7196)
Number of Pixels in Processed Spectrum: 2048
>>>>>Begin Processed Spectral Data<<<<<
339.09	0.00
339.48	213.35
339.86	215.25
340.24	215.75
340.63	217.75
341.01	226.50
341.39	221.30
341.78	223.20
342.16	224.95
342.54	222.55
342.93	212.66
343.31	223.35
343.69	223.90
344.07	224.35
344.46	224.84
344.84	225.25
345.22	225.22
345.60	225.46
345.99	225.58
346.37	225.66
346.75	225.79
347.13	225.81
347.52	225.87
347.90	226.15
348.28	226.11
348.66	226.21
349.05	226.06
349.43	226.06
349.81	226.13
350.19	226.17
350.57	226.24
350.96	226.39
351.34	226.52
351.72	226.59
352.10	226.65
352.48	226.61
352.87	226.64
353.25	226.71
353.63	226.76
354.01	226.84
354.39	226.90
354.77	226.96
355.15	227.25
355.54	227.25
355.92	227.14
356.30	227.25
356.68	227.61
357.06	227.68
357.44	227.71
357.82	227.77
358.20	228.25
358.58	228.31
358.97	228.35
359.35	228.49
359.73	228.67
360.11	228.80
360.49	228.94
360.87	229.04
361.25	229.07
361.63	229.31
362.01	229.38
362.39	229.40
362.77	229.48
363.15	229.45
363.53	229.47
363.91	229.58
364.29	229.66
364.67	229.28
365.05	229.32
365.43	229.39
365.81	229.47
366.19	229.34
366.57	229.50
366.95	229.50
367.33	229.36
367.71	229.36
368.09	229.40
368.47	229.38
368.85	229.36
369.23	229.48
369.61	229.30
369.99	229.40
370.37	229.41
370.75	229.63
371.13	229.56
371.51	229.57
371.89	229.54
372.27	229.51
372.65	229.47
373.03	229.46
373.41	229.53
373.78	229.43
374.16	229.14
374.54	228.97
374.92	228.87
375.30	228.91
375.68	228.82
376.06	228.81
376.44	228.72
376.82	228.64
377.19	228.50
377.57	228.44
377.95	228.28
378.33	228.24
378.71	227.98
379.09	228.00
379.47	228.01
379.84	227.94
380.22	227.80
380.60	227.75
380.98	227.72
381.36	227.55
381.73	227.44
382.11	227.48
382.49	227.44
382.87	227.32
383.25	227.23
383.62	227.67
384.00	227.58
384.38	227.60
384.76	227.61
385.13	227.85
385.51	227.74
385.89	227.63
386.27	227.61
386.64	227.70
387.02	227.56
387.40	227.44
387.78	227.42
388.15	227.38
388.53	227.29
388.91	227.21
389.29	227.21
389.66	227.30
390.04	227.20
390.42	227.24
390.79	227.25
391.17	227.23
391.55	226.71
391.92	226.63
392.30	226.67
392.68	226.63
393.05	226.55
393.43	226.58
393.81	226.63
394.18	226.57
394.56	226.49
394.94	226.57
395.31	226.61
395.69	226.79
396.06	226.95
396.44	226.99
396.82	227.02
397.19	227.34
397.57	227.24
397.95	227.38
398.32	227.23
398.70	227.40
399.07	227.60
399.45	227.66
399.82	227.76
400.20	227.71
400.58	227.80
400.95	227.70
401.33	227.91
401.70	228.34
402.08	228.46
402.45	228.56
402.83	228.83
403.20	228.95
403.58	229.02
403.95	229.27
404.33	229.49
404.71	229.68
405.08	230.03
405.46	230.26
405.83	230.54
406.21	230.88
406.58	231.14
406.96	231.31
407.33	231.62
407.70	232.04
408.08	232.86
408.45	233.28
408.83	233.76
409.20	234.11
409.58	234.28
409.95	234.84
410.33	235.43
410.70	235.86
411.08	236.52
411.45	237.20
411.82	237.67
412.20	238.51
412.57	239.58
412.95	239.93
413.32	240.88
413.69	241.61
414.07	242.56
414.44	243.53
414.82	244.64
415.19	245.87
415.56	247.04
415.94	248.03
416.31	249.49
416.68	250.94
417.06	252.59
417.43	254.23
417.81	256.00
418.18	257.77
418.55	259.73
418.93	261.72
419.30	263.76
419.67	266.04
420.04	268.31
420.42	270.54
420.79	273.68
421.16	276.44
421.54	279.50
421.91	282.46
422.28	285.55
422.66	288.73
423.03	292.20
423.40	295.62
423.77	299.15
424.15	302.78
424.52	306.75
424.89	310.99
425.26	314.87
425.64	318.76
426.01	322.92
426.38	327.29
426.75	331.88
427.13	336.56
427.50	341.31
427.87	346.21
428.24	351.22
428.61	355.60
428.99	361.07
429.36	366.59
429.73	372.25
430.10	377.86
430.47	383.59
430.85	389.29
431.22	395.56
431.59	402.34
431.96	408.56
432.33	415.35
432.70	421.98
433.08	429.94
433.45	437.33
433.82	444.74
434.19	453.07
434.56	461.38
434.93	468.93
435.30	476.77
435.68	485.38
436.05	493.78
436.42	502.24
436.79	509.88
437.16	518.39
437.53	527.18
437.90	535.83
438.27	544.44
438.64	553.30
439.01	561.56
439.38	568.85
439.75	576.19
440.13	584.32
440.50	591.90
440.87	598.05
441.24	604.56
441.61	611.49
441.98	616.37
442.35	621.94
442.72	628.20
443.09	634.10
443.46	637.57
443.83	639.93
444.20	642.03
444.57	644.76
444.94	645.81
445.31	646.83
445.68	648.33
446.05	648.47
446.42	647.31
446.79	645.90
447.16	644.30
447.53	642.77
447.90	638.94
448.27	635.20
448.64	630.27
449.01	626.45
449.37	620.30
449.74	614.30
450.11	607.42
450.48	599.48
450.85	591.23
451.22	584.31
451.59	577.71
451.96	571.35
452.33	563.13
452.70	555.74
453.07	547.03
453.43	537.67
453.80	529.22
454.17	520.88
454.54	513.16
454.91	504.88
455.28	496.92
455.65	489.40
456.02	482.54
456.38	476.16
456.75	468.27
457.12	461.75
457.49	455.31
457.86	448.93
458.23	443.67
458.59	438.10
458.96	432.22
459.33	427.05
459.70	421.71
460.07	417.59
460.43	412.74
460.80	408.40
461.17	404.69
461.54	400.73
461.91	396.90
462.27	392.93
462.64	389.66
463.01	386.06
463.38	382.76
463.74	378.83
464.11	375.75
464.48	373.23
464.85	370.37
465.21	368.31
465.58	365.92
465.95	363.12
466.32	360.82
466.68	358.63
467.05	356.39
467.42	354.33
467.78	352.02
468.15	349.94
468.52	348.43
468.88	346.23
469.25	344.27
469.62	342.87
469.98	341.27
470.35	339.71
470.72	338.17
471.08	336.52
471.45	335.15
471.82	333.92
472.18	332.33
472.55	331.31
472.92	329.93
473.28	328.88
473.65	327.85
474.02	326.71
474.38	325.89
474.75	325.09
475.11	324.12
475.48	323.46
475.85	322.86
476.21	322.14
476.58	321.65
476.94	321.32
477.31	320.92
477.67	320.45
478.04	320.14
478.41	320.03
478.77	320.20
479.14	319.98
479.50	319.81
479.87	319.88
480.23	319.92
480.60	319.92
480.96	319.92
481.33	320.25
481.69	320.62
482.06	320.82
482.42	321.07
482.79	321.44
483.15	321.85
483.52	322.47
483.88	322.95
484.25	323.53
484.61	324.18
484.98	324.81
485.34	325.87
485.71	326.80
486.07	327.76
486.44	328.45
486.80	329.58
487.17	330.80
487.53	332.28
487.90	333.65
488.26	335.40
488.62	337.17
488.99	338.66
489.35	340.36
489.72	342.23
490.08	344.27
490.44	346.20
490.81	348.50
491.17	350.71
491.54	353.29
491.90	355.87
492.26	358.45
492.63	361.24
492.99	364.00
493.36	367.15
493.72	370.51
494.08	373.92
494.45	377.63
494.81	381.54
495.17	385.31
495.54	389.57
495.90	393.75
496.26	398.12
496.63	402.69
496.99	407.58
497.35	412.72
497.72	418.03
498.08	423.59
498.44	429.29
498.80	435.22
499.17	441.14
499.53	447.35
499.89	454.06
500.26	460.90
500.62	467.95
500.98	475.34
501.34	482.75
501.71	490.46
502.07	498.26
502.43	506.28
502.79	514.79
503.16	523.47
503.52	532.52
503.88	541.92
504.24	551.75
504.60	561.68
504.97	571.95
505.33	582.47
505.69	593.58
506.05	604.52
506.41	615.85
506.78	627.74
507.14	639.82
507.50	652.25
507.86	665.00
508.22	678.05
508.59	691.14
508.95	704.77
509.31	718.90
509.67	733.26
510.03	747.71
510.39	762.51
510.75	777.54
511.12	792.66
511.48	808.29
511.84	824.00
512.20	839.90
512.56	856.11
512.92	872.84
513.28	889.73
513.64	907.18
514.00	924.66
514.37	942.17
514.73	960.45
515.09	978.71
515.45	996.95
515.81	1015.31
516.17	1034.12
516.53	1052.70
516.89	1071.54
517.25	1090.88
517.61	1111.00
517.97	1131.25
518.33	1151.42
518.69	1171.81
519.05	1192.35
519.41	1213.11
519.77	1234.32
520.13	1255.29
520.49	1275.99
520.85	1298.18
521.21	1319.38
521.57	1340.83
521.93	1361.89
522.29	1382.99
522.65	1403.62
523.01	1424.66
523.37	1445.65
523.73	1466.73
524.09	1487.56
524.45	1508.27
524.81	1529.16
525.17	1549.97
525.53	1570.65
525.89	1591.47
526.25	1612.55
526.61	1632.99
526.97	1653.93
527.33	1675.10
527.68	1696.95
528.04	1718.51
528.40	1738.45
528.76	1759.38
529.12	1779.93
529.48	1800.76
529.84	1821.09
530.20	1842.50
530.56	1863.49
530.91	1884.16
531.27	1904.64
531.63	1925.49
531.99	1946.10
532.35	1966.35
532.71	1986.70
533.07	2007.29
533.42	2027.31
533.78	2047.21
534.14	2067.06
534.50	2086.29
534.86	2105.71
535.21	2123.43
535.57	2141.76
535.93	2159.41
536.29	2177.35
536.65	2195.52
537.00	2213.14
537.36	2230.70
537.72	2247.09
538.08	2264.22
538.44	2281.16
538.79	2297.54
539.15	2314.28
539.51	2330.55
539.87	2345.80
540.22	2359.97
540.58	2374.42
540.94	2387.72
541.29	2400.38
541.65	2413.40
542.01	2426.24
542.37	2436.86
542.72	2447.59
543.08	2458.47
543.44	2470.27
543.79	2480.31
544.15	2490.26
544.51	2500.45
544.87	2509.91
545.22	2518.72
545.58	2526.82
545.94	2534.06
546.29	2540.75
546.65	2546.82
547.01	2552.17
547.36	2557.77
547.72	2563.14
548.07	2566.83
548.43	2572.52
548.79	2577.29
549.14	2581.15
549.50	2584.46
549.86	2588.54
550.21	2592.42
550.57	2595.40
550.92	2596.78
551.28	2598.29
551.64	2600.51
551.99	2602.55
552.35	2604.22
552.70	2606.57
553.06	2607.97
553.41	2609.07
553.77	2610.59
554.13	2612.22
554.48	2613.72
554.84	2615.16
555.19	2616.33
555.55	2618.59
555.90	2617.22
556.26	2616.31
556.61	2614.56
556.97	2613.01
557.32	2612.20
557.68	2611.25
558.03	2609.85
558.39	2608.73
558.74	2607.84
559.10	2604.71
559.45	2600.84
559.81	2596.68
560.16	2591.35
560.52	2585.97
560.87	2581.64
561.23	2576.61
561.58	2570.65
561.94	2564.13
562.29	2556.69
562.64	2549.82
563.00	2541.30
563.35	2535.12
563.71	2528.40
564.06	2522.35
564.42	2515.80
564.77	2508.99
565.12	2501.54
565.48	2494.02
565.83	2485.84
566.19	2477.76
566.54	2469.83
566.89	2462.02
567.25	2454.27
567.60	2447.01
567.96	2440.04
568.31	2432.14
568.66	2423.51
569.02	2414.27
569.37	2406.08
569.72	2398.80
570.08	2389.34
570.43	2379.93
570.78	2371.14
571.14	2362.16
571.49	2352.04
571.84	2342.39
572.20	2331.24
572.55	2320.93
572.90	2309.81
573.26	2299.50
573.61	2288.25
573.96	2277.07
574.31	2264.83
574.67	2253.26
575.02	2240.35
575.37	2227.49
575.72	2214.07
576.08	2201.85
576.43	2189.41
576.78	2176.28
577.13	2162.25
577.49	2149.67
577.84	2137.52
578.19	2125.05
578.54	2111.76
578.90	2099.60
579.25	2087.04
579.60	2074.46
579.95	2061.32
580.30	2048.30
580.66	2034.71
581.01	2021.20
581.36	2007.02
581.71	1994.37
582.06	1980.92
582.42	1968.65
582.77	1955.94
583.12	1943.95
583.47	1931.50
583.82	1919.55
584.17	1907.58
584.53	1895.86
584.88	1882.80
585.23	1869.83
585.58	1855.59
585.93	1842.57
586.28	1829.38
586.63	1815.21
586.98	1801.18
587.34	1788.03
587.69	1774.85
588.04	1762.63
588.39	1750.27
588.74	1738.32
589.09	1726.22
589.44	1713.45
589.79	1701.28
590.14	1689.53
590.49	1677.50
590.84	1665.25
591.19	1653.32
591.54	1640.56
591.89	1627.97
592.25	1617.74
592.60	1606.23
592.95	1594.88
593.30	1582.75
593.65	1570.57
594.00	1558.82
594.35	1548.94
594.70	1536.93
595.05	1525.18
595.40	1512.67
595.75	1500.94
596.10	1489.80
596.45	1478.28
596.80	1467.45
597.15	1455.85
597.50	1443.84
597.85	1432.27
598.19	1420.53
598.54	1408.57
598.89	1397.56
599.24	1387.20
599.59	1375.40
599.94	1364.49
600.29	1354.04
600.64	1344.00
600.99	1333.43
601.34	1323.69
601.69	1312.31
602.04	1302.73
602.39	1293.31
602.74	1284.40
603.08	1274.95
603.43	1265.39
603.78	1255.73
604.13	1246.09
604.48	1236.59
604.83	1227.06
605.18	1217.31
605.53	1207.88
605.87	1198.77
606.22	1190.12
606.57	1180.63
606.92	1171.12
607.27	1162.18
607.62	1153.45
607.96	1144.84
608.31	1136.77
608.66	1128.37
609.01	1119.93
609.36	1111.04
609.70	1102.37
610.05	1093.53
610.40	1085.06
610.75	1076.41
611.10	1067.91
611.44	1059.21
611.79	1050.96
612.14	1042.98
612.49	1035.10
612.83	1027.72
613.18	1019.91
613.53	1012.27
613.88	1004.32
614.22	996.58
614.57	988.47
614.92	980.48
615.27	972.96
615.61	965.09
615.96	957.44
616.31	949.94
616.65	943.08
617.00	935.70
617.35	928.39
617.70	921.06
618.04	913.85
618.39	906.89
618.74	900.57
619.08	893.61
619.43	886.55
619.78	879.50
620.12	872.14
620.47	865.33
620.82	857.99
621.16	851.07
621.51	844.89
621.85	838.65
622.20	831.87
622.55	825.10
622.89	818.64
623.24	812.33
623.59	805.85
623.93	799.50
624.28	793.39
624.62	787.75
624.97	782.01
625.32	776.27
625.66	770.29
626.01	764.10
626.35	758.42
626.70	752.81
627.04	747.53
627.39	741.99
627.73	736.65
628.08	731.51
628.43	726.00
628.77	720.42
629.12	715.04
629.46	710.25
629.81	705.54
630.15	700.77
630.50	695.81
630.84	691.23
631.19	686.40
631.53	681.81
631.88	676.54
632.22	671.66
632.57	667.01
632.91	662.45
633.26	658.06
633.60	653.38
633.95	648.64
634.29	643.75
634.64	639.45
634.98	634.67
635.32	630.21
635.67	626.35
636.01	622.25
636.36	617.99
636.70	613.88
637.05	609.58
637.39	605.52
637.73	601.37
638.08	597.22
638.42	592.92
638.77	588.61
639.11	584.32
639.45	579.87
639.80	575.60
640.14	571.35
640.49	567.26
640.83	563.51
641.17	559.84
641.52	556.27
641.86	552.49
642.20	549.20
642.55	545.59
642.89	541.95
643.23	538.30
643.58	535.13
643.92	531.43
644.26	528.01
644.61	524.74
644.95	521.39
645.29	517.96
645.64	514.87
645.98	511.77
646.32	508.85
646.66	505.82
647.01	502.85
647.35	500.14
647.69	497.32
648.04	494.58
648.38	491.84
648.72	488.91
649.06	485.93
649.41	482.95
649.75	479.89
650.09	476.98
650.43	474.18
650.78	471.14
651.12	468.34
651.46	465.56
651.80	462.71
652.14	460.00
652.49	457.42
652.83	454.94
653.17	452.37
653.51	449.65
653.85	447.27
654.20	444.76
654.54	442.09
654.88	439.55
655.22	437.06
655.56	434.44
655.90	432.09
656.25	429.83
656.59	427.62
656.93	425.40
657.27	423.41
657.61	420.93
657.95	418.71
658.29	416.55
658.64	414.36
658.98	412.17
659.32	409.82
659.66	407.59
660.00	405.30
660.34	403.26
660.68	401.18
661.02	399.15
661.36	397.18
661.70	395.19
662.05	393.08
662.39	391.09
662.73	389.37
663.07	387.73
663.41	385.90
663.75	383.77
664.09	381.96
664.43	379.85
664.77	378.29
665.11	376.49
665.45	374.88
665.79	373.30
666.13	371.57
666.47	369.97
666.81	368.44
667.15	366.67
667.49	365.00
667.83	363.74
668.17	362.21
668.51	360.60
668.85	359.21
669.19	358.07
669.53	356.55
669.87	354.94
670.21	353.35
670.55	352.01
670.89	350.93
671.23	349.63
671.57	348.32
671.91	347.00
672.25	345.67
672.58	344.37
672.92	342.88
673.26	341.64
673.60	340.44
673.94	339.21
674.28	338.17
674.62	337.04
674.96	335.62
675.30	334.46
675.64	333.39
675.97	332.21
676.31	330.92
676.65	329.70
676.99	328.78
677.33	327.62
677.67	326.46
678.01	325.16
678.34	324.10
678.68	323.18
679.02	322.03
679.36	321.13
679.70	320.03
680.04	319.10
680.37	318.09
680.71	317.16
681.05	316.35
681.39	315.29
681.73	314.26
682.06	313.33
682.40	312.50
682.74	311.66
683.08	310.95
683.42	310.01
683.75	309.34
684.09	308.35
684.43	307.53
684.77	306.70
685.10	305.99
685.44	305.24
685.78	304.41
686.12	303.75
686.45	302.98
686.79	302.27
687.13	301.68
687.46	300.94
687.80	300.26
688.14	299.38
688.48	298.70
688.81	298.02
689.15	297.48
689.49	296.68
689.82	295.99
690.16	295.10
690.50	294.50
690.83	293.74
691.17	293.05
691.51	292.39
691.84	291.74
692.18	291.00
692.52	290.26
692.85	289.62
693.19	289.16
693.52	288.45
693.86	287.72
694.20	286.99
694.53	286.36
694.87	285.80
695.21	285.11
695.54	284.57
695.88	283.91
696.21	283.10
696.55	282.53
696.88	281.88
697.22	281.25
697.56	280.65
697.89	280.00
698.23	279.52
698.56	279.01
698.90	278.52
699.23	277.95
699.57	277.48
699.90	276.87
700.24	276.09
700.58	275.71
700.91	275.35
701.25	275.17
701.58	275.07
701.92	274.67
702.25	274.26
702.59	273.71
702.92	273.34
703.26	272.99
703.59	272.58
703.93	272.58
704.26	272.23
704.60	271.87
704.93	271.44
705.26	270.94
705.60	270.55
705.93	270.09
706.27	269.84
706.60	269.53
706.94	269.36
707.27	269.03
707.61	268.62
707.94	268.11
708.27	267.37
708.61	266.56
708.94	266.02
709.28	265.68
709.61	265.36
709.94	265.04
710.28	264.68
710.61	264.26
710.95	263.47
711.28	263.44
711.61	262.96
711.95	262.77
712.28	262.34
712.61	261.86
712.95	261.60
713.28	261.36
713.61	260.94
713.95	260.49
714.28	260.15
714.61	259.72
714.95	259.41
715.28	259.05
715.61	258.76
715.95	258.49
716.28	258.14
716.61	257.81
716.95	257.34
717.28	256.96
717.61	256.68
717.94	256.30
718.28	255.68
718.61	255.43
718.94	255.07
719.27	254.75
719.61	254.58
719.94	254.27
720.27	253.80
720.60	253.55
720.94	253.25
721.27	252.99
721.60	252.86
721.93	252.63
722.27	252.62
722.60	252.49
722.93	252.16
723.26	251.96
723.59	251.62
723.93	251.54
724.26	251.38
724.59	251.14
724.92	251.03
725.25	250.92
725.59	250.71
725.92	250.64
726.25	250.56
726.58	250.39
726.91	250.22
727.24	250.09
727.57	249.87
727.91	249.62
728.24	249.47
728.57	249.20
728.90	249.10
729.23	248.68
729.56	248.74
729.89	248.58
730.22	248.35
730.55	248.24
730.89	248.08
731.22	247.87
731.55	247.73
731.88	247.55
732.21	247.29
732.54	246.99
732.87	246.73
733.20	246.54
733.53	246.38
733.86	246.24
734.19	246.02
734.52	245.91
734.85	246.04
735.18	245.82
735.51	245.85
735.84	245.69
736.17	245.70
736.50	245.25
736.83	245.73
737.16	245.56
737.49	245.44
737.82	245.19
738.15	245.20
738.48	245.03
738.81	244.85
739.14	244.66
739.47	244.56
739.80	244.45
740.13	244.38
740.46	244.14
740.79	243.89
741.12	243.79
741.45	243.56
741.78	243.12
742.11	243.07
742.44	242.74
742.77	242.64
743.10	242.43
743.43	242.29
743.75	241.62
744.08	242.09
744.41	241.81
744.74	241.67
745.07	241.37
745.40	241.32
745.73	241.32
746.06	241.17
746.39	241.12
746.71	240.92
747.04	240.72
747.37	240.56
747.70	240.49
748.03	240.36
748.36	240.35
748.68	240.24
749.01	239.95
749.34	239.79
749.67	239.70
750.00	239.57
750.33	239.76
750.65	239.66
750.98	238.96
751.31	238.91
751.64	238.79
751.97	238.84
752.29	238.69
752.62	238.36
752.95	238.23
753.28	238.04
753.60	237.87
753.93	237.85
754.26	237.82
754.59	237.60
754.91	237.36
755.24	237.17
755.57	237.16
755.90	237.12
756.22	237.03
756.55	236.75
756.88	236.60
757.20	236.19
757.53	235.94
757.86	235.86
758.19	235.74
758.51	235.66
758.84	235.36
759.17	235.23
759.49	235.24
759.82	235.41
760.15	235.34
760.47	235.25
760.80	235.04
761.13	235.05
761.45	234.95
761.78	234.96
762.11	234.87
762.43	234.72
762.76	234.62
763.08	234.58
763.41	234.59
763.74	234.57
764.06	234.47
764.39	234.38
764.71	234.33
765.04	234.32
765.37	234.22
765.69	234.23
766.02	234.13
766.34	234.03
766.67	233.74
767.00	233.76
767.32	234.02
767.65	234.26
767.97	234.08
768.30	234.10
768.62	234.00
768.95	233.93
769.27	233.89
769.60	233.91
769.92	233.83
770.25	233.68
770.57	233.52
770.90	233.48
771.22	233.41
771.55	233.27
771.87	233.23
772.20	233.24
772.52	233.53
772.85	234.10
773.17	234.08
773.50	234.02
773.82	233.96
774.15	233.60
774.47	233.18
774.80	233.14
775.12	233.06
775.45	233.00
775.77	232.94
776.09	232.89
776.42	232.80
776.74	232.94
777.07	232.90
777.39	232.91
777.72	232.81
778.04	232.87
778.36	232.86
778.69	232.80
779.01	232.77
779.33	232.36
779.66	231.77
779.98	231.66
780.31	231.67
780.63	231.75
780.95	231.84
781.28	231.90
781.60	231.83
781.92	231.87
782.25	231.84
782.57	231.77
782.89	231.69
783.22	231.66
783.54	231.53
783.86	231.50
784.19	231.37
784.51	231.46
784.83	231.32
785.16	231.26
785.48	231.21
785.80	231.12
786.12	231.10
786.45	231.05
786.77	231.04
787.09	230.95
787.42	230.80
787.74	230.72
788.06	230.66
788.38	230.58
788.71	230.46
789.03	230.41
789.35	230.55
789.67	230.51
789.99	230.44
790.32	230.26
790.64	230.38
790.96	230.75
791.28	230.60
791.61	230.56
791.93	230.61
792.25	230.55
792.57	230.91
792.89	230.79
793.21	230.73
793.54	230.66
793.86	230.55
794.18	230.45
794.50	230.33
794.82	230.32
795.14	230.40
795.47	230.42
795.79	230.43
796.11	230.30
796.43	230.20
796.75	230.17
797.07	230.17
797.39	230.04
797.71	229.70
798.04	229.64
798.36	229.69
798.68	229.60
799.00	229.59
799.32	229.24
799.64	229.29
799.96	229.24
800.28	229.33
800.60	229.31
800.92	229.37
801.24	229.35
801.56	229.39
801.89	229.29
802.21	229.30
802.53	229.16
802.85	229.18
803.17	229.42
803.49	229.35
803.81	229.34
804.13	229.30
804.45	229.17
804.77	229.19
805.09	229.15
805.41	229.08
805.73	228.96
806.05	228.91
806.37	228.86
806.69	228.87
807.01	228.77
807.33	228.79
807.65	228.61
807.97	228.84
808.28	228.73
808.60	228.65
808.92	228.56
809.24	228.81
809.56	228.75
809.88	228.58
810.20	228.55
810.52	228.58
810.84	228.51
811.16	228.52
811.48	228.46
811.80	228.57
812.12	228.64
812.43	228.68
812.75	228.69
813.07	228.61
813.39	228.63
813.71	228.60
814.03	228.59
814.35	228.60
814.67	228.36
814.98	228.33
815.30	228.32
815.62	228.28
815.94	227.95
816.26	228.16
816.58	228.05
816.89	228.11
817.21	228.01
817.53	228.05
817.85	227.99
