SpectraSuite Data File
++++++++++++++++++++++++++++++++++++
Date: Wed Sep 04 17:56:24 EDT 2013
User: lab3
Dark Spectrum Present: Yes
Reference Spectrum Present: No
Number of Sampled Component Spectra: 1
Spectrometers: USB2E7196
Integration Time (usec): 170000 (USB2E7196)
Spectra Averaged: 20 (USB2E7196)
Boxcar Smoothing: 10 (USB2E7196)
Correct for Electrical Dark: No (USB2E7196)
Strobe/Lamp Enabled: No (USB2E7196)
Correct for Detector Non-linearity: No (USB2E7196)
Correct for Stray Light: No (USB2E7196)
Number of Pixels in Processed Spectrum: 2048
>>>>>Begin Processed Spectral Data<<<<<
339.09	0.00
339.48	213.80
339.86	215.15
340.24	216.40
340.63	218.00
341.01	227.30
341.39	221.40
341.78	221.90
342.16	223.85
342.54	223.65
342.93	212.72
343.31	223.39
343.69	223.86
344.07	224.27
344.46	224.73
344.84	225.09
345.22	225.04
345.60	225.27
345.99	225.49
346.37	225.59
346.75	225.71
347.13	225.81
347.52	225.92
347.90	226.15
348.28	226.27
348.66	226.34
349.05	226.14
349.43	226.22
349.81	226.30
350.19	226.26
350.57	226.30
350.96	226.39
351.34	226.55
351.72	226.67
352.10	226.85
352.48	226.97
352.87	227.08
353.25	227.10
353.63	227.09
354.01	227.11
354.39	227.21
354.77	227.25
355.15	227.46
355.54	227.44
355.92	227.30
356.30	227.28
356.68	227.66
357.06	227.81
357.44	227.78
357.82	227.82
358.20	228.31
358.58	228.33
358.97	228.37
359.35	228.44
359.73	228.67
360.11	228.65
360.49	228.63
360.87	228.62
361.25	228.74
361.63	228.96
362.01	229.06
362.39	228.98
362.77	229.07
363.15	229.09
363.53	229.12
363.91	229.26
364.29	229.33
364.67	228.82
365.05	228.87
365.43	228.99
365.81	229.09
366.19	229.03
366.57	229.27
366.95	229.29
367.33	229.25
367.71	229.18
368.09	229.39
368.47	229.39
368.85	229.41
369.23	229.50
369.61	229.34
369.99	229.50
370.37	229.65
370.75	229.94
371.13	229.88
371.51	229.80
371.89	229.83
372.27	229.80
372.65	229.86
373.03	229.82
373.41	229.82
373.78	229.79
374.16	229.45
374.54	229.22
374.92	229.13
375.30	229.06
375.68	228.98
376.06	228.88
376.44	228.77
376.82	228.73
377.19	228.62
377.57	228.52
377.95	228.28
378.33	228.20
378.71	227.75
379.09	227.76
379.47	227.75
379.84	227.65
380.22	227.48
380.60	227.39
380.98	227.37
381.36	227.20
381.73	227.02
382.11	227.02
382.49	226.99
382.87	226.94
383.25	226.95
383.62	227.43
384.00	227.32
384.38	227.30
384.76	227.33
385.13	227.50
385.51	227.46
385.89	227.40
386.27	227.35
386.64	227.44
387.02	227.25
387.40	227.23
387.78	227.24
388.15	227.36
388.53	227.24
388.91	227.17
389.29	227.13
389.66	227.23
390.04	227.15
390.42	227.16
390.79	227.12
391.17	227.02
391.55	226.43
391.92	226.35
392.30	226.45
392.68	226.41
393.05	226.34
393.43	226.48
393.81	226.51
394.18	226.39
394.56	226.44
394.94	226.61
395.31	226.60
395.69	226.73
396.06	226.79
396.44	226.94
396.82	226.87
397.19	227.16
397.57	227.06
397.95	227.12
398.32	227.05
398.70	227.24
399.07	227.40
399.45	227.44
399.82	227.48
400.20	227.43
400.58	227.45
400.95	227.29
401.33	227.41
401.70	227.85
402.08	228.09
402.45	228.20
402.83	228.39
403.20	228.56
403.58	228.59
403.95	228.81
404.33	229.05
404.71	229.35
405.08	229.73
405.46	229.96
405.83	230.30
406.21	230.62
406.58	230.83
406.96	231.15
407.33	231.52
407.70	232.02
408.08	232.79
408.45	233.24
408.83	233.82
409.20	234.23
409.58	234.35
409.95	234.85
410.33	235.42
410.70	235.75
411.08	236.32
411.45	236.97
411.82	237.46
412.20	238.16
412.57	239.18
412.95	239.54
413.32	240.45
413.69	241.25
414.07	242.14
414.44	243.09
414.82	244.13
415.19	245.35
415.56	246.45
415.94	247.47
416.31	248.90
416.68	250.27
417.06	251.89
417.43	253.60
417.81	255.38
418.18	257.09
418.55	259.06
418.93	261.07
419.30	263.15
419.67	265.42
420.04	267.73
420.42	269.97
420.79	273.04
421.16	275.85
421.54	278.92
421.91	281.94
422.28	285.06
422.66	288.30
423.03	291.81
423.40	295.12
423.77	298.60
424.15	302.27
424.52	306.05
424.89	310.19
425.26	314.09
425.64	317.88
426.01	322.04
426.38	326.48
426.75	331.08
427.13	335.65
427.50	340.42
427.87	345.38
428.24	350.28
428.61	354.90
428.99	360.24
429.36	365.71
429.73	371.26
430.10	376.68
430.47	382.30
430.85	387.79
431.22	394.10
431.59	400.93
431.96	407.19
432.33	414.10
432.70	420.80
433.08	428.66
433.45	436.17
433.82	443.55
434.19	451.90
434.56	459.98
434.93	467.82
435.30	475.57
435.68	484.26
436.05	492.66
436.42	500.93
436.79	508.64
437.16	517.11
437.53	526.09
437.90	535.00
438.27	543.70
438.64	552.82
439.01	561.05
439.38	568.35
439.75	575.47
440.13	583.56
440.50	591.12
440.87	597.21
441.24	603.59
441.61	610.71
441.98	615.59
442.35	621.46
442.72	627.35
443.09	633.27
443.46	636.61
443.83	638.94
444.20	640.87
444.57	643.56
444.94	644.49
445.31	645.47
445.68	646.78
446.05	646.97
446.42	645.56
446.79	644.08
447.16	642.53
447.53	641.21
447.90	637.53
448.27	633.81
448.64	628.99
449.01	625.15
449.37	618.93
449.74	612.94
450.11	606.02
450.48	598.32
450.85	590.18
451.22	583.19
451.59	576.59
451.96	570.29
452.33	562.19
452.70	554.86
453.07	546.15
453.43	536.98
453.80	528.64
454.17	520.63
454.54	512.97
454.91	504.64
455.28	496.72
455.65	489.27
456.02	482.37
456.38	475.94
456.75	468.26
457.12	461.74
457.49	455.37
457.86	449.00
458.23	443.83
458.59	438.10
458.96	432.40
459.33	427.36
459.70	422.19
460.07	418.06
460.43	413.34
460.80	408.94
461.17	405.28
461.54	401.15
461.91	397.23
462.27	393.35
462.64	390.00
463.01	386.31
463.38	382.98
463.74	379.00
464.11	375.98
464.48	373.30
464.85	370.43
465.21	368.37
465.58	366.08
465.95	363.15
466.32	361.08
466.68	358.83
467.05	356.60
467.42	354.45
467.78	352.06
468.15	349.91
468.52	348.33
468.88	346.02
469.25	344.08
469.62	342.63
469.98	340.98
470.35	339.61
470.72	338.18
471.08	336.47
471.45	335.29
471.82	334.06
472.18	332.56
472.55	331.52
472.92	330.15
473.28	329.00
473.65	327.92
474.02	326.73
474.38	325.88
474.75	325.08
475.11	324.26
475.48	323.56
475.85	322.94
476.21	322.26
476.58	321.86
476.94	321.48
477.31	320.98
477.67	320.62
478.04	320.21
478.41	320.06
478.77	320.42
479.14	320.16
479.50	320.08
479.87	320.15
480.23	320.13
480.60	320.12
480.96	320.05
481.33	320.43
481.69	320.65
482.06	320.85
482.42	321.03
482.79	321.29
483.15	321.85
483.52	322.50
483.88	322.99
484.25	323.45
484.61	324.06
484.98	324.74
485.34	325.61
485.71	326.50
486.07	327.43
486.44	327.90
486.80	328.99
487.17	329.99
487.53	331.34
487.90	332.75
488.26	334.40
488.62	336.25
488.99	337.71
489.35	339.54
489.72	341.38
490.08	343.48
490.44	345.62
490.81	347.84
491.17	350.00
491.54	352.44
491.90	355.03
492.26	357.80
492.63	360.61
492.99	363.42
493.36	366.42
493.72	369.81
494.08	373.34
494.45	376.90
494.81	380.72
495.17	384.65
495.54	388.78
495.90	393.01
496.26	397.44
496.63	402.19
496.99	406.97
497.35	412.01
497.72	417.30
498.08	422.81
498.44	428.39
498.80	434.41
499.17	440.49
499.53	446.73
499.89	453.41
500.26	460.32
500.62	467.40
500.98	474.98
501.34	482.35
501.71	489.95
502.07	497.79
502.43	506.09
502.79	514.52
503.16	523.28
503.52	532.21
503.88	541.40
504.24	551.06
504.60	561.05
504.97	571.46
505.33	581.90
505.69	593.05
506.05	604.12
506.41	615.61
506.78	627.37
507.14	639.40
507.50	651.82
507.86	664.43
508.22	677.45
508.59	690.35
508.95	703.97
509.31	718.22
509.67	732.73
510.03	746.97
510.39	761.74
510.75	777.00
511.12	792.19
511.48	807.65
511.84	823.42
512.20	839.42
512.56	855.73
512.92	872.46
513.28	889.23
513.64	906.63
514.00	924.01
514.37	941.74
514.73	960.00
515.09	978.06
515.45	996.48
515.81	1014.95
516.17	1033.85
516.53	1052.60
516.89	1071.42
517.25	1090.79
517.61	1110.92
517.97	1131.01
518.33	1150.77
518.69	1171.30
519.05	1191.99
519.41	1212.71
519.77	1233.84
520.13	1254.69
520.49	1275.37
520.85	1297.43
521.21	1318.45
521.57	1339.75
521.93	1360.60
522.29	1381.85
522.65	1402.56
523.01	1423.24
523.37	1443.93
523.73	1464.99
524.09	1485.64
524.45	1506.35
524.81	1527.05
525.17	1547.81
525.53	1568.56
525.89	1589.59
526.25	1610.35
526.61	1630.69
526.97	1651.59
527.33	1672.70
527.68	1694.37
528.04	1715.55
528.40	1735.49
528.76	1756.62
529.12	1777.04
529.48	1797.85
529.84	1817.88
530.20	1839.08
530.56	1860.10
530.91	1881.19
531.27	1901.81
531.63	1922.39
531.99	1942.91
532.35	1962.82
532.71	1983.07
533.07	2003.61
533.42	2023.23
533.78	2043.25
534.14	2063.22
534.50	2082.40
534.86	2101.65
535.21	2119.20
535.57	2137.90
535.93	2155.45
536.29	2172.99
536.65	2191.26
537.00	2209.22
537.36	2226.95
537.72	2243.41
538.08	2260.47
538.44	2277.01
538.79	2293.32
539.15	2309.75
539.51	2325.64
539.87	2341.16
540.22	2355.16
540.58	2369.59
540.94	2383.01
541.29	2395.37
541.65	2407.90
542.01	2420.38
542.37	2430.90
542.72	2442.11
543.08	2452.67
543.44	2464.44
543.79	2474.65
544.15	2484.53
544.51	2494.40
544.87	2503.70
545.22	2512.31
545.58	2520.21
545.94	2527.56
546.29	2534.09
546.65	2540.48
547.01	2546.06
547.36	2551.62
547.72	2557.03
548.07	2560.91
548.43	2566.50
548.79	2571.54
549.14	2575.64
549.50	2579.28
549.86	2583.30
550.21	2586.93
550.57	2590.40
550.92	2591.84
551.28	2593.38
551.64	2595.56
551.99	2597.07
552.35	2598.92
552.70	2601.15
553.06	2602.93
553.41	2603.97
553.77	2606.06
554.13	2607.82
554.48	2609.54
554.84	2610.72
555.19	2612.04
555.55	2613.66
555.90	2612.96
556.26	2611.97
556.61	2610.44
556.97	2608.71
557.32	2608.05
557.68	2606.85
558.03	2605.60
558.39	2604.12
558.74	2603.18
559.10	2600.11
559.45	2596.89
559.81	2592.54
560.16	2587.32
560.52	2582.37
560.87	2578.00
561.23	2572.02
561.58	2565.78
561.94	2558.78
562.29	2551.43
562.64	2544.54
563.00	2536.20
563.35	2529.41
563.71	2523.05
564.06	2517.16
564.42	2510.48
564.77	2503.78
565.12	2496.42
565.48	2488.54
565.83	2480.57
566.19	2472.48
566.54	2464.47
566.89	2456.17
567.25	2448.40
567.60	2441.14
567.96	2433.45
568.31	2425.20
568.66	2416.86
569.02	2407.91
569.37	2400.16
569.72	2392.75
570.08	2383.44
570.43	2374.29
570.78	2365.34
571.14	2355.93
571.49	2345.51
571.84	2335.97
572.20	2325.01
572.55	2314.77
572.90	2303.73
573.26	2293.74
573.61	2282.89
573.96	2271.72
574.31	2259.89
574.67	2247.93
575.02	2235.21
575.37	2222.66
575.72	2209.70
576.08	2197.39
576.43	2185.03
576.78	2171.80
577.13	2157.91
577.49	2145.26
577.84	2133.10
578.19	2120.81
578.54	2108.02
578.90	2096.05
579.25	2083.59
579.60	2070.78
579.95	2057.46
580.30	2044.18
580.66	2030.51
581.01	2016.69
581.36	2003.05
581.71	1990.24
582.06	1977.59
582.42	1965.24
582.77	1952.38
583.12	1940.43
583.47	1928.18
583.82	1915.96
584.17	1903.85
584.53	1892.25
584.88	1879.15
585.23	1866.24
585.58	1851.96
585.93	1838.73
586.28	1825.25
586.63	1811.40
586.98	1797.56
587.34	1784.43
587.69	1771.33
588.04	1758.70
588.39	1746.70
588.74	1733.98
589.09	1722.24
589.44	1709.27
589.79	1697.28
590.14	1685.42
590.49	1673.30
590.84	1661.23
591.19	1649.56
591.54	1637.39
591.89	1625.24
592.25	1615.14
592.60	1603.58
592.95	1592.40
593.30	1580.47
593.65	1568.57
594.00	1556.47
594.35	1546.72
594.70	1535.02
595.05	1523.33
595.40	1511.38
595.75	1499.21
596.10	1488.34
596.45	1476.43
596.80	1465.52
597.15	1453.93
597.50	1442.16
597.85	1430.71
598.19	1418.95
598.54	1406.85
598.89	1395.41
599.24	1384.51
599.59	1372.93
599.94	1361.94
600.29	1351.48
600.64	1340.94
600.99	1330.34
601.34	1320.99
601.69	1309.54
602.04	1299.87
602.39	1290.43
602.74	1281.19
603.08	1272.18
603.43	1262.76
603.78	1253.03
604.13	1243.30
604.48	1233.48
604.83	1223.64
605.18	1213.87
605.53	1204.24
605.87	1195.06
606.22	1186.38
606.57	1177.02
606.92	1167.46
607.27	1158.73
607.62	1149.98
607.96	1141.55
608.31	1133.48
608.66	1124.98
609.01	1116.42
609.36	1107.86
609.70	1099.33
610.05	1090.68
610.40	1081.84
610.75	1073.09
611.10	1064.80
611.44	1056.39
611.79	1048.25
612.14	1040.66
612.49	1032.71
612.83	1025.59
613.18	1017.98
613.53	1010.18
613.88	1002.31
614.22	994.63
614.57	986.56
614.92	978.60
615.27	971.06
615.61	963.46
615.96	955.71
616.31	948.07
616.65	940.84
617.00	933.63
617.35	926.43
617.70	919.42
618.04	912.27
618.39	905.55
618.74	899.21
619.08	892.34
619.43	885.06
619.78	878.13
620.12	870.75
620.47	863.93
620.82	856.83
621.16	849.95
621.51	843.65
621.85	837.44
622.20	830.97
622.55	824.20
622.89	817.67
623.24	811.10
623.59	804.86
623.93	798.31
624.28	792.21
624.62	786.40
624.97	780.67
625.32	774.98
625.66	768.75
626.01	762.44
626.35	756.95
626.70	751.48
627.04	746.28
627.39	740.57
627.73	735.21
628.08	730.15
628.43	724.85
628.77	719.30
629.12	713.95
629.46	709.15
629.81	704.58
630.15	699.74
630.50	695.16
630.84	690.27
631.19	685.69
631.53	680.98
631.88	675.83
632.22	670.87
632.57	666.37
632.91	661.91
633.26	657.63
633.60	652.94
633.95	648.45
634.29	643.80
634.64	639.55
634.98	634.68
635.32	630.22
635.67	626.28
636.01	622.11
636.36	617.82
636.70	613.58
637.05	609.16
637.39	605.03
637.73	600.75
638.08	596.72
638.42	592.51
638.77	588.12
639.11	583.80
639.45	579.49
639.80	575.02
640.14	570.82
640.49	566.68
640.83	562.83
641.17	558.98
641.52	555.07
641.86	551.34
642.20	548.27
642.55	544.58
642.89	540.80
643.23	537.31
643.58	534.10
643.92	530.47
644.26	527.15
644.61	523.94
644.95	520.65
645.29	517.35
645.64	514.28
645.98	511.22
646.32	508.40
646.66	505.26
647.01	502.32
647.35	499.57
647.69	496.66
648.04	493.89
648.38	491.04
648.72	488.12
649.06	485.15
649.41	482.01
649.75	479.02
650.09	476.27
650.43	473.24
650.78	470.24
651.12	467.49
651.46	464.70
651.80	461.86
652.14	459.14
652.49	456.60
652.83	453.96
653.17	451.36
653.51	448.52
653.85	446.05
654.20	443.53
654.54	440.86
654.88	438.26
655.22	435.89
655.56	433.46
655.90	431.17
656.25	429.05
656.59	426.82
656.93	424.58
657.27	422.51
657.61	420.19
657.95	417.95
658.29	415.69
658.64	413.55
658.98	411.29
659.32	408.99
659.66	406.81
660.00	404.70
660.34	402.64
660.68	400.65
661.02	398.67
661.36	396.66
661.70	394.69
662.05	392.81
662.39	390.80
662.73	388.96
663.07	387.28
663.41	385.35
663.75	383.39
664.09	381.68
664.43	379.66
664.77	377.96
665.11	376.28
665.45	374.69
665.79	373.05
666.13	371.43
666.47	369.81
666.81	368.11
667.15	366.39
667.49	364.82
667.83	363.47
668.17	361.90
668.51	360.48
668.85	359.15
669.19	358.04
669.53	356.54
669.87	355.11
670.21	353.51
670.55	352.15
670.89	351.04
671.23	349.60
671.57	348.21
671.91	346.83
672.25	345.55
672.58	344.28
672.92	342.85
673.26	341.56
673.60	340.50
673.94	339.48
674.28	338.28
674.62	337.19
674.96	335.85
675.30	334.79
675.64	333.59
675.97	332.36
676.31	330.97
676.65	329.78
676.99	328.79
677.33	327.66
677.67	326.59
678.01	325.35
678.34	324.34
678.68	323.47
679.02	322.45
679.36	321.35
679.70	320.20
680.04	319.30
680.37	318.29
680.71	317.28
681.05	316.36
681.39	315.53
681.73	314.60
682.06	313.81
682.40	312.92
682.74	312.13
683.08	311.47
683.42	310.56
683.75	309.84
684.09	308.92
684.43	308.17
684.77	307.30
685.10	306.50
685.44	305.76
685.78	304.84
686.12	304.06
686.45	303.33
686.79	302.61
687.13	301.95
687.46	301.22
687.80	300.60
688.14	299.70
688.48	298.89
688.81	298.14
689.15	297.39
689.49	296.68
689.82	295.93
690.16	295.04
690.50	294.37
690.83	293.62
691.17	292.78
691.51	292.05
691.84	291.42
692.18	290.62
692.52	289.86
692.85	289.28
693.19	288.89
693.52	288.27
693.86	287.61
694.20	286.90
694.53	286.29
694.87	285.56
695.21	284.89
695.54	284.32
695.88	283.68
696.21	282.94
696.55	282.33
696.88	281.78
697.22	281.18
697.56	280.70
697.89	279.98
698.23	279.52
698.56	278.90
698.90	278.44
699.23	278.01
699.57	277.55
699.90	276.98
700.24	276.24
700.58	275.77
700.91	275.32
701.25	275.19
701.58	275.11
701.92	274.73
702.25	274.29
702.59	273.79
702.92	273.32
703.26	272.96
703.59	272.50
703.93	272.42
704.26	272.03
704.60	271.56
704.93	271.21
705.26	270.71
705.60	270.32
705.93	269.67
706.27	269.33
706.60	269.01
706.94	268.82
707.27	268.41
707.61	267.96
707.94	267.55
708.27	266.78
708.61	266.00
708.94	265.50
709.28	265.19
709.61	264.79
709.94	264.46
710.28	264.08
710.61	263.68
710.95	262.86
711.28	262.78
711.61	262.39
711.95	262.16
712.28	261.75
712.61	261.38
712.95	261.43
713.28	261.33
713.61	260.91
713.95	260.42
714.28	260.16
714.61	259.79
714.95	259.39
715.28	259.06
715.61	258.71
715.95	258.38
716.28	257.95
716.61	257.78
716.95	257.45
717.28	257.12
717.61	256.88
717.94	256.60
718.28	255.96
718.61	255.61
718.94	255.20
719.27	255.00
719.61	254.82
719.94	254.37
720.27	253.82
720.60	253.52
720.94	253.29
721.27	253.10
721.60	252.89
721.93	252.65
722.27	252.57
722.60	252.38
722.93	252.12
723.26	251.96
723.59	251.64
723.93	251.49
724.26	251.33
724.59	251.06
724.92	250.84
725.25	250.82
725.59	250.63
725.92	250.51
726.25	250.33
726.58	250.18
726.91	249.96
727.24	249.77
727.57	249.55
727.91	249.27
728.24	249.09
728.57	248.95
728.90	248.92
729.23	248.60
729.56	248.61
729.89	248.51
730.22	248.28
730.55	248.08
730.89	247.87
731.22	247.66
731.55	247.46
731.88	247.28
732.21	247.02
732.54	246.85
732.87	246.63
733.20	246.47
733.53	246.34
733.86	246.25
734.19	246.05
734.52	245.96
734.85	246.16
735.18	245.87
735.51	245.89
735.84	245.65
736.17	245.53
736.50	245.11
736.83	245.54
737.16	245.46
737.49	245.37
737.82	245.10
738.15	245.09
738.48	244.93
738.81	244.83
739.14	244.55
739.47	244.40
739.80	244.32
740.13	244.26
740.46	244.01
740.79	243.74
741.12	243.64
741.45	243.40
741.78	242.96
742.11	243.00
742.44	242.72
742.77	242.71
743.10	242.63
743.43	242.54
743.75	241.85
744.08	242.33
744.41	242.16
744.74	242.04
745.07	241.72
745.40	241.72
745.73	241.78
746.06	241.80
746.39	241.70
746.71	241.51
747.04	241.23
747.37	241.12
747.70	241.07
748.03	240.95
748.36	241.05
748.68	240.91
749.01	240.64
749.34	240.60
749.67	240.41
750.00	240.36
750.33	240.62
750.65	240.53
750.98	239.77
751.31	239.65
751.64	239.70
751.97	239.85
752.29	239.68
752.62	239.35
752.95	239.16
753.28	239.00
753.60	238.91
753.93	238.99
754.26	239.03
754.59	238.81
754.91	238.67
755.24	238.43
755.57	238.28
755.90	238.17
756.22	237.92
756.55	237.75
756.88	237.48
757.20	237.04
757.53	236.89
757.86	236.74
758.19	236.67
758.51	236.46
758.84	236.13
759.17	235.94
759.49	235.83
759.82	235.91
760.15	235.86
760.47	235.76
760.80	235.53
761.13	235.36
761.45	235.22
761.78	235.15
762.11	235.07
762.43	234.98
762.76	234.95
763.08	234.84
763.41	234.84
763.74	234.83
764.06	234.72
764.39	234.60
764.71	234.53
765.04	234.40
765.37	234.29
765.69	234.21
766.02	234.20
766.34	234.17
766.67	233.92
767.00	233.95
767.32	234.12
767.65	234.35
767.97	234.26
768.30	234.29
768.62	234.17
768.95	234.01
769.27	233.99
769.60	234.01
769.92	233.97
770.25	233.82
770.57	233.63
770.90	233.58
771.22	233.43
771.55	233.32
771.87	233.34
772.20	233.23
772.52	233.59
772.85	234.05
773.17	233.99
773.50	233.91
773.82	233.71
774.15	233.40
774.47	232.98
774.80	232.85
775.12	232.73
775.45	232.64
775.77	232.68
776.09	232.65
776.42	232.55
776.74	232.61
777.07	232.54
777.39	232.51
777.72	232.43
778.04	232.46
778.36	232.47
778.69	232.37
779.01	232.42
779.33	231.96
779.66	231.48
779.98	231.45
780.31	231.45
780.63	231.66
780.95	231.76
781.28	231.74
781.60	231.65
781.92	231.68
782.25	231.72
782.57	231.66
782.89	231.60
783.22	231.51
783.54	231.40
783.86	231.42
784.19	231.36
784.51	231.44
784.83	231.37
785.16	231.25
785.48	231.25
785.80	231.21
786.12	231.20
786.45	231.07
786.77	231.01
787.09	231.01
787.42	230.81
787.74	230.70
788.06	230.70
788.38	230.78
788.71	230.67
789.03	230.64
789.35	230.71
789.67	230.56
789.99	230.54
790.32	230.42
790.64	230.46
790.96	230.84
791.28	230.70
791.61	230.62
791.93	230.66
792.25	230.53
792.57	230.83
792.89	230.75
793.21	230.75
793.54	230.70
793.86	230.58
794.18	230.55
794.50	230.44
794.82	230.38
795.14	230.39
795.47	230.48
795.79	230.46
796.11	230.28
796.43	230.26
796.75	230.29
797.07	230.34
797.39	230.28
797.71	229.88
798.04	229.88
798.36	229.91
798.68	229.90
799.00	229.95
799.32	229.63
799.64	229.75
799.96	229.75
800.28	229.82
800.60	229.79
800.92	229.77
801.24	229.78
801.56	229.88
801.89	229.74
802.21	229.75
802.53	229.61
802.85	229.70
803.17	229.95
803.49	229.76
803.81	229.74
804.13	229.72
804.45	229.68
804.77	229.70
805.09	229.60
805.41	229.52
805.73	229.34
806.05	229.25
806.37	229.21
806.69	229.16
807.01	229.09
807.33	229.07
807.65	228.99
807.97	229.17
808.28	229.07
808.60	229.08
808.92	228.92
809.24	229.21
809.56	229.11
809.88	228.89
810.20	228.93
810.52	228.99
810.84	228.85
811.16	228.75
811.48	228.65
811.80	228.90
812.12	228.86
812.43	229.09
812.75	229.12
813.07	229.00
813.39	229.00
813.71	228.99
814.03	228.98
814.35	228.87
814.67	228.72
814.98	228.66
815.30	228.64
815.62	228.61
815.94	228.33
816.26	228.48
816.58	228.39
816.89	228.49
817.21	228.37
817.53	228.43
817.85	228.54
