SpectraSuite Data File
++++++++++++++++++++++++++++++++++++
Date: Wed Sep 04 17:55:14 EDT 2013
User: lab3
Dark Spectrum Present: Yes
Reference Spectrum Present: No
Number of Sampled Component Spectra: 1
Spectrometers: USB2E7196
Integration Time (usec): 170000 (USB2E7196)
Spectra Averaged: 20 (USB2E7196)
Boxcar Smoothing: 10 (USB2E7196)
Correct for Electrical Dark: No (USB2E7196)
Strobe/Lamp Enabled: No (USB2E7196)
Correct for Detector Non-linearity: No (USB2E7196)
Correct for Stray Light: No (USB2E7196)
Number of Pixels in Processed Spectrum: 2048
>>>>>Begin Processed Spectral Data<<<<<
339.09	0.00
339.48	213.90
339.86	214.00
340.24	214.35
340.63	217.65
341.01	226.45
341.39	220.65
341.78	222.00
342.16	224.45
342.54	223.00
342.93	212.40
343.31	223.11
343.69	223.61
344.07	224.08
344.46	224.65
344.84	225.04
345.22	224.99
345.60	225.24
345.99	225.47
346.37	225.60
346.75	225.72
347.13	225.82
347.52	225.91
347.90	226.17
348.28	226.22
348.66	226.33
349.05	226.20
349.43	226.33
349.81	226.40
350.19	226.38
350.57	226.50
350.96	226.52
351.34	226.67
351.72	226.81
352.10	226.96
352.48	227.02
352.87	227.11
353.25	227.14
353.63	227.14
354.01	227.12
354.39	227.11
354.77	227.15
355.15	227.31
355.54	227.33
355.92	227.19
356.30	227.29
356.68	227.71
357.06	227.78
357.44	227.74
357.82	227.83
358.20	228.30
358.58	228.40
358.97	228.49
359.35	228.60
359.73	228.70
360.11	228.68
360.49	228.65
360.87	228.67
361.25	228.86
361.63	229.11
362.01	229.23
362.39	229.27
362.77	229.42
363.15	229.42
363.53	229.42
363.91	229.44
364.29	229.49
364.67	229.01
365.05	229.05
365.43	229.12
365.81	229.16
366.19	229.01
366.57	229.13
366.95	229.15
367.33	229.07
367.71	229.03
368.09	229.26
368.47	229.37
368.85	229.33
369.23	229.37
369.61	229.18
369.99	229.30
370.37	229.33
370.75	229.54
371.13	229.50
371.51	229.45
371.89	229.56
372.27	229.53
372.65	229.50
373.03	229.52
373.41	229.50
373.78	229.43
374.16	229.20
374.54	228.98
374.92	228.92
375.30	228.88
375.68	228.77
376.06	228.65
376.44	228.51
376.82	228.48
377.19	228.39
377.57	228.32
377.95	228.12
378.33	228.09
378.71	227.76
379.09	227.74
379.47	227.77
379.84	227.65
380.22	227.60
380.60	227.55
380.98	227.42
381.36	227.29
381.73	227.19
382.11	227.24
382.49	227.26
382.87	227.14
383.25	227.12
383.62	227.61
384.00	227.46
384.38	227.39
384.76	227.48
385.13	227.60
385.51	227.64
385.89	227.52
386.27	227.39
386.64	227.39
387.02	227.29
387.40	227.16
387.78	227.10
388.15	227.08
388.53	227.02
388.91	226.99
389.29	226.96
389.66	227.00
390.04	226.88
390.42	226.94
390.79	226.99
391.17	226.92
391.55	226.32
391.92	226.35
392.30	226.51
392.68	226.36
393.05	226.31
393.43	226.30
393.81	226.31
394.18	226.31
394.56	226.30
394.94	226.43
395.31	226.45
395.69	226.63
396.06	226.59
396.44	226.62
396.82	226.59
397.19	226.91
397.57	226.87
397.95	227.00
398.32	226.92
398.70	227.00
399.07	227.17
399.45	227.28
399.82	227.28
400.20	227.26
400.58	227.39
400.95	227.30
401.33	227.44
401.70	227.88
402.08	228.00
402.45	228.10
402.83	228.35
403.20	228.47
403.58	228.55
403.95	228.90
404.33	229.18
404.71	229.49
405.08	229.95
405.46	230.25
405.83	230.41
406.21	230.67
406.58	230.91
406.96	231.11
407.33	231.48
407.70	231.90
408.08	232.59
408.45	233.06
408.83	233.57
409.20	233.98
409.58	234.16
409.95	234.79
410.33	235.39
410.70	235.75
411.08	236.42
411.45	237.00
411.82	237.50
412.20	238.20
412.57	239.15
412.95	239.44
413.32	240.23
413.69	241.13
414.07	242.05
414.44	243.05
414.82	244.20
415.19	245.40
415.56	246.55
415.94	247.60
416.31	248.94
416.68	250.32
417.06	251.93
417.43	253.57
417.81	255.32
418.18	257.11
418.55	259.08
418.93	261.10
419.30	263.29
419.67	265.48
420.04	267.81
420.42	270.12
420.79	273.12
421.16	275.91
421.54	278.96
421.91	281.90
422.28	284.91
422.66	288.18
423.03	291.62
423.40	295.06
423.77	298.63
424.15	302.25
424.52	306.07
424.89	310.29
425.26	314.27
425.64	317.99
426.01	322.08
426.38	326.42
426.75	331.00
427.13	335.48
427.50	340.26
427.87	345.08
428.24	349.96
428.61	354.52
428.99	359.92
429.36	365.34
429.73	370.94
430.10	376.57
430.47	382.21
430.85	387.87
431.22	394.05
431.59	400.80
431.96	407.11
432.33	413.98
432.70	420.51
433.08	428.34
433.45	435.76
433.82	443.27
434.19	451.43
434.56	459.44
434.93	467.18
435.30	475.01
435.68	483.71
436.05	492.17
436.42	500.55
436.79	508.16
437.16	516.66
437.53	525.44
437.90	534.04
438.27	542.61
438.64	551.45
439.01	559.72
439.38	566.96
439.75	574.24
440.13	582.26
440.50	589.78
440.87	595.86
441.24	602.27
441.61	609.25
441.98	614.45
442.35	620.26
442.72	626.17
443.09	632.07
443.46	635.44
443.83	637.76
444.20	639.61
444.57	642.35
444.94	643.37
445.31	644.55
445.68	645.95
446.05	646.26
446.42	644.99
446.79	643.67
447.16	642.07
447.53	640.54
447.90	636.77
448.27	633.20
448.64	628.30
449.01	624.61
449.37	618.27
449.74	612.13
450.11	605.36
450.48	597.66
450.85	589.44
451.22	582.63
451.59	576.07
451.96	569.78
452.33	561.64
452.70	554.31
453.07	545.55
453.43	536.37
453.80	527.87
454.17	519.94
454.54	512.04
454.91	503.68
455.28	495.80
455.65	488.41
456.02	481.68
456.38	475.26
456.75	467.54
457.12	461.18
457.49	454.97
457.86	448.61
458.23	443.48
458.59	437.80
458.96	431.96
459.33	426.85
459.70	421.89
460.07	417.71
460.43	412.87
460.80	408.54
461.17	404.87
461.54	400.78
461.91	396.84
462.27	393.05
462.64	389.95
463.01	386.34
463.38	383.07
463.74	378.90
464.11	375.93
464.48	373.25
464.85	370.28
465.21	368.05
465.58	365.63
465.95	362.80
466.32	360.67
466.68	358.37
467.05	356.11
467.42	353.81
467.78	351.59
468.15	349.51
468.52	348.00
468.88	345.86
469.25	343.97
469.62	342.59
469.98	340.97
470.35	339.45
470.72	338.04
471.08	336.34
471.45	335.16
471.82	333.98
472.18	332.54
472.55	331.65
472.92	330.38
473.28	329.31
473.65	328.27
474.02	327.20
474.38	326.53
474.75	325.81
475.11	325.03
475.48	324.38
475.85	323.79
476.21	323.10
476.58	322.53
476.94	322.15
477.31	321.64
477.67	321.30
478.04	320.88
478.41	320.70
478.77	321.07
479.14	320.69
479.50	320.57
479.87	320.60
480.23	320.65
480.60	320.62
480.96	320.58
481.33	320.98
481.69	321.16
482.06	321.30
482.42	321.53
482.79	321.90
483.15	322.33
483.52	322.89
483.88	323.40
484.25	324.06
484.61	324.77
484.98	325.46
485.34	326.39
485.71	327.39
486.07	328.34
486.44	328.89
486.80	330.12
487.17	331.30
487.53	332.69
487.90	333.99
488.26	335.70
488.62	337.43
488.99	338.90
489.35	340.71
489.72	342.51
490.08	344.52
490.44	346.46
490.81	348.66
491.17	350.90
491.54	353.46
491.90	356.05
492.26	358.68
492.63	361.55
492.99	364.40
493.36	367.48
493.72	370.70
494.08	374.12
494.45	377.85
494.81	381.69
495.17	385.49
495.54	389.69
495.90	393.79
496.26	398.32
496.63	402.95
496.99	407.69
497.35	412.79
497.72	417.97
498.08	423.35
498.44	428.99
498.80	435.03
499.17	441.10
499.53	447.39
499.89	454.04
500.26	460.78
500.62	467.65
500.98	475.08
501.34	482.59
501.71	490.36
502.07	498.17
502.43	506.35
502.79	514.83
503.16	523.42
503.52	532.62
503.88	541.77
504.24	551.54
504.60	561.56
504.97	571.72
505.33	582.16
505.69	593.30
506.05	604.43
506.41	615.55
506.78	627.04
507.14	638.95
507.50	651.13
507.86	663.69
508.22	676.84
508.59	689.82
508.95	703.43
509.31	717.61
509.67	731.66
510.03	745.95
510.39	760.64
510.75	775.66
511.12	790.70
511.48	806.35
511.84	821.82
512.20	837.74
512.56	854.02
512.92	870.70
513.28	887.34
513.64	904.54
514.00	922.08
514.37	939.94
514.73	958.06
515.09	976.55
515.45	995.11
515.81	1013.34
516.17	1031.86
516.53	1050.37
516.89	1068.85
517.25	1088.42
517.61	1108.53
517.97	1128.75
518.33	1148.93
518.69	1169.44
519.05	1189.85
519.41	1210.75
519.77	1231.94
520.13	1252.67
520.49	1273.50
520.85	1295.90
521.21	1316.94
521.57	1338.35
521.93	1358.94
522.29	1380.03
522.65	1400.50
523.01	1421.21
523.37	1441.79
523.73	1463.14
524.09	1483.82
524.45	1504.51
524.81	1525.25
525.17	1545.77
525.53	1566.21
525.89	1586.98
526.25	1607.61
526.61	1627.86
526.97	1648.62
527.33	1669.66
527.68	1691.77
528.04	1712.89
528.40	1732.53
528.76	1753.62
529.12	1774.03
529.48	1795.10
529.84	1815.24
530.20	1836.20
530.56	1857.10
530.91	1878.05
531.27	1898.05
531.63	1918.78
531.99	1939.64
532.35	1959.80
532.71	1980.20
533.07	2001.07
533.42	2020.97
533.78	2040.56
534.14	2060.62
534.50	2079.68
534.86	2098.95
535.21	2116.39
535.57	2134.65
535.93	2152.36
536.29	2170.18
536.65	2188.23
537.00	2205.49
537.36	2222.89
537.72	2239.17
538.08	2256.25
538.44	2273.19
538.79	2290.10
539.15	2306.69
539.51	2322.52
539.87	2337.64
540.22	2351.42
540.58	2365.66
540.94	2378.99
541.29	2391.96
541.65	2404.54
542.01	2417.52
542.37	2427.80
542.72	2438.49
543.08	2449.39
543.44	2460.88
543.79	2470.64
544.15	2480.47
544.51	2490.60
544.87	2500.05
545.22	2509.14
545.58	2516.74
545.94	2523.56
546.29	2529.76
546.65	2535.69
547.01	2541.50
547.36	2546.81
547.72	2552.38
548.07	2556.25
548.43	2561.70
548.79	2566.22
549.14	2570.39
549.50	2574.03
549.86	2578.27
550.21	2582.37
550.57	2585.83
550.92	2587.40
551.28	2588.86
551.64	2590.99
551.99	2592.99
552.35	2594.88
552.70	2596.80
553.06	2598.54
553.41	2600.00
553.77	2601.67
554.13	2603.14
554.48	2604.64
554.84	2606.20
555.19	2607.44
555.55	2608.96
555.90	2608.10
556.26	2607.27
556.61	2605.51
556.97	2603.01
557.32	2602.08
557.68	2600.30
558.03	2598.41
558.39	2597.05
558.74	2596.21
559.10	2592.97
559.45	2589.24
559.81	2584.91
560.16	2579.58
560.52	2574.40
560.87	2569.68
561.23	2564.46
561.58	2558.88
561.94	2551.85
562.29	2544.29
562.64	2537.19
563.00	2528.88
563.35	2522.03
563.71	2515.75
564.06	2509.79
564.42	2503.54
564.77	2496.90
565.12	2489.75
565.48	2482.42
565.83	2474.63
566.19	2466.45
566.54	2458.83
566.89	2450.88
567.25	2442.82
567.60	2435.97
567.96	2428.69
568.31	2421.17
568.66	2412.43
569.02	2403.40
569.37	2395.11
569.72	2387.76
570.08	2378.69
570.43	2369.21
570.78	2360.43
571.14	2350.52
571.49	2340.25
571.84	2330.55
572.20	2319.50
572.55	2309.48
572.90	2298.47
573.26	2287.81
573.61	2276.91
573.96	2265.59
574.31	2253.42
574.67	2241.98
575.02	2229.31
575.37	2216.48
575.72	2202.98
576.08	2191.03
576.43	2178.35
576.78	2165.27
577.13	2151.64
577.49	2138.67
577.84	2127.14
578.19	2114.84
578.54	2102.59
578.90	2090.52
579.25	2078.22
579.60	2065.83
579.95	2052.92
580.30	2039.75
580.66	2026.37
581.01	2012.71
581.36	1998.84
581.71	1986.58
582.06	1973.51
582.42	1961.19
582.77	1948.66
583.12	1936.85
583.47	1924.59
583.82	1912.81
584.17	1900.86
584.53	1889.09
584.88	1876.34
585.23	1863.07
585.58	1848.98
585.93	1835.65
586.28	1822.48
586.63	1808.77
586.98	1794.42
587.34	1781.02
587.69	1767.91
588.04	1755.70
588.39	1743.95
588.74	1731.86
589.09	1719.45
589.44	1706.66
589.79	1694.30
590.14	1682.35
590.49	1670.10
590.84	1658.00
591.19	1645.77
591.54	1633.60
591.89	1621.19
592.25	1611.06
592.60	1599.51
592.95	1587.98
593.30	1576.00
593.65	1563.84
594.00	1551.56
594.35	1541.88
594.70	1530.09
595.05	1518.72
595.40	1506.57
595.75	1494.41
596.10	1482.99
596.45	1471.56
596.80	1460.83
597.15	1449.32
597.50	1437.73
597.85	1426.65
598.19	1414.79
598.54	1403.22
598.89	1391.94
599.24	1381.42
599.59	1369.78
599.94	1359.12
600.29	1348.83
600.64	1338.73
600.99	1328.18
601.34	1319.07
601.69	1307.94
602.04	1298.05
602.39	1288.41
602.74	1279.16
603.08	1269.90
603.43	1260.84
603.78	1251.12
604.13	1241.51
604.48	1231.97
604.83	1222.11
605.18	1212.13
605.53	1202.71
605.87	1193.49
606.22	1184.90
606.57	1175.45
606.92	1165.95
607.27	1156.87
607.62	1148.36
607.96	1139.82
608.31	1131.76
608.66	1123.04
609.01	1114.45
609.36	1106.22
609.70	1097.52
610.05	1088.93
610.40	1080.23
610.75	1071.33
611.10	1063.00
611.44	1054.25
611.79	1046.00
612.14	1038.30
612.49	1030.51
612.83	1023.00
613.18	1015.25
613.53	1007.27
613.88	999.61
614.22	991.90
614.57	984.00
614.92	975.94
615.27	968.12
615.61	960.60
615.96	952.98
616.31	945.50
616.65	938.32
617.00	931.04
617.35	923.69
617.70	916.56
618.04	909.67
618.39	902.87
618.74	896.68
619.08	889.94
619.43	882.79
619.78	875.72
620.12	868.68
620.47	861.79
620.82	854.89
621.16	848.06
621.51	841.83
621.85	835.49
622.20	828.90
622.55	822.31
622.89	815.79
623.24	809.44
623.59	803.05
623.93	796.53
624.28	790.46
624.62	784.85
624.97	779.05
625.32	773.19
625.66	767.07
626.01	760.74
626.35	755.23
626.70	749.72
627.04	744.38
627.39	738.97
627.73	733.74
628.08	728.60
628.43	723.03
628.77	717.50
629.12	712.28
629.46	707.51
629.81	702.76
630.15	697.86
630.50	693.02
630.84	688.17
631.19	683.51
631.53	679.01
631.88	673.78
632.22	669.06
632.57	664.55
632.91	660.10
633.26	655.88
633.60	651.06
633.95	646.36
634.29	641.75
634.64	637.20
634.98	632.28
635.32	627.84
635.67	624.14
636.01	620.05
636.36	615.69
636.70	611.55
637.05	607.36
637.39	603.33
637.73	599.05
638.08	595.18
638.42	591.01
638.77	586.56
639.11	582.30
639.45	577.95
639.80	573.50
640.14	569.22
640.49	565.20
640.83	561.46
641.17	557.95
641.52	554.08
641.86	550.54
642.20	547.55
642.55	544.00
642.89	540.21
643.23	536.65
643.58	533.72
643.92	530.01
644.26	526.76
644.61	523.59
644.95	520.27
645.29	516.86
645.64	513.76
645.98	510.79
646.32	507.91
646.66	504.82
647.01	502.00
647.35	499.39
647.69	496.60
648.04	493.89
648.38	491.05
648.72	488.28
649.06	485.22
649.41	482.06
649.75	478.92
650.09	476.00
650.43	473.17
650.78	470.10
651.12	467.37
651.46	464.38
651.80	461.51
652.14	458.88
652.49	456.39
652.83	453.67
653.17	451.05
653.51	448.32
653.85	445.96
654.20	443.50
654.54	440.76
654.88	438.05
655.22	435.65
655.56	433.15
655.90	430.81
656.25	428.56
656.59	426.35
656.93	424.19
657.27	422.09
657.61	419.69
657.95	417.51
658.29	415.35
658.64	413.31
658.98	410.99
659.32	408.66
659.66	406.43
660.00	404.40
660.34	402.20
660.68	400.16
661.02	398.02
661.36	396.03
661.70	394.08
662.05	392.14
662.39	390.06
662.73	388.20
663.07	386.47
663.41	384.52
663.75	382.66
664.09	380.78
664.43	378.89
664.77	377.29
665.11	375.45
665.45	373.75
665.79	372.17
666.13	370.38
666.47	368.83
666.81	367.17
667.15	365.50
667.49	364.12
667.83	362.78
668.17	361.43
668.51	359.92
668.85	358.58
669.19	357.46
669.53	355.92
669.87	354.49
670.21	353.01
670.55	351.70
670.89	350.60
671.23	349.40
671.57	348.03
671.91	346.64
672.25	345.32
672.58	344.20
672.92	342.69
673.26	341.64
673.60	340.37
673.94	339.25
674.28	338.09
674.62	336.80
674.96	335.57
675.30	334.38
675.64	333.24
675.97	331.95
676.31	330.68
676.65	329.53
676.99	328.54
677.33	327.41
677.67	326.32
678.01	324.90
678.34	323.74
678.68	322.75
679.02	321.61
679.36	320.69
679.70	319.52
680.04	318.60
680.37	317.55
680.71	316.65
681.05	315.69
681.39	314.73
681.73	313.85
682.06	312.88
682.40	311.99
682.74	311.18
683.08	310.55
683.42	309.59
683.75	308.91
684.09	307.96
684.43	307.11
684.77	306.28
685.10	305.58
685.44	304.80
685.78	303.98
686.12	303.28
686.45	302.44
686.79	301.60
687.13	300.97
687.46	300.30
687.80	299.61
688.14	298.79
688.48	298.05
688.81	297.27
689.15	296.69
689.49	295.96
689.82	295.27
690.16	294.33
690.50	293.63
690.83	292.83
691.17	292.02
691.51	291.30
691.84	290.73
692.18	290.04
692.52	289.32
692.85	288.73
693.19	288.21
693.52	287.61
693.86	287.05
694.20	286.31
694.53	285.71
694.87	285.08
695.21	284.45
695.54	283.85
695.88	283.26
696.21	282.47
696.55	281.85
696.88	281.12
697.22	280.48
697.56	279.96
697.89	279.40
698.23	279.05
698.56	278.54
698.90	278.02
699.23	277.45
699.57	277.05
699.90	276.41
700.24	275.77
700.58	275.25
700.91	274.81
701.25	274.78
701.58	274.66
701.92	274.22
702.25	273.73
702.59	273.25
702.92	272.86
703.26	272.53
703.59	272.13
703.93	272.15
704.26	271.88
704.60	271.49
704.93	271.03
705.26	270.50
705.60	270.19
705.93	269.60
706.27	269.40
706.60	269.11
706.94	268.96
707.27	268.57
707.61	268.26
707.94	267.92
708.27	267.07
708.61	266.25
708.94	265.91
709.28	265.56
709.61	265.20
709.94	264.83
710.28	264.44
710.61	264.03
710.95	263.21
711.28	263.07
711.61	262.64
711.95	262.49
712.28	262.05
712.61	261.68
712.95	261.62
713.28	261.41
713.61	260.97
713.95	260.50
714.28	260.17
714.61	259.73
714.95	259.30
715.28	258.90
715.61	258.55
715.95	258.21
716.28	257.80
716.61	257.54
716.95	257.20
717.28	256.79
717.61	256.53
717.94	256.31
718.28	255.74
718.61	255.41
718.94	254.98
719.27	254.81
719.61	254.46
719.94	254.16
720.27	253.65
720.60	253.33
720.94	253.11
721.27	252.94
721.60	252.76
721.93	252.54
722.27	252.56
722.60	252.49
722.93	252.22
723.26	252.18
723.59	251.91
723.93	251.78
724.26	251.60
724.59	251.40
724.92	251.23
725.25	251.23
725.59	251.14
725.92	251.00
726.25	250.75
726.58	250.63
726.91	250.30
727.24	250.20
727.57	250.02
727.91	249.74
728.24	249.60
728.57	249.41
728.90	249.29
729.23	248.89
729.56	248.90
729.89	248.76
730.22	248.48
730.55	248.29
730.89	248.14
731.22	247.98
731.55	247.75
731.88	247.54
732.21	247.25
732.54	247.00
732.87	246.88
733.20	246.77
733.53	246.60
733.86	246.46
734.19	246.16
734.52	246.07
734.85	246.20
735.18	245.96
735.51	245.93
735.84	245.81
736.17	245.86
736.50	245.43
736.83	245.81
737.16	245.73
737.49	245.62
737.82	245.37
738.15	245.25
738.48	245.10
738.81	244.92
739.14	244.66
739.47	244.43
739.80	244.20
740.13	244.00
740.46	243.74
740.79	243.53
741.12	243.48
741.45	243.25
741.78	242.84
742.11	242.78
742.44	242.46
742.77	242.29
743.10	242.04
743.43	241.88
743.75	241.17
744.08	241.61
744.41	241.51
744.74	241.45
745.07	241.27
745.40	241.18
745.73	241.28
746.06	241.15
746.39	241.11
746.71	240.87
747.04	240.73
747.37	240.67
747.70	240.61
748.03	240.45
748.36	240.38
748.68	240.27
749.01	240.02
749.34	239.94
749.67	239.87
750.00	239.82
750.33	240.08
750.65	240.06
750.98	239.32
751.31	239.13
751.64	238.92
751.97	239.01
752.29	238.88
752.62	238.56
752.95	238.44
753.28	238.34
753.60	238.24
753.93	238.30
754.26	238.27
754.59	238.10
754.91	237.93
755.24	237.80
755.57	237.71
755.90	237.69
756.22	237.56
756.55	237.42
756.88	237.23
757.20	236.79
757.53	236.51
757.86	236.36
758.19	236.32
758.51	236.24
758.84	235.96
759.17	235.85
759.49	235.77
759.82	235.87
760.15	235.80
760.47	235.71
760.80	235.45
761.13	235.38
761.45	235.22
761.78	235.16
762.11	235.12
762.43	235.00
762.76	234.88
763.08	234.83
763.41	234.74
763.74	234.69
764.06	234.62
764.39	234.61
764.71	234.61
765.04	234.48
765.37	234.39
765.69	234.30
766.02	234.23
766.34	234.16
766.67	234.00
767.00	233.97
767.32	234.23
767.65	234.47
767.97	234.35
768.30	234.33
768.62	234.24
768.95	234.12
769.27	233.97
769.60	233.91
769.92	233.85
770.25	233.68
770.57	233.53
770.90	233.46
771.22	233.36
771.55	233.32
771.87	233.32
772.20	233.19
772.52	233.55
772.85	234.09
773.17	234.04
773.50	233.92
773.82	233.82
774.15	233.54
774.47	233.21
774.80	233.16
775.12	233.14
775.45	233.07
775.77	233.08
776.09	233.11
776.42	233.15
776.74	233.15
777.07	233.12
777.39	233.10
777.72	232.97
778.04	232.92
778.36	232.83
778.69	232.81
779.01	232.94
779.33	232.49
779.66	231.91
779.98	231.83
780.31	231.81
780.63	231.99
780.95	231.99
781.28	231.96
781.60	231.78
781.92	231.75
782.25	231.71
782.57	231.66
782.89	231.60
783.22	231.47
783.54	231.39
783.86	231.44
784.19	231.44
784.51	231.62
784.83	231.61
785.16	231.52
785.48	231.37
785.80	231.24
786.12	231.23
786.45	231.18
786.77	231.20
787.09	231.18
787.42	230.93
787.74	230.90
788.06	230.85
788.38	230.84
788.71	230.76
789.03	230.77
789.35	230.76
789.67	230.62
789.99	230.70
790.32	230.59
790.64	230.52
790.96	230.85
791.28	230.61
791.61	230.51
791.93	230.59
792.25	230.62
792.57	230.93
792.89	230.77
793.21	230.78
793.54	230.77
793.86	230.72
794.18	230.73
794.50	230.58
794.82	230.50
795.14	230.56
795.47	230.56
795.79	230.59
796.11	230.45
796.43	230.40
796.75	230.29
797.07	230.28
797.39	230.20
797.71	229.80
798.04	229.86
798.36	229.88
798.68	229.76
799.00	229.77
799.32	229.50
799.64	229.61
799.96	229.56
800.28	229.54
800.60	229.43
800.92	229.50
801.24	229.57
801.56	229.61
801.89	229.52
802.21	229.60
802.53	229.47
802.85	229.56
803.17	229.91
803.49	229.79
803.81	229.75
804.13	229.74
804.45	229.68
804.77	229.67
805.09	229.66
805.41	229.65
805.73	229.56
806.05	229.43
806.37	229.42
806.69	229.38
807.01	229.42
807.33	229.48
807.65	229.22
807.97	229.39
808.28	229.37
808.60	229.40
808.92	229.34
809.24	229.55
809.56	229.51
809.88	229.23
810.20	229.22
810.52	229.30
810.84	229.19
811.16	229.19
811.48	229.20
811.80	229.39
812.12	229.34
812.43	229.33
812.75	229.36
813.07	229.30
813.39	229.29
813.71	229.11
814.03	229.05
814.35	229.08
814.67	228.82
814.98	228.74
815.30	228.75
815.62	228.61
815.94	228.32
816.26	228.52
816.58	228.45
816.89	228.49
817.21	228.42
817.53	228.50
817.85	228.50
