SpectraSuite Data File
++++++++++++++++++++++++++++++++++++
Date: Wed Sep 04 17:39:38 EDT 2013
User: lab3
Dark Spectrum Present: Yes
Reference Spectrum Present: No
Number of Sampled Component Spectra: 1
Spectrometers: USB2E7196
Integration Time (usec): 170000 (USB2E7196)
Spectra Averaged: 20 (USB2E7196)
Boxcar Smoothing: 10 (USB2E7196)
Correct for Electrical Dark: No (USB2E7196)
Strobe/Lamp Enabled: No (USB2E7196)
Correct for Detector Non-linearity: No (USB2E7196)
Correct for Stray Light: No (USB2E7196)
Number of Pixels in Processed Spectrum: 2048
>>>>>Begin Processed Spectral Data<<<<<
339.09	0.00
339.48	212.85
339.86	214.55
340.24	215.00
340.63	217.65
341.01	224.55
341.39	218.50
341.78	221.25
342.16	225.30
342.54	222.60
342.93	212.05
343.31	222.76
343.69	223.31
344.07	223.76
344.46	224.27
344.84	224.69
345.22	224.68
345.60	225.02
345.99	225.24
346.37	225.23
346.75	225.37
347.13	225.47
347.52	225.58
347.90	225.74
348.28	225.75
348.66	225.87
349.05	225.73
349.43	225.75
349.81	225.75
350.19	225.80
350.57	225.90
350.96	226.00
351.34	226.05
351.72	226.11
352.10	226.21
352.48	226.21
352.87	226.20
353.25	226.29
353.63	226.28
354.01	226.34
354.39	226.49
354.77	226.52
355.15	226.63
355.54	226.61
355.92	226.46
356.30	226.56
356.68	226.95
357.06	226.96
357.44	226.92
357.82	226.94
358.20	227.36
358.58	227.38
358.97	227.42
359.35	227.56
359.73	227.75
360.11	227.80
360.49	227.92
360.87	227.97
361.25	228.08
361.63	228.32
362.01	228.36
362.39	228.32
362.77	228.38
363.15	228.42
363.53	228.44
363.91	228.57
364.29	228.59
364.67	228.22
365.05	228.24
365.43	228.31
365.81	228.40
366.19	228.33
366.57	228.59
366.95	228.55
367.33	228.55
367.71	228.51
368.09	228.63
368.47	228.66
368.85	228.63
369.23	228.67
369.61	228.55
369.99	228.68
370.37	228.70
370.75	228.94
371.13	228.87
371.51	228.82
371.89	228.82
372.27	228.84
372.65	228.79
373.03	228.81
373.41	228.75
373.78	228.69
374.16	228.37
374.54	228.10
374.92	228.09
375.30	228.02
375.68	227.85
376.06	227.78
376.44	227.60
376.82	227.68
377.19	227.61
377.57	227.46
377.95	227.23
378.33	227.24
378.71	226.95
379.09	226.88
379.47	226.85
379.84	226.71
380.22	226.59
380.60	226.45
380.98	226.39
381.36	226.34
381.73	226.14
382.11	226.19
382.49	226.10
382.87	225.91
383.25	225.82
383.62	226.36
384.00	226.15
384.38	226.14
384.76	226.11
385.13	226.24
385.51	226.21
385.89	226.06
386.27	225.99
386.64	225.93
387.02	225.84
387.40	225.79
387.78	225.82
388.15	225.78
388.53	225.75
388.91	225.62
389.29	225.57
389.66	225.71
390.04	225.59
390.42	225.74
390.79	225.79
391.17	225.76
391.55	225.11
391.92	225.10
392.30	225.12
392.68	225.01
393.05	224.91
393.43	224.97
393.81	225.10
394.18	225.01
394.56	225.02
394.94	225.19
395.31	225.20
395.69	225.36
396.06	225.46
396.44	225.53
396.82	225.56
397.19	225.85
397.57	225.82
397.95	225.97
398.32	225.89
398.70	225.93
399.07	226.13
399.45	226.26
399.82	226.38
400.20	226.48
400.58	226.48
400.95	226.33
401.33	226.52
401.70	226.88
402.08	226.95
402.45	227.11
402.83	227.30
403.20	227.50
403.58	227.55
403.95	227.80
404.33	228.06
404.71	228.31
405.08	228.73
405.46	228.93
405.83	229.20
406.21	229.38
406.58	229.72
406.96	229.89
407.33	230.23
407.70	230.59
408.08	231.26
408.45	231.69
408.83	232.23
409.20	232.40
409.58	232.58
409.95	233.14
410.33	233.65
410.70	233.94
411.08	234.42
411.45	234.92
411.82	235.31
412.20	235.94
412.57	236.80
412.95	237.01
413.32	237.77
413.69	238.37
414.07	239.17
414.44	239.99
414.82	240.88
415.19	241.95
415.56	242.90
415.94	243.62
416.31	244.80
416.68	245.94
417.06	247.36
417.43	248.75
417.81	250.15
418.18	251.66
418.55	253.29
418.93	255.04
419.30	256.78
419.67	258.67
420.04	260.52
420.42	262.44
420.79	265.10
421.16	267.36
421.54	270.03
421.91	272.44
422.28	274.95
422.66	277.69
423.03	280.51
423.40	283.25
423.77	286.23
424.15	289.25
424.52	292.48
424.89	295.93
425.26	299.07
425.64	302.27
426.01	305.69
426.38	309.29
426.75	312.93
427.13	316.69
427.50	320.60
427.87	324.61
428.24	328.62
428.61	332.23
428.99	336.73
429.36	341.17
429.73	345.77
430.10	350.24
430.47	354.94
430.85	359.42
431.22	364.63
431.59	370.27
431.96	375.35
432.33	381.08
432.70	386.53
433.08	393.22
433.45	399.29
433.82	405.26
434.19	412.21
434.56	418.99
434.93	425.38
435.30	431.80
435.68	438.94
436.05	445.93
436.42	452.85
436.79	459.10
437.16	466.07
437.53	473.36
437.90	480.60
438.27	487.67
438.64	495.12
439.01	501.92
439.38	507.77
439.75	513.74
440.13	520.25
440.50	526.56
440.87	531.55
441.24	536.85
441.61	542.70
441.98	546.78
442.35	551.56
442.72	556.69
443.09	561.62
443.46	564.52
443.83	566.43
444.20	568.14
444.57	570.40
444.94	571.30
445.31	572.27
445.68	573.65
446.05	573.96
446.42	573.07
446.79	572.12
447.16	570.95
447.53	570.05
447.90	567.09
448.27	564.11
448.64	560.07
449.01	557.14
449.37	552.20
449.74	547.33
450.11	541.90
450.48	535.50
450.85	528.85
451.22	523.22
451.59	517.92
451.96	512.79
452.33	506.12
452.70	500.01
453.07	492.94
453.43	485.32
453.80	478.30
454.17	471.56
454.54	465.12
454.91	458.29
455.28	451.65
455.65	445.54
456.02	440.08
456.38	434.88
456.75	428.50
457.12	423.05
457.49	417.95
457.86	412.50
458.23	408.24
458.59	403.56
458.96	398.81
459.33	394.54
459.70	390.30
460.07	387.01
460.43	383.25
460.80	379.70
461.17	376.65
461.54	373.44
461.91	370.33
462.27	367.05
462.64	364.38
463.01	361.46
463.38	358.84
463.74	355.35
464.11	352.90
464.48	350.71
464.85	348.42
465.21	346.65
465.58	344.77
465.95	342.43
466.32	340.63
466.68	338.79
467.05	336.96
467.42	335.08
467.78	333.19
468.15	331.45
468.52	330.21
468.88	328.37
469.25	326.69
469.62	325.58
469.98	324.36
470.35	323.26
470.72	322.10
471.08	320.69
471.45	319.84
471.82	318.83
472.18	317.66
472.55	316.81
472.92	315.69
473.28	314.85
473.65	314.00
474.02	313.15
474.38	312.49
474.75	311.95
475.11	311.27
475.48	310.81
475.85	310.27
476.21	309.73
476.58	309.34
476.94	309.09
477.31	308.62
477.67	308.35
478.04	307.97
478.41	307.86
478.77	308.24
479.14	307.90
479.50	307.83
479.87	307.97
480.23	308.07
480.60	308.03
480.96	308.06
481.33	308.41
481.69	308.66
482.06	308.95
482.42	309.25
482.79	309.70
483.15	310.15
483.52	310.83
483.88	311.31
484.25	311.96
484.61	312.55
484.98	313.29
485.34	314.14
485.71	315.14
486.07	315.95
486.44	316.45
486.80	317.54
487.17	318.57
487.53	319.74
487.90	321.02
488.26	322.67
488.62	324.30
488.99	325.85
489.35	327.39
489.72	329.03
490.08	330.90
490.44	332.76
490.81	334.84
491.17	336.80
491.54	339.12
491.90	341.42
492.26	343.95
492.63	346.49
492.99	349.09
493.36	351.94
493.72	355.02
494.08	358.15
494.45	361.55
494.81	365.07
495.17	368.66
495.54	372.44
495.90	376.16
496.26	380.17
496.63	384.16
496.99	388.60
497.35	393.22
497.72	397.93
498.08	402.86
498.44	407.85
498.80	413.30
499.17	418.62
499.53	424.21
499.89	430.13
500.26	436.30
500.62	442.46
500.98	449.02
501.34	455.70
501.71	462.70
502.07	469.66
502.43	476.98
502.79	484.37
503.16	492.20
503.52	500.30
503.88	508.46
504.24	516.98
504.60	525.64
504.97	534.67
505.33	543.67
505.69	553.26
506.05	562.99
506.41	572.66
506.78	582.82
507.14	593.30
507.50	603.98
507.86	614.83
508.22	626.12
508.59	637.26
508.95	648.84
509.31	660.89
509.67	673.05
510.03	685.12
510.39	697.68
510.75	710.33
511.12	723.05
511.48	736.27
511.84	749.62
512.20	763.22
512.56	776.65
512.92	790.81
513.28	804.97
513.64	819.25
514.00	833.99
514.37	848.73
514.73	863.85
515.09	878.97
515.45	894.06
515.81	909.25
516.17	924.57
516.53	939.98
516.89	955.07
517.25	970.95
517.61	987.55
517.97	1003.92
518.33	1020.15
518.69	1036.63
519.05	1052.99
519.41	1069.47
519.77	1086.13
520.13	1102.97
520.49	1119.26
520.85	1137.14
521.21	1153.85
521.57	1170.60
521.93	1186.97
522.29	1203.62
522.65	1219.61
523.01	1235.98
523.37	1251.91
523.73	1268.28
524.09	1284.23
524.45	1300.31
524.81	1316.26
525.17	1331.85
525.53	1347.48
525.89	1363.26
526.25	1378.83
526.61	1394.25
526.97	1409.85
527.33	1425.93
527.68	1441.94
528.04	1458.00
528.40	1471.99
528.76	1487.57
529.12	1502.40
529.48	1517.62
529.84	1532.07
530.20	1547.42
530.56	1562.28
530.91	1577.66
531.27	1592.22
531.63	1606.76
531.99	1621.45
532.35	1635.49
532.71	1649.80
533.07	1664.56
533.42	1678.60
533.78	1692.57
534.14	1706.59
534.50	1719.84
534.86	1732.85
535.21	1744.85
535.57	1757.48
535.93	1769.52
536.29	1781.21
536.65	1793.63
537.00	1805.50
537.36	1817.01
537.72	1827.90
538.08	1839.23
538.44	1849.74
538.79	1860.30
539.15	1871.04
539.51	1881.09
539.87	1890.45
540.22	1898.75
540.58	1907.65
540.94	1915.34
541.29	1922.87
541.65	1929.89
542.01	1937.27
542.37	1943.03
542.72	1949.13
543.08	1954.26
543.44	1960.86
543.79	1966.37
544.15	1971.40
544.51	1976.35
544.87	1981.06
545.22	1985.08
545.58	1988.36
545.94	1991.32
546.29	1993.79
546.65	1995.63
547.01	1997.27
547.36	1999.12
547.72	2000.85
548.07	2000.86
548.43	2002.36
548.79	2003.18
549.14	2003.84
549.50	2004.06
549.86	2004.46
550.21	2004.74
550.57	2005.14
550.92	2003.53
551.28	2001.95
551.64	2000.94
551.99	1999.60
552.35	1998.10
552.70	1997.34
553.06	1996.13
553.41	1994.63
553.77	1993.67
554.13	1992.65
554.48	1991.54
554.84	1990.08
555.19	1988.73
555.55	1987.83
555.90	1985.19
556.26	1982.25
556.61	1978.73
556.97	1974.88
557.32	1971.96
557.68	1968.85
558.03	1965.54
558.39	1962.45
558.74	1959.43
559.10	1954.91
559.45	1950.12
559.81	1945.27
560.16	1939.29
560.52	1933.45
560.87	1928.39
561.23	1922.58
561.58	1916.61
561.94	1909.63
562.29	1902.60
562.64	1895.77
563.00	1888.07
563.35	1881.45
563.71	1874.87
564.06	1868.77
564.42	1862.76
564.77	1856.38
565.12	1849.53
565.48	1842.45
565.83	1835.39
566.19	1828.55
566.54	1821.53
566.89	1814.91
567.25	1808.05
567.60	1802.06
567.96	1795.96
568.31	1789.12
568.66	1781.75
569.02	1773.90
569.37	1766.98
569.72	1760.30
570.08	1752.66
570.43	1744.45
570.78	1736.90
571.14	1729.30
571.49	1721.01
571.84	1713.06
572.20	1704.32
572.55	1696.20
572.90	1687.66
573.26	1679.14
573.61	1670.13
573.96	1661.25
574.31	1651.53
574.67	1642.39
575.02	1632.23
575.37	1622.21
575.72	1611.94
576.08	1602.18
576.43	1592.56
576.78	1582.39
577.13	1572.08
577.49	1562.42
577.84	1553.79
578.19	1544.43
578.54	1534.91
578.90	1525.99
579.25	1516.70
579.60	1507.42
579.95	1497.59
580.30	1487.46
580.66	1477.60
581.01	1467.71
581.36	1457.79
581.71	1448.71
582.06	1439.08
582.42	1429.95
582.77	1420.66
583.12	1412.05
583.47	1403.23
583.82	1394.58
584.17	1386.02
584.53	1377.43
584.88	1368.11
585.23	1358.52
585.58	1348.47
585.93	1339.15
586.28	1329.61
586.63	1319.57
586.98	1309.47
587.34	1300.17
587.69	1291.08
588.04	1281.96
588.39	1273.40
588.74	1264.56
589.09	1256.14
589.44	1247.00
589.79	1238.41
590.14	1230.03
590.49	1221.20
590.84	1212.95
591.19	1204.49
591.54	1195.70
591.89	1187.08
592.25	1179.98
592.60	1172.09
592.95	1164.34
593.30	1155.80
593.65	1147.42
594.00	1139.11
594.35	1132.74
594.70	1124.43
595.05	1116.56
595.40	1108.40
595.75	1100.22
596.10	1092.53
596.45	1084.50
596.80	1077.20
597.15	1069.26
597.50	1061.13
597.85	1053.52
598.19	1045.41
598.54	1037.35
598.89	1029.91
599.24	1022.73
599.59	1014.65
599.94	1007.02
600.29	999.92
600.64	993.23
600.99	985.91
601.34	979.57
601.69	971.42
602.04	964.90
602.39	958.26
602.74	952.04
603.08	945.49
603.43	939.27
603.78	932.63
604.13	926.04
604.48	919.71
604.83	913.08
605.18	906.42
605.53	899.99
605.87	893.85
606.22	888.05
606.57	881.91
606.92	875.65
607.27	869.80
607.62	863.78
607.96	857.87
608.31	852.65
608.66	846.75
609.01	841.12
609.36	835.23
609.70	829.50
610.05	823.76
610.40	818.15
610.75	812.25
611.10	806.71
611.44	800.92
611.79	795.21
612.14	790.14
612.49	784.85
612.83	779.91
613.18	774.80
613.53	769.48
613.88	764.11
614.22	758.79
614.57	753.45
614.92	748.05
615.27	742.93
615.61	737.72
615.96	732.74
616.31	727.69
616.65	723.00
617.00	718.08
617.35	712.94
617.70	708.07
618.04	703.31
618.39	698.50
618.74	694.32
619.08	689.72
619.43	684.85
619.78	679.98
620.12	675.00
620.47	670.24
620.82	665.43
621.16	660.84
621.51	656.66
621.85	652.28
622.20	647.98
622.55	643.48
622.89	639.07
623.24	634.78
623.59	630.42
623.93	626.18
624.28	622.15
624.62	618.71
624.97	614.93
625.32	610.89
625.66	606.80
626.01	602.58
626.35	598.83
626.70	595.13
627.04	591.59
627.39	587.89
627.73	584.34
628.08	580.76
628.43	577.07
628.77	573.30
629.12	569.66
629.46	566.47
629.81	563.45
630.15	560.14
630.50	556.75
630.84	553.41
631.19	550.06
631.53	546.66
631.88	542.93
632.22	539.45
632.57	536.44
632.91	533.30
633.26	530.33
633.60	527.17
633.95	523.98
634.29	520.80
634.64	517.72
634.98	514.43
635.32	511.55
635.67	508.84
636.01	506.05
636.36	503.15
636.70	500.32
637.05	497.18
637.39	494.44
637.73	491.66
638.08	489.09
638.42	486.28
638.77	483.53
639.11	480.58
639.45	477.73
639.80	474.74
640.14	471.98
640.49	469.14
640.83	466.46
641.17	464.01
641.52	461.46
641.86	459.14
642.20	457.07
642.55	454.53
642.89	452.01
643.23	449.53
643.58	447.38
643.92	444.83
644.26	442.56
644.61	440.23
644.95	437.98
645.29	435.64
645.64	433.41
645.98	431.11
646.32	429.18
646.66	427.00
647.01	425.00
647.35	423.12
647.69	421.18
648.04	419.41
648.38	417.43
648.72	415.35
649.06	413.13
649.41	411.10
649.75	409.02
650.09	407.02
650.43	404.98
650.78	402.92
651.12	400.92
651.46	398.91
651.80	396.97
652.14	395.00
652.49	393.24
652.83	391.46
653.17	389.72
653.51	387.80
653.85	386.17
654.20	384.39
654.54	382.61
654.88	380.83
655.22	379.14
655.56	377.50
655.90	375.88
656.25	374.36
656.59	372.71
656.93	371.28
657.27	369.95
657.61	368.43
657.95	366.89
658.29	365.50
658.64	364.12
658.98	362.60
659.32	361.08
659.66	359.51
660.00	358.08
660.34	356.68
660.68	355.29
661.02	353.92
661.36	352.56
661.70	351.17
662.05	349.74
662.39	348.39
662.73	347.17
663.07	346.20
663.41	344.95
663.75	343.58
664.09	342.28
664.43	340.81
664.77	339.60
665.11	338.32
665.45	337.06
665.79	335.91
666.13	334.75
666.47	333.64
666.81	332.63
667.15	331.44
667.49	330.41
667.83	329.61
668.17	328.58
668.51	327.52
668.85	326.62
669.19	325.96
669.53	324.85
669.87	323.73
670.21	322.64
670.55	321.65
670.89	320.89
671.23	319.93
671.57	319.00
671.91	318.00
672.25	317.11
672.58	316.30
672.92	315.23
673.26	314.34
673.60	313.48
673.94	312.59
674.28	311.80
674.62	311.03
674.96	310.04
675.30	309.21
675.64	308.42
675.97	307.53
676.31	306.46
676.65	305.57
676.99	304.90
677.33	303.98
677.67	303.24
678.01	302.24
678.34	301.59
678.68	300.98
679.02	300.22
679.36	299.55
679.70	298.71
680.04	298.19
680.37	297.51
680.71	296.80
681.05	296.20
681.39	295.59
681.73	294.83
682.06	294.13
682.40	293.49
682.74	292.98
683.08	292.47
683.42	291.86
683.75	291.36
684.09	290.67
684.43	290.10
684.77	289.43
685.10	288.91
685.44	288.29
685.78	287.63
686.12	287.10
686.45	286.44
686.79	285.89
687.13	285.32
687.46	284.82
687.80	284.46
688.14	283.75
688.48	283.15
688.81	282.70
689.15	282.26
689.49	281.74
689.82	281.15
690.16	280.44
690.50	280.00
690.83	279.45
691.17	278.90
691.51	278.38
691.84	277.92
692.18	277.42
692.52	276.88
692.85	276.45
693.19	276.17
693.52	275.71
693.86	275.27
694.20	274.77
694.53	274.30
694.87	273.70
695.21	273.20
695.54	272.73
695.88	272.19
696.21	271.61
696.55	271.10
696.88	270.57
697.22	270.11
697.56	269.71
697.89	269.23
698.23	268.84
698.56	268.34
698.90	268.04
699.23	267.59
699.57	267.22
699.90	266.70
700.24	266.20
700.58	265.85
700.91	265.57
701.25	265.60
701.58	265.56
701.92	265.30
702.25	264.84
702.59	264.45
702.92	264.08
703.26	263.78
703.59	263.43
703.93	263.55
704.26	263.37
704.60	263.05
704.93	262.70
705.26	262.34
705.60	262.21
705.93	261.68
706.27	261.50
706.60	261.31
706.94	261.29
707.27	260.90
707.61	260.67
707.94	260.30
708.27	259.57
708.61	258.90
708.94	258.58
709.28	258.41
709.61	258.20
709.94	257.98
710.28	257.70
710.61	257.39
710.95	256.65
711.28	256.58
711.61	256.26
711.95	256.10
712.28	255.80
712.61	255.46
712.95	255.52
713.28	255.48
713.61	255.13
713.95	254.66
714.28	254.44
714.61	254.11
714.95	253.87
715.28	253.55
715.61	253.21
715.95	252.99
716.28	252.74
716.61	252.50
716.95	252.20
717.28	251.95
717.61	251.73
717.94	251.55
718.28	250.94
718.61	250.68
718.94	250.41
719.27	250.16
719.61	249.97
719.94	249.66
720.27	249.23
720.60	248.97
720.94	248.80
721.27	248.64
721.60	248.47
721.93	248.18
722.27	248.25
722.60	248.15
722.93	247.83
723.26	247.69
723.59	247.43
723.93	247.30
724.26	247.18
724.59	246.98
724.92	246.80
725.25	246.81
725.59	246.55
725.92	246.38
726.25	246.18
726.58	246.05
726.91	245.84
727.24	245.62
727.57	245.45
727.91	245.20
728.24	245.09
728.57	244.89
728.90	244.88
729.23	244.50
729.56	244.60
729.89	244.50
730.22	244.24
730.55	244.05
730.89	243.91
731.22	243.64
731.55	243.51
731.88	243.35
732.21	243.05
732.54	242.95
732.87	242.84
733.20	242.73
733.53	242.51
733.86	242.36
734.19	242.17
734.52	242.17
734.85	242.35
735.18	242.05
735.51	242.07
735.84	241.79
736.17	241.82
736.50	241.42
736.83	241.86
737.16	241.75
737.49	241.63
737.82	241.40
738.15	241.37
738.48	241.18
738.81	241.01
739.14	240.85
739.47	240.70
739.80	240.56
740.13	240.50
740.46	240.30
740.79	240.11
741.12	240.02
741.45	239.66
741.78	239.24
742.11	239.27
742.44	239.07
742.77	239.05
743.10	238.76
743.43	238.57
743.75	237.91
744.08	238.45
744.41	238.31
744.74	238.17
745.07	238.00
745.40	238.02
745.73	238.11
746.06	238.02
746.39	237.90
746.71	237.76
747.04	237.61
747.37	237.51
747.70	237.50
748.03	237.44
748.36	237.54
748.68	237.46
749.01	237.25
749.34	237.11
749.67	237.09
750.00	237.13
750.33	237.44
750.65	237.40
750.98	236.70
751.31	236.70
751.64	236.73
751.97	236.86
752.29	236.70
752.62	236.43
752.95	236.31
753.28	236.23
753.60	236.12
753.93	236.16
754.26	236.21
754.59	235.99
754.91	235.78
755.24	235.53
755.57	235.51
755.90	235.49
756.22	235.28
756.55	235.08
756.88	234.93
757.20	234.50
757.53	234.27
757.86	234.21
758.19	234.08
758.51	233.95
758.84	233.61
759.17	233.54
759.49	233.50
759.82	233.71
760.15	233.66
760.47	233.59
760.80	233.32
761.13	233.26
761.45	233.22
761.78	233.21
762.11	233.19
762.43	233.05
762.76	232.93
763.08	232.99
763.41	233.00
763.74	232.97
764.06	232.92
764.39	232.94
764.71	232.82
765.04	232.72
765.37	232.65
765.69	232.56
766.02	232.49
766.34	232.36
766.67	232.05
767.00	232.09
767.32	232.32
767.65	232.54
767.97	232.42
768.30	232.40
768.62	232.28
768.95	232.23
769.27	232.14
769.60	232.17
769.92	232.00
770.25	231.80
770.57	231.59
770.90	231.55
771.22	231.39
771.55	231.37
771.87	231.27
772.20	231.15
772.52	231.52
772.85	232.03
773.17	231.98
773.50	231.94
773.82	231.78
774.15	231.46
774.47	231.14
774.80	231.00
775.12	230.88
775.45	230.88
775.77	230.84
776.09	230.76
776.42	230.74
776.74	230.87
777.07	230.82
777.39	230.88
777.72	230.75
778.04	230.85
778.36	230.74
778.69	230.71
779.01	230.76
779.33	230.37
779.66	229.76
779.98	229.77
780.31	229.77
780.63	229.96
780.95	229.99
781.28	229.97
781.60	229.98
781.92	229.99
782.25	229.92
782.57	229.92
782.89	229.89
783.22	229.79
783.54	229.69
783.86	229.75
784.19	229.67
784.51	229.86
784.83	229.67
785.16	229.64
785.48	229.75
785.80	229.76
786.12	229.77
786.45	229.75
786.77	229.77
787.09	229.76
787.42	229.57
787.74	229.60
788.06	229.64
788.38	229.64
788.71	229.64
789.03	229.68
789.35	229.71
789.67	229.65
789.99	229.73
790.32	229.66
790.64	229.72
790.96	230.14
791.28	229.88
791.61	229.92
791.93	229.99
792.25	229.92
792.57	230.18
792.89	230.09
793.21	230.13
793.54	230.10
793.86	230.03
794.18	230.05
794.50	229.95
794.82	229.94
795.14	229.89
795.47	229.87
795.79	229.84
796.11	229.80
796.43	229.83
796.75	229.78
797.07	229.81
797.39	229.71
797.71	229.35
798.04	229.41
798.36	229.36
798.68	229.30
799.00	229.35
799.32	229.13
799.64	229.25
799.96	229.25
800.28	229.30
800.60	229.28
800.92	229.29
801.24	229.22
801.56	229.22
801.89	229.18
802.21	229.26
802.53	229.23
802.85	229.25
803.17	229.49
803.49	229.30
803.81	229.21
804.13	229.19
804.45	229.10
804.77	229.17
805.09	229.15
805.41	229.09
805.73	228.97
806.05	228.79
806.37	228.70
806.69	228.60
807.01	228.52
807.33	228.57
807.65	228.33
807.97	228.50
808.28	228.40
808.60	228.42
808.92	228.28
809.24	228.46
809.56	228.35
809.88	228.09
810.20	228.19
810.52	228.23
810.84	228.13
811.16	228.05
811.48	227.94
811.80	228.12
812.12	228.10
812.43	228.09
812.75	228.10
813.07	228.02
813.39	228.06
813.71	227.99
814.03	227.90
814.35	227.89
814.67	227.69
814.98	227.60
815.30	227.50
815.62	227.45
815.94	227.13
816.26	227.25
816.58	227.10
816.89	227.13
817.21	227.00
817.53	227.01
817.85	227.02
818.17	226.93
818.48	226.75
818.80	226.88
