SpectraSuite Data File
++++++++++++++++++++++++++++++++++++
Date: Wed Sep 04 17:41:23 EDT 2013
User: lab3
Dark Spectrum Present: Yes
Reference Spectrum Present: No
Number of Sampled Component Spectra: 1
Spectrometers: USB2E7196
Integration Time (usec): 170000 (USB2E7196)
Spectra Averaged: 20 (USB2E7196)
Boxcar Smoothing: 10 (USB2E7196)
Correct for Electrical Dark: No (USB2E7196)
Strobe/Lamp Enabled: No (USB2E7196)
Correct for Detector Non-linearity: No (USB2E7196)
Correct for Stray Light: No (USB2E7196)
Number of Pixels in Processed Spectrum: 2048
>>>>>Begin Processed Spectral Data<<<<<
339.09	0.00
339.48	211.25
339.86	214.00
340.24	215.75
340.63	216.40
341.01	225.65
341.39	220.15
341.78	223.00
342.16	222.70
342.54	222.70
342.93	211.93
343.31	222.63
343.69	223.25
344.07	223.71
344.46	224.19
344.84	224.62
345.22	224.56
345.60	224.83
345.99	224.94
346.37	225.03
346.75	225.14
347.13	225.20
347.52	225.22
347.90	225.47
348.28	225.51
348.66	225.54
349.05	225.33
349.43	225.44
349.81	225.58
350.19	225.50
350.57	225.56
350.96	225.65
351.34	225.74
351.72	225.84
352.10	225.90
352.48	225.95
352.87	225.95
353.25	226.02
353.63	226.00
354.01	226.05
354.39	226.20
354.77	226.22
355.15	226.45
355.54	226.47
355.92	226.41
356.30	226.42
356.68	226.85
357.06	227.04
357.44	226.98
357.82	226.99
358.20	227.53
358.58	227.54
358.97	227.62
359.35	227.77
359.73	227.89
360.11	228.01
360.49	228.07
360.87	228.17
361.25	228.33
361.63	228.54
362.01	228.66
362.39	228.67
362.77	228.81
363.15	228.80
363.53	228.89
363.91	228.96
364.29	228.99
364.67	228.57
365.05	228.59
365.43	228.64
365.81	228.71
366.19	228.63
366.57	228.92
366.95	228.91
367.33	228.80
367.71	228.78
368.09	228.87
368.47	228.86
368.85	228.89
369.23	228.93
369.61	228.79
369.99	228.91
370.37	229.00
370.75	229.24
371.13	229.13
371.51	229.05
371.89	229.02
372.27	229.00
372.65	229.05
373.03	228.99
373.41	228.92
373.78	228.86
374.16	228.46
374.54	228.26
374.92	228.18
375.30	228.18
375.68	228.10
376.06	228.07
376.44	227.91
376.82	227.82
377.19	227.70
377.57	227.66
377.95	227.46
378.33	227.24
378.71	226.85
379.09	226.85
379.47	226.89
379.84	226.80
380.22	226.76
380.60	226.62
380.98	226.50
381.36	226.45
381.73	226.29
382.11	226.39
382.49	226.31
382.87	226.17
383.25	226.05
383.62	226.54
384.00	226.33
384.38	226.35
384.76	226.42
385.13	226.56
385.51	226.45
385.89	226.27
386.27	226.30
386.64	226.32
387.02	226.25
387.40	226.08
387.78	226.06
388.15	226.02
388.53	226.02
388.91	225.99
389.29	225.98
389.66	226.06
390.04	225.98
390.42	226.04
390.79	226.15
391.17	226.11
391.55	225.51
391.92	225.55
392.30	225.57
392.68	225.42
393.05	225.42
393.43	225.45
393.81	225.58
394.18	225.53
394.56	225.52
394.94	225.59
395.31	225.60
395.69	225.75
396.06	225.81
396.44	225.79
396.82	225.80
397.19	226.11
397.57	226.05
397.95	226.12
398.32	226.06
398.70	226.10
399.07	226.32
399.45	226.38
399.82	226.47
400.20	226.50
400.58	226.63
400.95	226.44
401.33	226.63
401.70	226.93
402.08	227.02
402.45	227.11
402.83	227.31
403.20	227.46
403.58	227.47
403.95	227.71
404.33	227.88
404.71	228.07
405.08	228.45
405.46	228.74
405.83	229.00
406.21	229.25
406.58	229.55
406.96	229.78
407.33	230.10
407.70	230.49
408.08	231.22
408.45	231.49
408.83	231.92
409.20	232.20
409.58	232.33
409.95	232.84
410.33	233.43
410.70	233.76
411.08	234.34
411.45	234.88
411.82	235.34
412.20	236.03
412.57	236.95
412.95	237.21
413.32	237.89
413.69	238.56
414.07	239.37
414.44	240.09
414.82	240.90
415.19	241.89
415.56	242.81
415.94	243.51
416.31	244.76
416.68	245.91
417.06	247.27
417.43	248.76
417.81	250.28
418.18	251.73
418.55	253.25
418.93	254.83
419.30	256.63
419.67	258.47
420.04	260.36
420.42	262.18
420.79	264.75
421.16	266.95
421.54	269.54
421.91	272.00
422.28	274.62
422.66	277.35
423.03	280.30
423.40	283.04
423.77	285.92
424.15	288.95
424.52	292.17
424.89	295.61
425.26	298.90
425.64	301.90
426.01	305.26
426.38	308.96
426.75	312.85
427.13	316.61
427.50	320.60
427.87	324.71
428.24	328.73
428.61	332.32
428.99	336.94
429.36	341.34
429.73	345.90
430.10	350.47
430.47	355.17
430.85	359.77
431.22	364.95
431.59	370.81
431.96	376.00
432.33	381.81
432.70	387.36
433.08	393.86
433.45	400.10
433.82	406.30
434.19	413.11
434.56	419.89
434.93	426.22
435.30	432.72
435.68	439.83
436.05	446.92
436.42	453.93
436.79	460.28
437.16	467.28
437.53	474.54
437.90	481.74
438.27	488.84
438.64	496.20
439.01	503.08
439.38	508.97
439.75	515.00
440.13	521.70
440.50	528.06
440.87	533.16
441.24	538.52
441.61	544.35
441.98	548.58
442.35	553.27
442.72	558.49
443.09	563.35
443.46	566.29
443.83	568.26
444.20	569.92
444.57	572.32
444.94	573.29
445.31	574.29
445.68	575.75
446.05	575.99
446.42	575.09
446.79	573.88
447.16	572.61
447.53	571.50
447.90	568.41
448.27	565.26
448.64	561.27
449.01	558.27
449.37	553.26
449.74	548.26
450.11	542.85
450.48	536.40
450.85	529.80
451.22	524.11
451.59	518.76
451.96	513.56
452.33	506.69
452.70	500.53
453.07	493.33
453.43	485.58
453.80	478.71
454.17	471.89
454.54	465.56
454.91	458.90
455.28	452.36
455.65	446.15
456.02	440.68
456.38	435.35
456.75	428.92
457.12	423.51
457.49	418.25
457.86	412.74
458.23	408.47
458.59	403.66
458.96	398.90
459.33	394.53
459.70	390.32
460.07	387.05
460.43	383.30
460.80	379.76
461.17	376.75
461.54	373.40
461.91	370.33
462.27	367.25
462.64	364.37
463.01	361.30
463.38	358.68
463.74	355.24
464.11	352.69
464.48	350.55
464.85	348.10
465.21	346.45
465.58	344.68
465.95	342.32
466.32	340.53
466.68	338.58
467.05	336.80
467.42	335.00
467.78	332.91
468.15	331.15
468.52	329.86
468.88	327.92
469.25	326.31
469.62	325.23
469.98	323.80
470.35	322.53
470.72	321.45
471.08	319.94
471.45	318.96
471.82	318.08
472.18	316.81
472.55	316.06
472.92	315.02
473.28	314.10
473.65	313.18
474.02	312.29
474.38	311.70
474.75	311.18
475.11	310.50
475.48	310.14
475.85	309.65
476.21	309.17
476.58	308.87
476.94	308.63
477.31	308.11
477.67	307.74
478.04	307.57
478.41	307.42
478.77	307.77
479.14	307.52
479.50	307.36
479.87	307.50
480.23	307.59
480.60	307.65
480.96	307.70
481.33	308.10
481.69	308.34
482.06	308.52
482.42	308.79
482.79	309.19
483.15	309.57
483.52	310.16
483.88	310.69
484.25	311.22
484.61	311.82
484.98	312.44
485.34	313.42
485.71	314.38
486.07	315.31
486.44	315.98
486.80	317.08
487.17	318.20
487.53	319.45
487.90	320.73
488.26	322.18
488.62	323.82
488.99	325.18
489.35	326.87
489.72	328.67
490.08	330.48
490.44	332.38
490.81	334.41
491.17	336.52
491.54	338.76
491.90	341.12
492.26	343.64
492.63	346.32
492.99	348.96
493.36	351.73
493.72	354.66
494.08	357.74
494.45	361.13
494.81	364.70
495.17	368.24
495.54	372.12
495.90	376.05
496.26	380.12
496.63	384.34
496.99	388.48
497.35	393.05
497.72	397.88
498.08	402.68
498.44	407.90
498.80	413.22
499.17	418.71
499.53	424.29
499.89	430.12
500.26	436.18
500.62	442.35
500.98	448.96
501.34	455.61
501.71	462.61
502.07	469.67
502.43	476.80
502.79	484.10
503.16	491.64
503.52	499.45
503.88	507.43
504.24	515.93
504.60	524.91
504.97	533.80
505.33	542.86
505.69	552.74
506.05	562.25
506.41	571.98
506.78	582.05
507.14	592.50
507.50	603.31
507.86	614.31
508.22	625.62
508.59	636.69
508.95	648.39
509.31	660.28
509.67	672.42
510.03	684.82
510.39	697.51
510.75	710.27
511.12	723.10
511.48	736.20
511.84	749.55
512.20	762.86
512.56	776.49
512.92	790.60
513.28	804.31
513.64	818.66
514.00	833.13
514.37	847.87
514.73	862.83
515.09	877.69
515.45	892.76
515.81	907.73
516.17	923.26
516.53	938.50
516.89	953.89
517.25	969.64
517.61	985.69
517.97	1002.06
518.33	1018.35
518.69	1034.98
519.05	1051.78
519.41	1068.27
519.77	1085.40
520.13	1101.96
520.49	1118.22
520.85	1136.19
521.21	1152.77
521.57	1169.57
521.93	1185.83
522.29	1202.60
522.65	1218.75
523.01	1234.96
523.37	1251.10
523.73	1267.19
524.09	1283.07
524.45	1298.99
524.81	1314.95
525.17	1330.71
525.53	1346.44
525.89	1362.29
526.25	1378.04
526.61	1393.16
526.97	1409.04
527.33	1424.75
527.68	1441.24
528.04	1457.13
528.40	1471.27
528.76	1487.04
529.12	1501.85
529.48	1517.15
529.84	1531.60
530.20	1547.17
530.56	1562.49
530.91	1577.83
531.27	1592.65
531.63	1607.34
531.99	1621.88
532.35	1636.07
532.71	1650.54
533.07	1664.93
533.42	1678.89
533.78	1692.57
534.14	1706.62
534.50	1719.59
534.86	1732.60
535.21	1744.30
535.57	1756.82
535.93	1768.98
536.29	1780.84
536.65	1793.64
537.00	1805.41
537.36	1817.15
537.72	1828.07
538.08	1839.22
538.44	1849.56
538.79	1860.19
539.15	1870.85
539.51	1881.25
539.87	1890.34
540.22	1898.82
540.58	1907.83
540.94	1915.80
541.29	1923.30
541.65	1930.49
542.01	1937.95
542.37	1943.83
542.72	1950.07
543.08	1955.82
543.44	1962.33
543.79	1967.25
544.15	1971.89
544.51	1977.05
544.87	1981.47
545.22	1985.45
545.58	1988.71
545.94	1991.89
546.29	1994.16
546.65	1996.37
547.01	1997.76
547.36	1999.88
547.72	2001.50
548.07	2001.57
548.43	2002.91
548.79	2003.62
549.14	2003.90
549.50	2004.14
549.86	2004.53
550.21	2004.71
550.57	2004.79
550.92	2003.39
551.28	2002.27
551.64	2001.48
551.99	2000.26
552.35	1999.25
552.70	1998.06
553.06	1997.18
553.41	1995.71
553.77	1994.74
554.13	1993.59
554.48	1992.83
554.84	1991.46
555.19	1990.05
555.55	1989.18
555.90	1986.55
556.26	1983.77
556.61	1980.91
556.97	1977.17
557.32	1974.63
557.68	1971.64
558.03	1968.33
558.39	1964.87
558.74	1962.15
559.10	1957.77
559.45	1953.20
559.81	1948.03
560.16	1942.48
560.52	1936.84
560.87	1931.86
561.23	1926.15
561.58	1919.98
561.94	1912.70
562.29	1905.60
562.64	1898.93
563.00	1891.09
563.35	1884.39
563.71	1878.30
564.06	1871.85
564.42	1865.43
564.77	1858.85
565.12	1851.83
565.48	1845.11
565.83	1838.36
566.19	1831.26
566.54	1824.24
566.89	1817.08
567.25	1810.36
567.60	1803.95
567.96	1797.30
568.31	1790.44
568.66	1783.18
569.02	1775.81
569.37	1768.91
569.72	1762.30
570.08	1754.35
570.43	1746.69
570.78	1739.16
571.14	1731.42
571.49	1723.24
571.84	1715.53
572.20	1706.44
572.55	1698.50
572.90	1689.47
573.26	1680.97
573.61	1672.10
573.96	1663.58
574.31	1654.16
574.67	1644.82
575.02	1635.10
575.37	1625.08
575.72	1614.71
576.08	1605.36
576.43	1595.80
576.78	1585.93
577.13	1575.47
577.49	1565.95
577.84	1556.75
578.19	1547.57
578.54	1538.25
578.90	1529.11
579.25	1520.06
579.60	1511.07
579.95	1501.10
580.30	1491.50
580.66	1481.66
581.01	1471.47
581.36	1461.00
581.71	1451.71
582.06	1442.35
582.42	1433.18
582.77	1423.95
583.12	1415.35
583.47	1406.20
583.82	1397.44
584.17	1388.55
584.53	1380.16
584.88	1370.66
585.23	1361.24
585.58	1351.03
585.93	1341.06
586.28	1331.63
586.63	1321.54
586.98	1311.15
587.34	1301.76
587.69	1292.28
588.04	1283.39
588.39	1274.75
588.74	1266.12
589.09	1257.54
589.44	1248.40
589.79	1239.68
590.14	1231.20
590.49	1222.42
590.84	1213.84
591.19	1205.24
591.54	1196.68
591.89	1188.15
592.25	1181.32
592.60	1173.39
592.95	1165.65
593.30	1157.52
593.65	1149.06
594.00	1140.72
594.35	1134.72
594.70	1126.69
595.05	1118.85
595.40	1110.33
595.75	1102.17
596.10	1094.33
596.45	1086.38
596.80	1078.79
597.15	1070.87
597.50	1062.57
597.85	1054.71
598.19	1046.72
598.54	1038.57
598.89	1030.96
599.24	1023.41
599.59	1015.23
599.94	1007.77
600.29	1000.73
600.64	993.67
600.99	986.46
601.34	979.81
601.69	971.55
602.04	964.78
602.39	957.99
602.74	951.87
603.08	945.46
603.43	939.26
603.78	932.63
604.13	926.15
604.48	919.62
604.83	913.14
605.18	906.62
605.53	900.02
605.87	893.89
606.22	888.07
606.57	881.98
606.92	875.64
607.27	869.75
607.62	863.73
607.96	857.85
608.31	852.39
608.66	846.75
609.01	840.85
609.36	835.06
609.70	829.47
610.05	823.55
610.40	817.82
610.75	811.72
611.10	806.22
611.44	800.56
611.79	795.03
612.14	789.74
612.49	784.46
612.83	779.50
613.18	774.19
613.53	768.81
613.88	763.38
614.22	758.14
614.57	752.57
614.92	747.14
615.27	742.09
615.61	736.88
615.96	731.71
616.31	726.67
616.65	721.93
617.00	716.89
617.35	711.91
617.70	707.06
618.04	702.40
618.39	697.55
618.74	693.16
619.08	688.52
619.43	683.70
619.78	678.89
620.12	674.09
620.47	669.50
620.82	664.68
621.16	660.09
621.51	655.95
621.85	651.67
622.20	647.12
622.55	642.55
622.89	638.37
623.24	634.05
623.59	629.83
623.93	625.59
624.28	621.42
624.62	617.78
624.97	613.90
625.32	610.00
625.66	605.99
626.01	601.71
626.35	598.03
626.70	594.39
627.04	590.75
627.39	586.84
627.73	583.22
628.08	579.76
628.43	576.03
628.77	572.07
629.12	568.49
629.46	565.30
629.81	562.29
630.15	558.84
630.50	555.48
630.84	552.08
631.19	548.70
631.53	545.58
631.88	541.97
632.22	538.69
632.57	535.67
632.91	532.65
633.26	529.73
633.60	526.47
633.95	523.27
634.29	520.15
634.64	517.32
634.98	514.05
635.32	511.19
635.67	508.47
636.01	505.74
636.36	502.85
636.70	500.14
637.05	497.03
637.39	494.24
637.73	491.64
638.08	489.02
638.42	486.18
638.77	483.34
639.11	480.34
639.45	477.32
639.80	474.18
640.14	471.32
640.49	468.57
640.83	466.00
641.17	463.47
641.52	460.91
641.86	458.25
642.20	456.11
642.55	453.52
642.89	451.00
643.23	448.50
643.58	446.41
643.92	443.75
644.26	441.44
644.61	439.27
644.95	436.89
645.29	434.55
645.64	432.41
645.98	430.27
646.32	428.35
646.66	426.17
647.01	424.12
647.35	422.09
647.69	420.06
648.04	418.09
648.38	416.23
648.72	414.29
649.06	412.36
649.41	410.24
649.75	408.17
650.09	406.32
650.43	404.36
650.78	402.19
651.12	400.28
651.46	398.35
651.80	396.37
652.14	394.48
652.49	392.95
652.83	391.10
653.17	389.25
653.51	387.35
653.85	385.72
654.20	384.14
654.54	382.43
654.88	380.70
655.22	379.23
655.56	377.56
655.90	375.90
656.25	374.34
656.59	372.83
656.93	371.44
657.27	369.90
657.61	368.26
657.95	366.82
658.29	365.33
658.64	363.98
658.98	362.49
659.32	360.83
659.66	359.15
660.00	357.68
660.34	356.25
660.68	354.94
661.02	353.62
661.36	352.29
661.70	350.88
662.05	349.62
662.39	348.24
662.73	347.07
663.07	346.06
663.41	344.82
663.75	343.46
664.09	342.09
664.43	340.72
664.77	339.70
665.11	338.41
665.45	337.28
665.79	336.21
666.13	335.05
666.47	334.02
666.81	332.83
667.15	331.71
667.49	330.65
667.83	329.72
668.17	328.60
668.51	327.51
668.85	326.60
669.19	325.70
669.53	324.54
669.87	323.41
670.21	322.21
670.55	321.30
670.89	320.58
671.23	319.65
671.57	318.75
671.91	317.76
672.25	316.90
672.58	316.07
672.92	314.93
673.26	314.00
673.60	313.21
673.94	312.39
674.28	311.63
674.62	310.86
674.96	309.83
675.30	309.12
675.64	308.25
675.97	307.33
676.31	306.34
676.65	305.47
676.99	304.75
677.33	303.93
677.67	303.11
678.01	302.08
678.34	301.37
678.68	300.75
679.02	299.98
679.36	299.25
679.70	298.49
680.04	297.86
680.37	297.14
680.71	296.29
681.05	295.71
681.39	294.96
681.73	294.18
682.06	293.56
682.40	292.90
682.74	292.33
683.08	292.00
683.42	291.43
683.75	290.96
684.09	290.31
684.43	289.70
684.77	289.07
685.10	288.54
685.44	287.92
685.78	287.21
686.12	286.67
686.45	286.04
686.79	285.46
687.13	285.04
687.46	284.54
687.80	284.18
688.14	283.51
688.48	282.95
688.81	282.39
689.15	281.99
689.49	281.38
689.82	280.91
690.16	280.15
690.50	279.63
690.83	279.03
691.17	278.47
691.51	277.96
691.84	277.50
692.18	276.99
692.52	276.50
692.85	276.14
693.19	275.90
693.52	275.50
693.86	275.02
694.20	274.47
694.53	274.03
694.87	273.48
695.21	273.00
695.54	272.62
695.88	272.24
696.21	271.55
696.55	271.20
696.88	270.65
697.22	270.18
697.56	269.76
697.89	269.32
698.23	268.96
698.56	268.59
698.90	268.25
699.23	267.83
699.57	267.44
699.90	266.99
700.24	266.39
700.58	266.06
700.91	265.74
701.25	265.75
701.58	265.74
701.92	265.49
702.25	265.27
702.59	264.88
702.92	264.58
703.26	264.37
703.59	264.03
703.93	264.14
704.26	263.93
704.60	263.59
704.93	263.30
705.26	262.95
705.60	262.70
705.93	262.20
706.27	262.01
706.60	261.83
706.94	261.74
707.27	261.43
707.61	261.10
707.94	260.77
708.27	260.03
708.61	259.30
708.94	258.95
709.28	258.47
709.61	258.19
709.94	257.87
710.28	257.55
710.61	257.25
710.95	256.52
711.28	256.62
711.61	256.29
711.95	256.09
712.28	255.69
712.61	255.41
712.95	255.51
713.28	255.42
713.61	255.05
713.95	254.58
714.28	254.36
714.61	254.07
714.95	253.84
715.28	253.59
715.61	253.39
715.95	253.12
716.28	252.92
716.61	252.70
716.95	252.39
717.28	252.13
717.61	251.92
717.94	251.70
718.28	250.97
718.61	250.79
718.94	250.45
719.27	250.30
719.61	250.12
719.94	249.77
720.27	249.31
720.60	249.09
720.94	248.90
721.27	248.69
721.60	248.63
721.93	248.39
722.27	248.35
722.60	248.22
722.93	248.05
723.26	247.93
723.59	247.71
723.93	247.56
724.26	247.44
724.59	247.20
724.92	247.10
725.25	247.07
725.59	246.88
725.92	246.74
726.25	246.57
726.58	246.36
726.91	246.09
727.24	245.99
727.57	245.84
727.91	245.70
728.24	245.59
728.57	245.28
728.90	245.21
729.23	244.90
729.56	244.97
729.89	244.75
730.22	244.57
730.55	244.42
730.89	244.27
731.22	244.08
731.55	243.91
731.88	243.74
732.21	243.51
732.54	243.22
732.87	243.10
733.20	242.96
733.53	242.84
733.86	242.72
734.19	242.45
734.52	242.39
734.85	242.49
735.18	242.22
735.51	242.20
735.84	241.95
736.17	241.97
736.50	241.57
736.83	241.99
737.16	241.81
737.49	241.73
737.82	241.62
738.15	241.61
738.48	241.43
738.81	241.25
739.14	241.05
739.47	241.01
739.80	240.89
740.13	240.75
740.46	240.51
740.79	240.37
741.12	240.32
741.45	240.12
741.78	239.73
742.11	239.72
742.44	239.55
742.77	239.61
743.10	239.40
743.43	239.25
743.75	238.71
744.08	239.19
744.41	238.99
744.74	238.86
745.07	238.68
745.40	238.71
745.73	238.81
746.06	238.77
746.39	238.65
746.71	238.44
747.04	238.30
747.37	238.20
747.70	238.16
748.03	238.03
748.36	238.03
748.68	237.94
749.01	237.70
749.34	237.65
749.67	237.51
750.00	237.43
750.33	237.74
750.65	237.68
750.98	237.01
751.31	236.95
751.64	236.86
751.97	236.98
752.29	236.83
752.62	236.55
752.95	236.43
753.28	236.33
753.60	236.22
753.93	236.25
754.26	236.25
754.59	236.04
754.91	235.95
755.24	235.77
755.57	235.69
755.90	235.62
756.22	235.43
756.55	235.24
756.88	235.06
757.20	234.65
757.53	234.43
757.86	234.36
758.19	234.36
758.51	234.22
758.84	233.99
759.17	233.92
759.49	233.87
759.82	234.09
760.15	234.09
760.47	234.06
760.80	233.88
761.13	233.89
761.45	233.78
761.78	233.67
762.11	233.65
762.43	233.54
762.76	233.46
763.08	233.42
763.41	233.44
763.74	233.45
764.06	233.35
764.39	233.26
764.71	233.18
765.04	232.99
765.37	232.92
765.69	232.75
766.02	232.65
766.34	232.52
766.67	232.14
767.00	232.18
767.32	232.39
767.65	232.63
767.97	232.46
768.30	232.49
768.62	232.45
768.95	232.33
769.27	232.25
769.60	232.35
769.92	232.26
770.25	232.06
770.57	231.90
770.90	231.87
771.22	231.77
771.55	231.79
771.87	231.80
772.20	231.79
772.52	232.22
772.85	232.74
773.17	232.73
773.50	232.77
773.82	232.62
774.15	232.34
774.47	231.96
774.80	231.86
775.12	231.80
775.45	231.72
775.77	231.67
776.09	231.60
776.42	231.47
776.74	231.55
777.07	231.51
777.39	231.54
777.72	231.36
778.04	231.40
778.36	231.32
778.69	231.23
779.01	231.20
779.33	230.70
779.66	230.15
779.98	230.10
780.31	229.96
780.63	230.07
780.95	230.13
781.28	230.03
781.60	229.95
781.92	229.87
782.25	229.82
782.57	229.80
782.89	229.78
783.22	229.73
783.54	229.66
783.86	229.67
784.19	229.57
784.51	229.72
784.83	229.62
785.16	229.61
785.48	229.58
785.80	229.53
786.12	229.53
786.45	229.49
786.77	229.46
787.09	229.55
787.42	229.36
787.74	229.31
788.06	229.35
788.38	229.34
788.71	229.23
789.03	229.25
789.35	229.29
789.67	229.25
789.99	229.29
790.32	229.13
790.64	229.16
790.96	229.52
791.28	229.30
791.61	229.25
791.93	229.19
792.25	229.21
792.57	229.53
792.89	229.42
793.21	229.40
793.54	229.38
793.86	229.26
794.18	229.29
794.50	229.22
794.82	229.24
795.14	229.31
795.47	229.50
795.79	229.49
796.11	229.39
796.43	229.29
796.75	229.26
797.07	229.30
797.39	229.24
797.71	228.87
798.04	228.94
798.36	229.00
798.68	229.07
799.00	229.03
799.32	228.77
799.64	228.88
799.96	228.89
800.28	228.94
800.60	228.87
800.92	228.92
801.24	228.85
801.56	228.86
801.89	228.77
802.21	228.79
802.53	228.69
802.85	228.80
803.17	229.04
803.49	228.83
803.81	228.76
804.13	228.78
804.45	228.74
804.77	228.76
805.09	228.70
805.41	228.62
805.73	228.52
806.05	228.40
806.37	228.35
806.69	228.27
807.01	228.22
807.33	228.26
807.65	228.00
807.97	228.23
808.28	228.13
808.60	228.05
808.92	228.01
809.24	228.25
809.56	228.13
809.88	227.98
810.20	228.08
810.52	228.21
810.84	228.11
811.16	228.08
811.48	228.02
811.80	228.22
812.12	228.11
812.43	228.22
812.75	228.26
813.07	228.17
813.39	228.21
813.71	228.09
814.03	228.08
814.35	228.15
814.67	227.94
814.98	227.94
815.30	228.04
815.62	227.92
815.94	227.60
816.26	227.81
816.58	227.70
816.89	227.65
817.21	227.45
817.53	227.49
817.85	227.44
818.17	227.40
818.48	227.21
818.80	227.30
