SpectraSuite Data File
++++++++++++++++++++++++++++++++++++
Date: Wed Sep 04 18:00:00 EDT 2013
User: lab3
Dark Spectrum Present: Yes
Reference Spectrum Present: No
Number of Sampled Component Spectra: 1
Spectrometers: USB2E7196
Integration Time (usec): 170000 (USB2E7196)
Spectra Averaged: 20 (USB2E7196)
Boxcar Smoothing: 10 (USB2E7196)
Correct for Electrical Dark: No (USB2E7196)
Strobe/Lamp Enabled: No (USB2E7196)
Correct for Detector Non-linearity: No (USB2E7196)
Correct for Stray Light: No (USB2E7196)
Number of Pixels in Processed Spectrum: 2048
>>>>>Begin Processed Spectral Data<<<<<
339.09	0.00
339.48	213.70
339.86	215.40
340.24	215.55
340.63	217.65
341.01	226.85
341.39	221.20
341.78	222.35
342.16	223.85
342.54	223.40
342.93	212.57
343.31	223.32
343.69	223.84
344.07	224.29
344.46	224.85
344.84	225.20
345.22	225.10
345.60	225.34
345.99	225.54
346.37	225.62
346.75	225.79
347.13	225.80
347.52	225.80
347.90	226.03
348.28	226.04
348.66	226.15
349.05	226.03
349.43	226.08
349.81	226.20
350.19	226.30
350.57	226.33
350.96	226.48
351.34	226.54
351.72	226.61
352.10	226.65
352.48	226.54
352.87	226.60
353.25	226.73
353.63	226.68
354.01	226.71
354.39	226.85
354.77	226.86
355.15	227.07
355.54	227.22
355.92	227.12
356.30	227.12
356.68	227.52
357.06	227.57
357.44	227.61
357.82	227.65
358.20	228.11
358.58	228.16
358.97	228.22
359.35	228.35
359.73	228.47
360.11	228.53
360.49	228.68
360.87	228.73
361.25	228.80
361.63	229.09
362.01	229.21
362.39	229.20
362.77	229.31
363.15	229.27
363.53	229.27
363.91	229.39
364.29	229.43
364.67	229.02
365.05	229.13
365.43	229.15
365.81	229.18
366.19	229.05
366.57	229.30
366.95	229.31
367.33	229.22
367.71	229.26
368.09	229.39
368.47	229.37
368.85	229.37
369.23	229.50
369.61	229.36
369.99	229.47
370.37	229.51
370.75	229.77
371.13	229.75
371.51	229.67
371.89	229.69
372.27	229.79
372.65	229.80
373.03	229.73
373.41	229.69
373.78	229.63
374.16	229.38
374.54	229.22
374.92	229.19
375.30	229.18
375.68	229.06
376.06	229.06
376.44	228.97
376.82	228.93
377.19	228.86
377.57	228.79
377.95	228.57
378.33	228.47
378.71	228.11
379.09	228.14
379.47	228.12
379.84	228.03
380.22	227.92
380.60	227.69
380.98	227.65
381.36	227.62
381.73	227.50
382.11	227.46
382.49	227.41
382.87	227.30
383.25	227.18
383.62	227.68
384.00	227.47
384.38	227.47
384.76	227.55
385.13	227.62
385.51	227.63
385.89	227.47
386.27	227.39
386.64	227.40
387.02	227.23
387.40	227.13
387.78	227.07
388.15	226.97
388.53	226.96
388.91	226.85
389.29	226.78
389.66	226.83
390.04	226.77
390.42	226.76
390.79	226.69
391.17	226.69
391.55	226.11
391.92	226.10
392.30	226.18
392.68	226.04
393.05	225.96
393.43	225.96
393.81	226.04
394.18	225.98
394.56	225.96
394.94	226.12
395.31	226.09
395.69	226.26
396.06	226.41
396.44	226.48
396.82	226.53
397.19	226.81
397.57	226.74
397.95	226.85
398.32	226.74
398.70	226.90
399.07	227.08
399.45	227.18
399.82	227.27
400.20	227.25
400.58	227.34
400.95	227.25
401.33	227.44
401.70	227.83
402.08	228.02
402.45	228.19
402.83	228.41
403.20	228.62
403.58	228.66
403.95	228.92
404.33	229.14
404.71	229.35
405.08	229.76
405.46	230.10
405.83	230.32
406.21	230.66
406.58	230.87
406.96	231.16
407.33	231.53
407.70	231.96
408.08	232.73
408.45	233.16
408.83	233.76
409.20	234.08
409.58	234.29
409.95	234.81
410.33	235.36
410.70	235.71
411.08	236.37
411.45	237.08
411.82	237.61
412.20	238.36
412.57	239.35
412.95	239.72
413.32	240.59
413.69	241.45
414.07	242.38
414.44	243.40
414.82	244.48
415.19	245.64
415.56	246.79
415.94	247.76
416.31	249.20
416.68	250.51
417.06	252.13
417.43	253.75
417.81	255.50
418.18	257.32
418.55	259.31
418.93	261.36
419.30	263.41
419.67	265.64
420.04	268.01
420.42	270.31
420.79	273.48
421.16	276.28
421.54	279.35
421.91	282.32
422.28	285.38
422.66	288.61
423.03	292.11
423.40	295.51
423.77	299.10
424.15	302.82
424.52	306.62
424.89	310.78
425.26	314.75
425.64	318.66
426.01	322.79
426.38	327.18
426.75	331.73
427.13	336.25
427.50	341.07
427.87	345.93
428.24	350.98
428.61	355.42
428.99	360.75
429.36	366.28
429.73	371.82
430.10	377.40
430.47	383.13
430.85	388.73
431.22	395.00
431.59	401.83
431.96	407.99
432.33	415.04
432.70	421.83
433.08	429.89
433.45	437.26
433.82	444.70
434.19	452.79
434.56	460.95
434.93	468.88
435.30	476.65
435.68	485.30
436.05	493.79
436.42	502.15
436.79	509.86
437.16	518.22
437.53	527.08
437.90	536.06
438.27	544.77
438.64	553.74
439.01	562.04
439.38	569.21
439.75	576.33
440.13	584.32
440.50	591.85
440.87	597.89
441.24	604.44
441.61	611.49
441.98	616.76
442.35	622.56
442.72	628.56
443.09	634.40
443.46	637.86
443.83	640.10
444.20	642.07
444.57	644.73
444.94	645.77
445.31	646.81
445.68	648.00
446.05	648.13
446.42	646.82
446.79	645.42
447.16	643.92
447.53	642.70
447.90	639.00
448.27	635.36
448.64	630.43
449.01	626.64
449.37	620.47
449.74	614.27
450.11	607.44
450.48	599.45
450.85	591.45
451.22	584.40
451.59	577.75
451.96	571.54
452.33	563.39
452.70	556.05
453.07	547.43
453.43	538.21
453.80	529.62
454.17	521.47
454.54	513.70
454.91	505.35
455.28	497.45
455.65	489.90
456.02	482.92
456.38	476.57
456.75	468.64
457.12	462.12
457.49	455.89
457.86	449.41
458.23	444.33
458.59	438.53
458.96	432.89
459.33	427.76
459.70	422.52
460.07	418.42
460.43	413.78
460.80	409.43
461.17	405.59
461.54	401.60
461.91	397.83
462.27	393.97
462.64	390.74
463.01	387.14
463.38	383.92
463.74	379.98
464.11	376.88
464.48	374.32
464.85	371.39
465.21	369.21
465.58	366.81
465.95	363.97
466.32	361.71
466.68	359.42
467.05	357.21
467.42	355.04
467.78	352.71
468.15	350.46
468.52	348.82
468.88	346.63
469.25	344.70
469.62	343.28
469.98	341.53
470.35	339.92
470.72	338.40
471.08	336.63
471.45	335.31
471.82	334.12
472.18	332.64
472.55	331.67
472.92	330.32
473.28	329.24
473.65	328.15
474.02	327.02
474.38	326.10
474.75	325.30
475.11	324.36
475.48	323.73
475.85	323.12
476.21	322.55
476.58	322.15
476.94	321.80
477.31	321.26
477.67	320.96
478.04	320.63
478.41	320.38
478.77	320.69
479.14	320.42
479.50	320.25
479.87	320.29
480.23	320.26
480.60	320.26
480.96	320.30
481.33	320.62
481.69	320.86
482.06	321.12
482.42	321.44
482.79	321.77
483.15	322.21
483.52	322.85
483.88	323.29
484.25	323.82
484.61	324.43
484.98	325.07
485.34	325.95
485.71	326.94
486.07	327.95
486.44	328.51
486.80	329.57
487.17	330.70
487.53	332.10
487.90	333.42
488.26	335.10
488.62	336.83
488.99	338.39
489.35	340.21
489.72	342.15
490.08	344.04
490.44	346.15
490.81	348.37
491.17	350.52
491.54	353.04
491.90	355.56
492.26	358.27
492.63	361.15
492.99	363.92
493.36	367.07
493.72	370.39
494.08	373.79
494.45	377.53
494.81	381.47
495.17	385.35
495.54	389.70
495.90	393.97
496.26	398.34
496.63	403.06
496.99	407.81
497.35	412.94
497.72	418.32
498.08	423.89
498.44	429.53
498.80	435.68
499.17	441.75
499.53	448.07
499.89	454.72
500.26	461.60
500.62	468.85
500.98	476.23
501.34	483.72
501.71	491.52
502.07	499.45
502.43	507.61
502.79	516.03
503.16	524.60
503.52	533.48
503.88	542.82
504.24	552.38
504.60	562.53
504.97	572.74
505.33	583.11
505.69	594.12
506.05	605.37
506.41	616.43
506.78	628.20
507.14	640.40
507.50	652.80
507.86	665.50
508.22	678.30
508.59	691.52
508.95	705.23
509.31	719.42
509.67	733.71
510.03	747.95
510.39	762.74
510.75	777.95
511.12	793.48
511.48	809.13
511.84	824.82
512.20	840.82
512.56	857.06
512.92	874.16
513.28	891.15
513.64	908.36
514.00	926.10
514.37	943.69
514.73	961.82
515.09	980.15
515.45	998.58
515.81	1017.10
516.17	1035.80
516.53	1054.48
516.89	1073.44
517.25	1093.00
517.61	1113.42
517.97	1133.85
518.33	1154.15
518.69	1174.23
519.05	1195.04
519.41	1216.12
519.77	1237.16
520.13	1257.97
520.49	1278.80
520.85	1301.09
521.21	1322.39
521.57	1343.88
521.93	1365.00
522.29	1386.34
522.65	1407.19
523.01	1428.18
523.37	1448.92
523.73	1470.06
524.09	1490.65
524.45	1511.47
524.81	1532.30
525.17	1552.67
525.53	1573.21
525.89	1594.06
526.25	1615.28
526.61	1635.76
526.97	1656.69
527.33	1678.13
527.68	1700.20
528.04	1721.41
528.40	1741.13
528.76	1762.32
529.12	1782.85
529.48	1803.62
529.84	1823.69
530.20	1844.84
530.56	1865.49
530.91	1886.64
531.27	1907.21
531.63	1927.99
531.99	1948.50
532.35	1968.60
532.71	1989.40
533.07	2010.20
533.42	2029.98
533.78	2049.80
534.14	2069.72
534.50	2089.15
534.86	2108.14
535.21	2125.60
535.57	2144.36
535.93	2162.20
536.29	2179.87
536.65	2197.99
537.00	2215.97
537.36	2234.01
537.72	2250.77
538.08	2268.53
538.44	2285.41
538.79	2302.04
539.15	2318.90
539.51	2335.00
539.87	2350.64
540.22	2364.86
540.58	2379.24
540.94	2392.83
541.29	2405.76
541.65	2418.34
542.01	2430.49
542.37	2441.39
542.72	2452.79
543.08	2463.28
543.44	2474.98
543.79	2485.23
544.15	2495.19
544.51	2504.79
544.87	2514.25
545.22	2522.97
545.58	2530.43
545.94	2537.62
546.29	2543.98
546.65	2550.38
547.01	2556.10
547.36	2561.51
547.72	2566.92
548.07	2570.91
548.43	2576.42
548.79	2581.05
549.14	2585.43
549.50	2589.44
549.86	2593.72
550.21	2597.33
550.57	2600.85
550.92	2602.40
551.28	2603.60
551.64	2606.06
551.99	2608.42
552.35	2610.41
552.70	2612.46
553.06	2614.48
553.41	2615.89
553.77	2617.89
554.13	2619.45
554.48	2621.11
554.84	2622.51
555.19	2623.56
555.55	2625.12
555.90	2624.31
556.26	2623.55
556.61	2621.70
556.97	2619.98
557.32	2619.56
557.68	2618.73
558.03	2617.42
558.39	2616.29
558.74	2615.59
559.10	2612.30
559.45	2609.11
559.81	2604.23
560.16	2599.24
560.52	2594.24
560.87	2589.87
561.23	2584.27
561.58	2578.25
561.94	2571.35
562.29	2563.97
562.64	2557.01
563.00	2549.03
563.35	2542.40
563.71	2536.25
564.06	2530.42
564.42	2523.79
564.77	2516.76
565.12	2509.00
565.48	2501.15
565.83	2493.11
566.19	2485.27
566.54	2477.67
566.89	2469.15
567.25	2461.72
567.60	2454.52
567.96	2446.97
568.31	2438.66
568.66	2430.19
569.02	2421.10
569.37	2412.91
569.72	2405.56
570.08	2396.41
570.43	2386.96
570.78	2378.00
571.14	2368.04
571.49	2357.85
571.84	2348.30
572.20	2337.20
572.55	2327.18
572.90	2316.32
573.26	2305.94
573.61	2294.61
573.96	2283.00
574.31	2271.28
574.67	2259.13
575.02	2246.13
575.37	2233.33
575.72	2220.28
576.08	2208.26
576.43	2195.85
576.78	2182.75
577.13	2168.76
577.49	2156.02
577.84	2144.11
578.19	2131.89
578.54	2119.28
578.90	2107.07
579.25	2094.68
579.60	2082.00
579.95	2068.95
580.30	2055.64
580.66	2042.32
581.01	2028.83
581.36	2015.02
581.71	2002.14
582.06	1989.05
582.42	1976.55
582.77	1963.73
583.12	1951.86
583.47	1939.34
583.82	1927.26
584.17	1915.15
584.53	1903.30
584.88	1890.53
585.23	1877.25
585.58	1862.86
585.93	1849.67
586.28	1836.21
586.63	1822.08
586.98	1807.91
587.34	1794.59
587.69	1781.27
588.04	1768.47
588.39	1756.16
588.74	1744.11
589.09	1731.93
589.44	1719.42
589.79	1707.34
590.14	1695.43
590.49	1683.17
590.84	1670.78
591.19	1658.45
591.54	1646.22
591.89	1633.90
592.25	1623.38
592.60	1611.77
592.95	1600.47
593.30	1588.28
593.65	1576.16
594.00	1564.25
594.35	1554.55
594.70	1542.67
595.05	1531.37
595.40	1519.02
595.75	1507.14
596.10	1495.68
596.45	1484.17
596.80	1473.20
597.15	1461.46
597.50	1449.60
597.85	1438.00
598.19	1426.36
598.54	1414.67
598.89	1403.31
599.24	1392.70
599.59	1380.99
599.94	1370.16
600.29	1359.40
600.64	1349.32
600.99	1338.69
601.34	1328.67
601.69	1317.18
602.04	1307.25
602.39	1297.40
602.74	1288.36
603.08	1279.03
603.43	1269.81
603.78	1259.73
604.13	1249.93
604.48	1240.17
604.83	1230.42
605.18	1220.63
605.53	1211.03
605.87	1201.93
606.22	1193.19
606.57	1183.82
606.92	1174.26
607.27	1165.03
607.62	1156.21
607.96	1147.15
608.31	1139.16
608.66	1130.95
609.01	1122.39
609.36	1113.74
609.70	1105.17
610.05	1096.34
610.40	1087.49
610.75	1078.63
611.10	1070.25
611.44	1061.67
611.79	1053.54
612.14	1045.62
612.49	1037.53
612.83	1029.94
613.18	1022.19
613.53	1014.36
613.88	1006.25
614.22	998.55
614.57	990.76
614.92	982.88
615.27	975.54
615.61	967.71
615.96	959.95
616.31	952.37
616.65	945.29
617.00	937.72
617.35	930.44
617.70	923.32
618.04	916.05
618.39	909.17
618.74	902.61
619.08	895.66
619.43	888.52
619.78	881.56
620.12	874.52
620.47	867.40
620.82	860.16
621.16	853.45
621.51	847.07
621.85	840.74
622.20	833.95
622.55	827.15
622.89	820.58
623.24	814.05
623.59	807.60
623.93	801.13
624.28	795.14
624.62	789.58
624.97	783.80
625.32	777.99
625.66	771.86
626.01	765.62
626.35	760.11
626.70	754.58
627.04	749.36
627.39	743.67
627.73	738.32
628.08	733.16
628.43	727.53
628.77	721.92
629.12	716.65
629.46	711.93
629.81	707.34
630.15	702.51
630.50	697.62
630.84	692.76
631.19	687.98
631.53	683.28
631.88	677.88
632.22	672.83
632.57	668.40
632.91	663.84
633.26	659.48
633.60	654.80
633.95	650.19
634.29	645.39
634.64	641.01
634.98	636.30
635.32	631.87
635.67	627.87
636.01	623.56
636.36	619.13
636.70	615.01
637.05	610.60
637.39	606.49
637.73	602.45
638.08	598.35
638.42	594.24
638.77	589.76
639.11	585.36
639.45	581.05
639.80	576.49
640.14	572.44
640.49	568.33
640.83	564.46
641.17	560.72
641.52	556.88
641.86	553.29
642.20	550.13
642.55	546.31
642.89	542.68
643.23	539.23
643.58	535.99
643.92	532.36
644.26	528.97
644.61	525.50
644.95	521.98
645.29	518.62
645.64	515.30
645.98	512.33
646.32	509.42
646.66	506.40
647.01	503.49
647.35	500.62
647.69	497.79
648.04	495.00
648.38	492.25
648.72	489.33
649.06	486.33
649.41	483.14
649.75	480.27
650.09	477.47
650.43	474.56
650.78	471.77
651.12	468.98
651.46	466.11
651.80	463.38
652.14	460.82
652.49	458.35
652.83	455.77
653.17	453.07
653.51	450.38
653.85	447.94
654.20	445.53
654.54	442.81
654.88	440.20
655.22	437.80
655.56	435.16
655.90	432.83
656.25	430.57
656.59	428.37
656.93	426.16
657.27	423.88
657.61	421.47
657.95	419.15
658.29	416.92
658.64	414.86
658.98	412.56
659.32	410.23
659.66	407.96
660.00	405.92
660.34	403.81
660.68	401.79
661.02	399.80
661.36	397.73
661.70	395.72
662.05	393.87
662.39	391.83
662.73	390.02
663.07	388.42
663.41	386.45
663.75	384.51
664.09	382.59
664.43	380.76
664.77	379.18
665.11	377.30
665.45	375.64
665.79	374.04
666.13	372.38
666.47	370.72
666.81	369.07
667.15	367.24
667.49	365.77
667.83	364.50
668.17	362.91
668.51	361.46
668.85	360.11
669.19	358.88
669.53	357.45
669.87	355.99
670.21	354.32
670.55	352.92
670.89	351.74
671.23	350.45
671.57	349.07
671.91	347.63
672.25	346.30
672.58	345.07
672.92	343.60
673.26	342.31
673.60	341.15
673.94	339.95
674.28	338.84
674.62	337.65
674.96	336.26
675.30	335.08
675.64	333.94
675.97	332.74
676.31	331.37
676.65	330.19
676.99	329.10
677.33	327.96
677.67	327.00
678.01	325.67
678.34	324.70
678.68	323.67
679.02	322.63
679.36	321.58
679.70	320.48
680.04	319.51
680.37	318.63
680.71	317.65
681.05	316.74
681.39	315.90
681.73	314.87
682.06	313.93
682.40	313.05
682.74	312.11
683.08	311.39
683.42	310.43
683.75	309.64
684.09	308.67
684.43	307.79
684.77	306.82
685.10	306.08
685.44	305.23
685.78	304.39
686.12	303.64
686.45	302.90
686.79	302.06
687.13	301.41
687.46	300.61
687.80	300.00
688.14	299.13
688.48	298.25
688.81	297.53
689.15	296.93
689.49	296.22
689.82	295.46
690.16	294.59
690.50	293.92
690.83	293.15
691.17	292.46
691.51	291.84
691.84	291.30
692.18	290.55
692.52	289.85
692.85	289.31
693.19	288.84
693.52	288.26
693.86	287.67
694.20	286.88
694.53	286.29
694.87	285.58
695.21	284.93
695.54	284.35
695.88	283.63
696.21	282.83
696.55	282.18
696.88	281.63
697.22	280.96
697.56	280.50
697.89	279.87
698.23	279.39
698.56	278.83
698.90	278.33
699.23	277.82
699.57	277.30
699.90	276.65
700.24	275.97
700.58	275.54
700.91	275.13
701.25	275.08
701.58	274.92
701.92	274.56
702.25	274.23
702.59	273.75
702.92	273.45
703.26	273.07
703.59	272.73
703.93	272.68
704.26	272.42
704.60	271.96
704.93	271.63
705.26	271.15
705.60	270.81
705.93	270.17
706.27	269.93
706.60	269.65
706.94	269.47
707.27	269.10
707.61	268.65
707.94	268.23
708.27	267.47
708.61	266.73
708.94	266.29
709.28	265.87
709.61	265.50
709.94	265.12
710.28	264.71
710.61	264.25
710.95	263.40
711.28	263.30
711.61	262.86
711.95	262.56
712.28	262.20
712.61	261.79
712.95	261.82
713.28	261.61
713.61	261.16
713.95	260.69
714.28	260.37
714.61	260.00
714.95	259.63
715.28	259.22
715.61	258.91
715.95	258.52
716.28	258.17
716.61	257.94
716.95	257.52
717.28	257.28
717.61	257.03
717.94	256.77
718.28	256.13
718.61	255.84
718.94	255.45
719.27	255.12
719.61	254.82
719.94	254.39
720.27	253.82
720.60	253.56
720.94	253.33
721.27	253.12
721.60	252.97
721.93	252.72
722.27	252.64
722.60	252.45
722.93	252.22
723.26	252.00
723.59	251.67
723.93	251.55
724.26	251.29
724.59	250.95
724.92	250.72
725.25	250.67
725.59	250.53
725.92	250.34
726.25	250.20
726.58	250.07
726.91	249.77
727.24	249.65
727.57	249.42
727.91	249.05
728.24	248.83
728.57	248.62
728.90	248.50
729.23	248.19
729.56	248.17
729.89	248.04
730.22	247.85
730.55	247.66
730.89	247.50
731.22	247.30
731.55	247.26
731.88	247.15
732.21	246.82
732.54	246.57
732.87	246.41
733.20	246.27
733.53	246.06
733.86	246.01
734.19	245.76
734.52	245.69
734.85	245.96
735.18	245.80
735.51	245.77
735.84	245.61
736.17	245.59
736.50	245.22
736.83	245.64
737.16	245.49
737.49	245.32
737.82	245.08
738.15	244.99
738.48	244.77
738.81	244.63
739.14	244.38
739.47	244.22
739.80	244.04
740.13	243.90
740.46	243.75
740.79	243.47
741.12	243.41
741.45	243.17
741.78	242.70
742.11	242.63
742.44	242.32
742.77	242.21
743.10	241.99
743.43	241.83
743.75	241.15
744.08	241.56
744.41	241.43
744.74	241.28
745.07	241.03
745.40	240.99
745.73	241.06
746.06	240.96
746.39	240.87
746.71	240.76
747.04	240.52
747.37	240.41
747.70	240.44
748.03	240.36
748.36	240.32
748.68	240.16
749.01	239.92
749.34	239.81
749.67	239.69
750.00	239.59
750.33	239.87
750.65	239.75
750.98	239.11
751.31	239.10
751.64	239.05
751.97	239.22
752.29	239.06
752.62	238.70
752.95	238.66
753.28	238.50
753.60	238.39
753.93	238.43
754.26	238.34
754.59	238.08
754.91	237.96
755.24	237.78
755.57	237.77
755.90	237.68
756.22	237.54
756.55	237.38
756.88	237.21
757.20	236.77
757.53	236.58
757.86	236.52
758.19	236.36
758.51	236.22
758.84	235.90
759.17	235.79
759.49	235.75
759.82	235.90
760.15	235.85
760.47	235.76
760.80	235.63
761.13	235.53
761.45	235.40
761.78	235.27
762.11	235.23
762.43	235.03
762.76	234.85
763.08	234.77
763.41	234.70
763.74	234.55
764.06	234.43
764.39	234.37
764.71	234.22
765.04	234.12
765.37	234.09
765.69	234.03
766.02	233.90
766.34	233.77
766.67	233.50
767.00	233.49
767.32	233.65
767.65	233.88
767.97	233.79
768.30	233.83
768.62	233.79
768.95	233.62
769.27	233.57
769.60	233.61
769.92	233.55
770.25	233.41
770.57	233.36
770.90	233.25
771.22	233.13
771.55	233.05
771.87	233.00
772.20	232.87
772.52	233.21
772.85	233.83
773.17	233.76
773.50	233.69
773.82	233.62
774.15	233.33
774.47	232.90
774.80	232.83
775.12	232.73
775.45	232.62
775.77	232.68
776.09	232.68
776.42	232.70
776.74	232.76
777.07	232.75
777.39	232.75
777.72	232.77
778.04	232.90
778.36	232.81
778.69	232.82
779.01	232.86
779.33	232.32
779.66	231.69
779.98	231.71
780.31	231.67
780.63	231.81
780.95	231.86
781.28	231.87
781.60	231.77
781.92	231.78
782.25	231.77
782.57	231.73
782.89	231.67
783.22	231.56
783.54	231.45
783.86	231.41
784.19	231.36
784.51	231.44
784.83	231.29
785.16	231.22
785.48	231.19
785.80	231.18
786.12	231.24
786.45	231.29
786.77	231.21
787.09	231.12
787.42	230.91
787.74	230.90
788.06	230.91
788.38	230.90
788.71	230.83
789.03	230.77
789.35	230.78
789.67	230.73
789.99	230.73
790.32	230.65
790.64	230.66
790.96	230.99
791.28	230.84
791.61	230.76
791.93	230.82
792.25	230.76
792.57	231.04
792.89	231.05
793.21	231.03
793.54	231.02
793.86	230.98
794.18	230.97
794.50	230.88
794.82	230.79
795.14	230.85
795.47	230.93
795.79	230.96
796.11	230.77
796.43	230.66
796.75	230.61
797.07	230.55
797.39	230.54
797.71	230.23
798.04	230.20
798.36	230.24
798.68	230.19
799.00	230.14
799.32	229.80
799.64	229.82
799.96	229.79
800.28	229.83
800.60	229.86
800.92	229.84
801.24	229.72
801.56	229.75
801.89	229.60
802.21	229.53
802.53	229.45
802.85	229.58
803.17	229.87
803.49	229.79
803.81	229.85
804.13	229.82
804.45	229.72
804.77	229.67
805.09	229.65
805.41	229.55
805.73	229.53
806.05	229.44
806.37	229.37
806.69	229.22
807.01	229.15
807.33	229.13
807.65	228.95
807.97	229.21
808.28	229.21
808.60	229.24
808.92	229.13
809.24	229.41
809.56	229.35
809.88	229.05
810.20	229.08
810.52	229.13
810.84	229.05
811.16	228.96
811.48	229.02
811.80	229.15
812.12	229.18
812.43	229.19
812.75	229.25
813.07	229.23
813.39	229.34
813.71	229.25
814.03	229.26
814.35	229.35
814.67	229.17
814.98	229.06
815.30	229.09
815.62	229.07
815.94	228.76
816.26	228.95
816.58	228.94
816.89	228.92
817.21	228.78
817.53	228.78
817.85	228.84
