SpectraSuite Data File
++++++++++++++++++++++++++++++++++++
Date: Wed Sep 04 17:54:50 EDT 2013
User: lab3
Dark Spectrum Present: Yes
Reference Spectrum Present: No
Number of Sampled Component Spectra: 1
Spectrometers: USB2E7196
Integration Time (usec): 170000 (USB2E7196)
Spectra Averaged: 20 (USB2E7196)
Boxcar Smoothing: 10 (USB2E7196)
Correct for Electrical Dark: No (USB2E7196)
Strobe/Lamp Enabled: No (USB2E7196)
Correct for Detector Non-linearity: No (USB2E7196)
Correct for Stray Light: No (USB2E7196)
Number of Pixels in Processed Spectrum: 2048
>>>>>Begin Processed Spectral Data<<<<<
339.09	0.00
339.48	213.85
339.86	213.75
340.24	216.70
340.63	216.65
341.01	227.55
341.39	220.45
341.78	221.70
342.16	224.95
342.54	223.60
342.93	212.55
343.31	223.23
343.69	223.82
344.07	224.37
344.46	224.77
344.84	225.20
345.22	225.11
345.60	225.42
345.99	225.60
346.37	225.69
346.75	225.78
347.13	225.80
347.52	225.88
347.90	226.16
348.28	226.15
348.66	226.17
349.05	226.06
349.43	226.08
349.81	226.18
350.19	226.20
350.57	226.28
350.96	226.37
351.34	226.47
351.72	226.50
352.10	226.52
352.48	226.60
352.87	226.64
353.25	226.73
353.63	226.70
354.01	226.76
354.39	226.79
354.77	226.84
355.15	227.04
355.54	227.04
355.92	226.94
356.30	227.06
356.68	227.45
357.06	227.61
357.44	227.62
357.82	227.61
358.20	228.08
358.58	228.14
358.97	228.23
359.35	228.39
359.73	228.53
360.11	228.64
360.49	228.80
360.87	228.88
361.25	228.92
361.63	229.12
362.01	229.22
362.39	229.22
362.77	229.39
363.15	229.32
363.53	229.40
363.91	229.45
364.29	229.44
364.67	229.13
365.05	229.10
365.43	229.26
365.81	229.38
366.19	229.21
366.57	229.42
366.95	229.39
367.33	229.28
367.71	229.28
368.09	229.40
368.47	229.30
368.85	229.24
369.23	229.35
369.61	229.17
369.99	229.30
370.37	229.38
370.75	229.54
371.13	229.51
371.51	229.41
371.89	229.45
372.27	229.47
372.65	229.47
373.03	229.49
373.41	229.38
373.78	229.24
374.16	228.97
374.54	228.79
374.92	228.71
375.30	228.73
375.68	228.56
376.06	228.51
376.44	228.39
376.82	228.39
377.19	228.32
377.57	228.25
377.95	228.00
378.33	227.92
378.71	227.58
379.09	227.61
379.47	227.62
379.84	227.38
380.22	227.26
380.60	227.04
380.98	226.88
381.36	226.81
381.73	226.71
382.11	226.66
382.49	226.60
382.87	226.46
383.25	226.30
383.62	226.85
384.00	226.70
384.38	226.71
384.76	226.73
385.13	226.84
385.51	226.82
385.89	226.80
386.27	226.83
386.64	226.84
387.02	226.71
387.40	226.59
387.78	226.72
388.15	226.78
388.53	226.75
388.91	226.75
389.29	226.71
389.66	226.81
390.04	226.77
390.42	226.83
390.79	226.86
391.17	226.87
391.55	226.26
391.92	226.20
392.30	226.24
392.68	226.14
393.05	226.07
393.43	226.11
393.81	226.14
394.18	226.05
394.56	226.14
394.94	226.24
395.31	226.28
395.69	226.48
396.06	226.51
396.44	226.60
396.82	226.58
397.19	226.80
397.57	226.81
397.95	226.94
398.32	226.89
398.70	226.97
399.07	227.17
399.45	227.29
399.82	227.42
400.20	227.45
400.58	227.64
400.95	227.58
401.33	227.78
401.70	228.20
402.08	228.37
402.45	228.42
402.83	228.70
403.20	228.93
403.58	228.96
403.95	229.20
404.33	229.50
404.71	229.79
405.08	230.21
405.46	230.47
405.83	230.73
406.21	230.95
406.58	231.31
406.96	231.56
407.33	231.92
407.70	232.28
408.08	232.99
408.45	233.41
408.83	233.88
409.20	234.27
409.58	234.51
409.95	235.05
410.33	235.71
410.70	236.07
411.08	236.67
411.45	237.33
411.82	237.82
412.20	238.54
412.57	239.48
412.95	239.81
413.32	240.69
413.69	241.53
414.07	242.51
414.44	243.45
414.82	244.51
415.19	245.67
415.56	246.93
415.94	247.93
416.31	249.30
416.68	250.71
417.06	252.35
417.43	253.86
417.81	255.59
418.18	257.34
418.55	259.23
418.93	261.26
419.30	263.36
419.67	265.68
420.04	267.91
420.42	270.19
420.79	273.35
421.16	276.16
421.54	279.21
421.91	282.17
422.28	285.25
422.66	288.53
423.03	291.92
423.40	295.21
423.77	298.80
424.15	302.44
424.52	306.31
424.89	310.44
425.26	314.41
425.64	318.21
426.01	322.38
426.38	326.69
426.75	331.18
427.13	335.65
427.50	340.38
427.87	345.31
428.24	350.22
428.61	354.62
428.99	359.79
429.36	365.32
429.73	370.87
430.10	376.43
430.47	382.10
430.85	387.80
431.22	393.88
431.59	400.55
431.96	406.76
432.33	413.64
432.70	420.23
433.08	428.16
433.45	435.41
433.82	442.56
434.19	450.91
434.56	459.02
434.93	466.59
435.30	474.46
435.68	482.85
436.05	491.22
436.42	499.69
436.79	507.34
437.16	515.53
437.53	524.23
437.90	532.91
438.27	541.48
438.64	550.44
439.01	558.75
439.38	566.06
439.75	573.20
440.13	581.26
440.50	588.92
440.87	594.94
441.24	601.49
441.61	608.78
441.98	613.88
442.35	619.77
442.72	626.01
443.09	631.77
443.46	635.38
443.83	637.79
444.20	639.75
444.57	642.44
444.94	643.57
445.31	644.78
445.68	646.11
446.05	646.32
446.42	644.90
446.79	643.50
447.16	641.78
447.53	640.47
447.90	636.71
448.27	632.94
448.64	628.12
449.01	624.37
449.37	618.13
449.74	611.98
450.11	605.06
450.48	597.37
450.85	589.39
451.22	582.60
451.59	576.01
451.96	569.62
452.33	561.69
452.70	554.41
453.07	545.71
453.43	536.52
453.80	528.04
454.17	519.87
454.54	512.13
454.91	503.97
455.28	496.02
455.65	488.49
456.02	481.68
456.38	475.32
456.75	467.62
457.12	461.11
457.49	454.92
457.86	448.57
458.23	443.30
458.59	437.62
458.96	431.86
459.33	426.70
459.70	421.65
460.07	417.50
460.43	412.78
460.80	408.50
461.17	404.79
461.54	400.89
461.91	397.25
462.27	393.43
462.64	390.26
463.01	386.77
463.38	383.52
463.74	379.52
464.11	376.45
464.48	373.84
464.85	370.94
465.21	368.71
465.58	366.38
465.95	363.56
466.32	361.35
466.68	359.06
467.05	356.88
467.42	354.56
467.78	352.23
468.15	350.08
468.52	348.50
468.88	346.36
469.25	344.43
469.62	342.92
469.98	341.39
470.35	339.83
470.72	338.26
471.08	336.48
471.45	335.27
471.82	334.08
472.18	332.52
472.55	331.45
472.92	330.09
473.28	328.94
473.65	327.86
474.02	326.70
474.38	325.70
474.75	324.94
475.11	324.10
475.48	323.43
475.85	322.76
476.21	322.12
476.58	321.56
476.94	321.13
477.31	320.60
477.67	320.11
478.04	319.73
478.41	319.64
478.77	319.98
479.14	319.61
479.50	319.50
479.87	319.53
480.23	319.65
480.60	319.64
480.96	319.72
481.33	320.06
481.69	320.30
482.06	320.65
482.42	320.76
482.79	321.16
483.15	321.57
483.52	322.12
483.88	322.43
484.25	323.01
484.61	323.60
484.98	324.35
485.34	325.34
485.71	326.28
486.07	327.19
486.44	327.85
486.80	329.00
487.17	330.03
487.53	331.44
487.90	332.82
488.26	334.54
488.62	336.19
488.99	337.63
489.35	339.39
489.72	341.25
490.08	343.43
490.44	345.47
490.81	347.71
491.17	349.97
491.54	352.54
491.90	355.16
492.26	357.90
492.63	360.80
492.99	363.67
493.36	366.76
493.72	370.06
494.08	373.47
494.45	377.11
494.81	381.04
495.17	384.90
495.54	388.99
495.90	393.27
496.26	397.80
496.63	402.51
496.99	407.32
497.35	412.33
497.72	417.59
498.08	423.09
498.44	428.69
498.80	434.79
499.17	440.83
499.53	447.06
499.89	453.74
500.26	460.40
500.62	467.37
500.98	474.82
501.34	482.28
501.71	490.03
502.07	497.87
502.43	506.04
502.79	514.50
503.16	523.14
503.52	532.00
503.88	541.16
504.24	550.81
504.60	560.73
504.97	570.96
505.33	581.30
505.69	592.42
506.05	603.54
506.41	614.78
506.78	626.44
507.14	638.41
507.50	650.64
507.86	663.24
508.22	676.23
508.59	689.06
508.95	702.56
509.31	716.74
509.67	730.89
510.03	745.01
510.39	759.68
510.75	774.85
511.12	790.10
511.48	805.59
511.84	821.25
512.20	837.10
512.56	853.66
512.92	870.43
513.28	887.04
513.64	904.28
514.00	921.72
514.37	939.22
514.73	957.55
515.09	975.96
515.45	994.43
515.81	1012.82
516.17	1031.89
516.53	1050.55
516.89	1069.24
517.25	1088.70
517.61	1109.06
517.97	1129.27
518.33	1149.31
518.69	1169.48
519.05	1190.02
519.41	1210.84
519.77	1231.99
520.13	1252.51
520.49	1273.06
520.85	1295.54
521.21	1316.53
521.57	1337.77
521.93	1358.67
522.29	1380.01
522.65	1400.30
523.01	1421.14
523.37	1441.81
523.73	1462.70
524.09	1483.55
524.45	1504.27
524.81	1525.02
525.17	1545.46
525.53	1566.03
525.89	1586.84
526.25	1607.83
526.61	1628.09
526.97	1648.76
527.33	1669.93
527.68	1692.05
528.04	1713.51
528.40	1732.77
528.76	1753.94
529.12	1774.52
529.48	1795.36
529.84	1815.15
530.20	1836.41
530.56	1856.98
530.91	1877.86
531.27	1898.39
531.63	1918.94
531.99	1939.41
532.35	1959.31
532.71	1979.60
533.07	2000.03
533.42	2019.74
533.78	2039.91
534.14	2060.19
534.50	2079.57
534.86	2098.46
535.21	2115.58
535.57	2134.22
535.93	2152.08
536.29	2169.62
536.65	2187.63
537.00	2204.99
537.36	2222.39
537.72	2238.81
538.08	2256.07
538.44	2272.64
538.79	2288.90
539.15	2305.34
539.51	2321.18
539.87	2336.67
540.22	2350.82
540.58	2365.26
540.94	2378.79
541.29	2391.00
541.65	2403.18
542.01	2415.59
542.37	2426.11
542.72	2437.12
543.08	2447.42
543.44	2459.00
543.79	2469.15
544.15	2479.16
544.51	2489.77
544.87	2499.29
545.22	2507.91
545.58	2515.42
545.94	2522.47
546.29	2529.10
546.65	2535.51
547.01	2541.06
547.36	2546.55
547.72	2551.83
548.07	2555.80
548.43	2561.00
548.79	2565.69
549.14	2569.86
549.50	2573.56
549.86	2577.98
550.21	2581.70
550.57	2585.00
550.92	2586.52
551.28	2588.00
551.64	2590.24
551.99	2591.79
552.35	2593.82
552.70	2595.99
553.06	2597.87
553.41	2599.17
553.77	2600.59
554.13	2602.26
554.48	2604.16
554.84	2605.47
555.19	2606.54
555.55	2608.26
555.90	2607.50
556.26	2606.62
556.61	2605.08
556.97	2603.31
557.32	2602.74
557.68	2601.39
558.03	2600.15
558.39	2598.92
558.74	2597.52
559.10	2594.05
559.45	2590.62
559.81	2585.81
560.16	2580.65
560.52	2575.75
560.87	2571.55
561.23	2566.30
561.58	2559.99
561.94	2552.65
562.29	2545.25
562.64	2538.54
563.00	2530.07
563.35	2523.46
563.71	2516.66
564.06	2510.59
564.42	2503.87
564.77	2496.48
565.12	2489.04
565.48	2481.25
565.83	2473.23
566.19	2465.67
566.54	2457.94
566.89	2449.53
567.25	2441.89
567.60	2434.73
567.96	2427.25
568.31	2419.16
568.66	2410.49
569.02	2401.24
569.37	2393.31
569.72	2385.93
570.08	2376.36
570.43	2367.03
570.78	2357.73
571.14	2348.41
571.49	2338.09
571.84	2328.39
572.20	2317.40
572.55	2307.10
572.90	2295.95
573.26	2285.51
573.61	2274.22
573.96	2263.01
574.31	2251.12
574.67	2238.98
575.02	2226.18
575.37	2213.09
575.72	2199.72
576.08	2187.53
576.43	2175.46
576.78	2162.38
577.13	2148.36
577.49	2135.78
577.84	2124.04
578.19	2112.15
578.54	2099.79
578.90	2088.00
579.25	2075.65
579.60	2063.60
579.95	2050.83
580.30	2037.98
580.66	2024.58
581.01	2011.01
581.36	1997.09
581.71	1984.64
582.06	1972.03
582.42	1959.62
582.77	1947.26
583.12	1935.39
583.47	1923.02
583.82	1910.83
584.17	1898.89
584.53	1887.35
584.88	1874.28
585.23	1861.27
585.58	1847.15
585.93	1833.88
586.28	1820.24
586.63	1806.26
586.98	1791.96
587.34	1779.07
587.69	1765.98
588.04	1753.34
588.39	1741.42
588.74	1729.59
589.09	1717.45
589.44	1704.86
589.79	1692.52
590.14	1680.71
590.49	1668.58
590.84	1656.79
591.19	1644.90
591.54	1632.36
591.89	1620.00
592.25	1610.05
592.60	1598.14
592.95	1586.76
593.30	1574.91
593.65	1563.20
594.00	1551.23
594.35	1541.63
594.70	1529.66
595.05	1518.02
595.40	1506.07
595.75	1493.99
596.10	1482.48
596.45	1471.10
596.80	1460.19
597.15	1449.10
597.50	1437.15
597.85	1425.96
598.19	1414.03
598.54	1402.35
598.89	1391.22
599.24	1380.70
599.59	1369.07
599.94	1358.47
600.29	1348.11
600.64	1337.72
600.99	1326.70
601.34	1317.34
601.69	1305.92
602.04	1295.92
602.39	1286.30
602.74	1277.33
603.08	1268.22
603.43	1258.97
603.78	1249.21
604.13	1239.54
604.48	1229.88
604.83	1220.31
605.18	1210.63
605.53	1201.28
605.87	1192.12
606.22	1183.78
606.57	1174.40
606.92	1164.94
607.27	1155.86
607.62	1147.06
607.96	1138.54
608.31	1130.81
608.66	1122.35
609.01	1113.94
609.36	1105.73
609.70	1097.04
610.05	1088.18
610.40	1079.72
610.75	1071.01
611.10	1062.57
611.44	1054.00
611.79	1045.72
612.14	1037.94
612.49	1029.96
612.83	1022.46
613.18	1014.79
613.53	1007.00
613.88	999.17
614.22	991.71
614.57	983.88
614.92	975.90
615.27	968.46
615.61	960.71
615.96	952.95
616.31	945.50
616.65	938.27
617.00	931.09
617.35	924.00
617.70	916.87
618.04	909.77
618.39	902.81
618.74	896.49
619.08	889.79
619.43	882.72
619.78	875.72
620.12	868.58
620.47	861.51
620.82	854.38
621.16	847.64
621.51	841.09
621.85	834.86
622.20	828.31
622.55	821.56
622.89	815.24
623.24	809.15
623.59	802.68
623.93	796.40
624.28	790.44
624.62	784.76
624.97	778.97
625.32	773.18
625.66	767.32
626.01	761.16
626.35	755.75
626.70	750.28
627.04	745.02
627.39	739.67
627.73	734.55
628.08	729.37
628.43	723.87
628.77	718.42
629.12	713.07
629.46	708.29
629.81	703.53
630.15	698.78
630.50	693.80
630.84	688.97
631.19	684.05
631.53	679.48
631.88	674.14
632.22	669.21
632.57	664.76
632.91	660.22
633.26	655.82
633.60	650.95
633.95	646.25
634.29	641.47
634.64	636.86
634.98	631.92
635.32	627.51
635.67	623.55
636.01	619.40
636.36	615.18
636.70	611.08
637.05	606.94
637.39	602.67
637.73	598.56
638.08	594.64
638.42	590.55
638.77	586.17
639.11	582.02
639.45	577.60
639.80	573.03
640.14	568.81
640.49	564.87
640.83	561.21
641.17	557.62
641.52	553.98
641.86	550.48
642.20	547.35
642.55	543.67
642.89	539.97
643.23	536.37
643.58	533.23
643.92	529.62
644.26	526.09
644.61	522.86
644.95	519.54
645.29	516.10
645.64	512.93
645.98	509.85
646.32	506.87
646.66	503.84
647.01	501.00
647.35	498.31
647.69	495.44
648.04	492.48
648.38	489.61
648.72	486.76
649.06	483.77
649.41	480.75
649.75	477.79
650.09	475.17
650.43	472.44
650.78	469.42
651.12	466.59
651.46	463.85
651.80	460.97
652.14	458.24
652.49	455.83
652.83	453.29
653.17	450.60
653.51	447.94
653.85	445.74
654.20	443.18
654.54	440.60
654.88	437.91
655.22	435.64
655.56	433.24
655.90	430.83
656.25	428.55
656.59	426.37
656.93	424.30
657.27	422.00
657.61	419.56
657.95	417.23
658.29	415.07
658.64	412.96
658.98	410.83
659.32	408.53
659.66	406.27
660.00	404.08
660.34	402.10
660.68	400.04
661.02	397.88
661.36	396.15
661.70	394.12
662.05	392.19
662.39	390.21
662.73	388.50
663.07	386.96
663.41	385.15
663.75	383.21
664.09	381.26
664.43	379.34
664.77	377.74
665.11	376.08
665.45	374.49
665.79	372.82
666.13	371.10
666.47	369.45
666.81	367.84
667.15	366.10
667.49	364.53
667.83	363.20
668.17	361.66
668.51	360.12
668.85	358.81
669.19	357.72
669.53	356.20
669.87	354.57
670.21	352.93
670.55	351.57
670.89	350.43
671.23	349.16
671.57	347.83
671.91	346.47
672.25	345.09
672.58	343.88
672.92	342.52
673.26	341.30
673.60	340.24
673.94	339.11
674.28	338.11
674.62	337.02
674.96	335.72
675.30	334.61
675.64	333.45
675.97	332.17
676.31	330.78
676.65	329.57
676.99	328.66
677.33	327.44
677.67	326.29
678.01	324.98
678.34	323.83
678.68	322.88
679.02	321.84
679.36	320.82
679.70	319.75
680.04	318.80
680.37	318.00
680.71	316.94
681.05	315.95
681.39	315.00
681.73	314.05
682.06	313.20
682.40	312.28
682.74	311.37
683.08	310.71
683.42	309.81
683.75	309.06
684.09	308.05
684.43	307.30
684.77	306.48
685.10	305.77
685.44	305.00
685.78	304.28
686.12	303.43
686.45	302.81
686.79	301.96
687.13	301.35
687.46	300.52
687.80	299.92
688.14	299.06
688.48	298.33
688.81	297.53
689.15	296.85
689.49	296.17
689.82	295.51
690.16	294.61
690.50	293.91
690.83	293.23
691.17	292.55
691.51	291.92
691.84	291.39
692.18	290.58
692.52	289.89
692.85	289.19
693.19	288.87
693.52	288.13
693.86	287.53
694.20	286.84
694.53	286.19
694.87	285.53
695.21	284.93
695.54	284.40
695.88	283.84
696.21	283.09
696.55	282.45
696.88	281.80
697.22	281.25
697.56	280.68
697.89	280.02
698.23	279.59
698.56	279.02
698.90	278.48
699.23	277.98
699.57	277.49
699.90	276.91
700.24	276.13
700.58	275.67
700.91	275.28
701.25	275.16
701.58	275.05
701.92	274.62
702.25	274.25
702.59	273.75
702.92	273.26
703.26	272.88
703.59	272.51
703.93	272.46
704.26	272.12
704.60	271.67
704.93	271.24
705.26	270.71
705.60	270.39
705.93	269.74
706.27	269.50
706.60	269.33
706.94	269.12
707.27	268.69
707.61	268.35
707.94	267.98
708.27	267.30
708.61	266.56
708.94	266.16
709.28	265.80
709.61	265.43
709.94	265.03
710.28	264.71
710.61	264.37
710.95	263.59
711.28	263.51
711.61	263.17
711.95	262.94
712.28	262.54
712.61	262.12
712.95	262.14
713.28	262.01
713.61	261.51
713.95	261.08
714.28	260.84
714.61	260.50
714.95	260.07
715.28	259.61
715.61	259.21
715.95	258.92
716.28	258.59
716.61	258.28
716.95	257.94
717.28	257.64
717.61	257.22
717.94	256.93
718.28	256.22
718.61	255.98
718.94	255.63
719.27	255.37
719.61	255.17
719.94	254.67
720.27	254.09
720.60	253.82
720.94	253.49
721.27	253.24
721.60	253.08
721.93	252.77
722.27	252.62
722.60	252.55
722.93	252.14
723.26	251.88
723.59	251.64
723.93	251.53
724.26	251.28
724.59	251.08
724.92	250.91
725.25	250.89
725.59	250.65
725.92	250.54
726.25	250.33
726.58	250.13
726.91	249.95
727.24	249.84
727.57	249.61
727.91	249.40
728.24	249.22
728.57	248.96
728.90	248.88
729.23	248.61
729.56	248.58
729.89	248.50
730.22	248.33
730.55	248.09
730.89	247.92
731.22	247.70
731.55	247.48
731.88	247.36
732.21	247.06
732.54	246.75
732.87	246.55
733.20	246.37
733.53	246.19
733.86	246.03
734.19	245.78
734.52	245.66
734.85	245.88
735.18	245.64
735.51	245.59
735.84	245.50
736.17	245.46
736.50	245.03
736.83	245.37
737.16	245.21
737.49	245.13
737.82	244.91
738.15	244.87
738.48	244.72
738.81	244.44
739.14	244.19
739.47	244.10
739.80	243.97
740.13	243.92
740.46	243.69
740.79	243.56
741.12	243.37
741.45	243.15
741.78	242.74
742.11	242.79
742.44	242.57
742.77	242.43
743.10	242.17
743.43	242.03
743.75	241.40
744.08	241.85
744.41	241.67
744.74	241.49
745.07	241.26
745.40	241.27
745.73	241.35
746.06	241.33
746.39	241.26
746.71	241.03
747.04	240.82
747.37	240.70
747.70	240.61
748.03	240.63
748.36	240.68
748.68	240.52
749.01	240.20
749.34	240.07
749.67	240.00
750.00	240.00
750.33	240.26
750.65	240.27
750.98	239.54
751.31	239.43
751.64	239.45
751.97	239.60
752.29	239.49
752.62	239.27
752.95	239.09
753.28	238.94
753.60	238.83
753.93	238.90
754.26	238.84
754.59	238.58
754.91	238.40
755.24	238.17
755.57	238.08
755.90	238.10
756.22	237.95
756.55	237.71
756.88	237.52
757.20	237.12
757.53	236.85
757.86	236.77
758.19	236.69
758.51	236.56
758.84	236.21
759.17	236.05
759.49	235.95
759.82	236.12
760.15	236.09
760.47	236.03
760.80	235.77
761.13	235.75
761.45	235.72
761.78	235.59
762.11	235.51
762.43	235.42
762.76	235.25
763.08	235.21
763.41	235.24
763.74	235.13
764.06	235.03
764.39	234.97
764.71	234.90
765.04	234.80
765.37	234.64
765.69	234.57
766.02	234.49
766.34	234.38
766.67	234.04
767.00	233.99
767.32	234.16
767.65	234.44
767.97	234.26
768.30	234.20
768.62	234.14
768.95	234.00
769.27	233.84
769.60	233.86
769.92	233.67
770.25	233.47
770.57	233.40
770.90	233.24
771.22	233.11
771.55	233.06
771.87	233.04
772.20	232.98
772.52	233.35
772.85	233.76
773.17	233.61
773.50	233.60
773.82	233.43
774.15	233.09
774.47	232.65
774.80	232.53
775.12	232.46
775.45	232.41
775.77	232.49
776.09	232.48
776.42	232.30
776.74	232.44
777.07	232.43
777.39	232.40
777.72	232.46
778.04	232.47
778.36	232.38
778.69	232.31
779.01	232.30
779.33	231.80
779.66	231.27
779.98	231.24
780.31	231.21
780.63	231.43
780.95	231.51
781.28	231.47
781.60	231.52
781.92	231.44
782.25	231.40
782.57	231.30
782.89	231.29
783.22	231.29
783.54	231.15
783.86	231.08
784.19	230.98
784.51	231.08
784.83	231.00
785.16	230.97
785.48	230.93
785.80	230.88
786.12	230.88
786.45	230.89
786.77	230.90
787.09	230.87
787.42	230.67
787.74	230.69
788.06	230.74
788.38	230.67
788.71	230.66
789.03	230.60
789.35	230.62
789.67	230.48
789.99	230.44
790.32	230.31
790.64	230.35
790.96	230.70
791.28	230.48
791.61	230.37
791.93	230.35
792.25	230.35
792.57	230.67
792.89	230.59
793.21	230.58
793.54	230.56
793.86	230.46
794.18	230.41
794.50	230.34
794.82	230.29
795.14	230.31
795.47	230.32
795.79	230.39
796.11	230.26
796.43	230.25
796.75	230.30
797.07	230.30
797.39	230.29
797.71	229.92
798.04	229.89
798.36	229.96
798.68	229.95
799.00	229.92
799.32	229.63
799.64	229.75
799.96	229.71
800.28	229.70
800.60	229.64
800.92	229.67
801.24	229.61
801.56	229.62
801.89	229.56
802.21	229.55
802.53	229.43
802.85	229.54
803.17	229.84
803.49	229.68
803.81	229.67
804.13	229.59
804.45	229.57
804.77	229.65
805.09	229.60
805.41	229.46
805.73	229.38
806.05	229.25
806.37	229.15
806.69	229.04
807.01	229.03
807.33	229.07
807.65	228.83
807.97	228.91
808.28	228.74
808.60	228.71
808.92	228.67
809.24	228.86
809.56	228.74
809.88	228.48
810.20	228.42
810.52	228.47
810.84	228.41
811.16	228.39
811.48	228.30
811.80	228.45
812.12	228.47
812.43	228.54
812.75	228.53
813.07	228.40
813.39	228.41
813.71	228.28
814.03	228.24
814.35	228.30
814.67	228.10
814.98	228.06
815.30	228.06
815.62	227.93
815.94	227.67
816.26	227.85
816.58	227.65
816.89	227.72
817.21	227.66
817.53	227.64
817.85	227.58
