SpectraSuite Data File
++++++++++++++++++++++++++++++++++++
Date: Wed Sep 04 17:49:33 EDT 2013
User: lab3
Dark Spectrum Present: Yes
Reference Spectrum Present: No
Number of Sampled Component Spectra: 1
Spectrometers: USB2E7196
Integration Time (usec): 170000 (USB2E7196)
Spectra Averaged: 20 (USB2E7196)
Boxcar Smoothing: 10 (USB2E7196)
Correct for Electrical Dark: No (USB2E7196)
Strobe/Lamp Enabled: No (USB2E7196)
Correct for Detector Non-linearity: No (USB2E7196)
Correct for Stray Light: No (USB2E7196)
Number of Pixels in Processed Spectrum: 2048
>>>>>Begin Processed Spectral Data<<<<<
339.09	0.00
339.48	212.05
339.86	214.45
340.24	216.15
340.63	216.95
341.01	227.50
341.39	219.95
341.78	221.75
342.16	224.50
342.54	223.05
342.93	212.16
343.31	222.85
343.69	223.44
344.07	223.86
344.46	224.35
344.84	224.82
345.22	224.68
345.60	224.90
345.99	225.09
346.37	225.20
346.75	225.30
347.13	225.36
347.52	225.47
347.90	225.78
348.28	225.76
348.66	225.99
349.05	225.85
349.43	225.95
349.81	226.05
350.19	226.12
350.57	226.15
350.96	226.12
351.34	226.23
351.72	226.34
352.10	226.48
352.48	226.44
352.87	226.43
353.25	226.47
353.63	226.56
354.01	226.63
354.39	226.66
354.77	226.71
355.15	226.97
355.54	227.02
355.92	226.82
356.30	226.89
356.68	227.17
357.06	227.31
357.44	227.32
357.82	227.37
358.20	227.86
358.58	227.92
358.97	228.08
359.35	228.30
359.73	228.46
360.11	228.51
360.49	228.64
360.87	228.70
361.25	228.91
361.63	229.16
362.01	229.20
362.39	229.15
362.77	229.33
363.15	229.30
363.53	229.31
363.91	229.42
364.29	229.37
364.67	229.02
365.05	229.04
365.43	229.09
365.81	229.20
366.19	229.03
366.57	229.26
366.95	229.26
367.33	229.06
367.71	229.04
368.09	229.15
368.47	229.15
368.85	229.18
369.23	229.28
369.61	229.09
369.99	229.26
370.37	229.38
370.75	229.53
371.13	229.40
371.51	229.31
371.89	229.30
372.27	229.40
372.65	229.36
373.03	229.36
373.41	229.27
373.78	229.18
374.16	228.90
374.54	228.76
374.92	228.62
375.30	228.61
375.68	228.50
376.06	228.44
376.44	228.35
376.82	228.29
377.19	228.11
377.57	228.04
377.95	227.76
378.33	227.67
378.71	227.35
379.09	227.37
379.47	227.48
379.84	227.37
380.22	227.23
380.60	227.06
380.98	226.94
381.36	226.83
381.73	226.70
382.11	226.74
382.49	226.60
382.87	226.48
383.25	226.38
383.62	226.81
384.00	226.71
384.38	226.71
384.76	226.74
385.13	226.88
385.51	226.75
385.89	226.71
386.27	226.71
386.64	226.69
387.02	226.64
387.40	226.43
387.78	226.42
388.15	226.44
388.53	226.45
388.91	226.42
389.29	226.43
389.66	226.44
390.04	226.33
390.42	226.39
390.79	226.41
391.17	226.38
391.55	225.82
391.92	225.70
392.30	225.79
392.68	225.70
393.05	225.68
393.43	225.78
393.81	225.80
394.18	225.73
394.56	225.71
394.94	225.78
395.31	225.81
395.69	225.98
396.06	226.08
396.44	226.18
396.82	226.21
397.19	226.57
397.57	226.63
397.95	226.84
398.32	226.75
398.70	226.90
399.07	227.13
399.45	227.24
399.82	227.35
400.20	227.36
400.58	227.41
400.95	227.27
401.33	227.44
401.70	227.85
402.08	227.96
402.45	228.12
402.83	228.43
403.20	228.64
403.58	228.77
403.95	228.95
404.33	229.19
404.71	229.42
405.08	229.75
405.46	230.00
405.83	230.19
406.21	230.47
406.58	230.81
406.96	231.04
407.33	231.40
407.70	231.80
408.08	232.50
408.45	232.97
408.83	233.56
409.20	233.91
409.58	234.14
409.95	234.70
410.33	235.29
410.70	235.53
411.08	236.16
411.45	236.75
411.82	237.31
412.20	238.08
412.57	239.12
412.95	239.44
413.32	240.35
413.69	241.21
414.07	242.16
414.44	243.12
414.82	244.10
415.19	245.30
415.56	246.59
415.94	247.62
416.31	249.06
416.68	250.38
417.06	251.95
417.43	253.55
417.81	255.24
418.18	257.09
418.55	259.05
418.93	261.00
419.30	263.10
419.67	265.31
420.04	267.46
420.42	269.69
420.79	272.79
421.16	275.47
421.54	278.41
421.91	281.29
422.28	284.36
422.66	287.62
423.03	290.90
423.40	294.06
423.77	297.51
424.15	300.91
424.52	304.65
424.89	308.82
425.26	312.74
425.64	316.47
426.01	320.58
426.38	325.00
426.75	329.39
427.13	333.84
427.50	338.53
427.87	343.33
428.24	348.10
428.61	352.45
428.99	357.79
429.36	363.24
429.73	368.71
430.10	374.14
430.47	379.79
430.85	385.50
431.22	391.73
431.59	398.39
431.96	404.70
432.33	411.63
432.70	418.23
433.08	425.99
433.45	433.39
433.82	440.59
434.19	448.70
434.56	456.83
434.93	464.52
435.30	472.27
435.68	480.77
436.05	489.23
436.42	497.61
436.79	505.07
437.16	513.25
437.53	521.94
437.90	530.56
438.27	539.07
438.64	547.82
439.01	555.91
439.38	563.19
439.75	570.39
440.13	578.25
440.50	585.73
440.87	591.81
441.24	598.19
441.61	605.14
441.98	610.22
442.35	615.91
442.72	621.93
443.09	627.57
443.46	631.14
443.83	633.23
444.20	635.10
444.57	637.95
444.94	639.14
445.31	640.37
445.68	641.57
446.05	641.70
446.42	640.47
446.79	639.23
447.16	637.66
447.53	636.34
447.90	632.70
448.27	629.04
448.64	624.16
449.01	620.40
449.37	614.26
449.74	608.24
450.11	601.34
450.48	593.51
450.85	585.55
451.22	578.70
451.59	572.35
451.96	566.24
452.33	558.16
452.70	550.91
453.07	542.26
453.43	533.29
453.80	525.00
454.17	516.96
454.54	509.29
454.91	501.03
455.28	493.03
455.65	485.67
456.02	478.83
456.38	472.60
456.75	464.97
457.12	458.70
457.49	452.34
457.86	446.19
458.23	441.19
458.59	435.67
458.96	430.00
459.33	424.82
459.70	419.62
460.07	415.58
460.43	410.89
460.80	406.61
461.17	403.10
461.54	399.18
461.91	395.44
462.27	391.61
462.64	388.48
463.01	385.03
463.38	381.76
463.74	377.85
464.11	374.84
464.48	372.23
464.85	369.31
465.21	367.33
465.58	365.04
465.95	362.23
466.32	360.08
466.68	357.79
467.05	355.75
467.42	353.67
467.78	351.34
468.15	349.17
468.52	347.68
468.88	345.29
469.25	343.33
469.62	341.92
469.98	340.29
470.35	338.75
470.72	337.25
471.08	335.69
471.45	334.47
471.82	333.17
472.18	331.76
472.55	330.81
472.92	329.37
473.28	328.26
473.65	327.15
474.02	325.97
474.38	325.05
474.75	324.22
475.11	323.28
475.48	322.60
475.85	321.92
476.21	321.15
476.58	320.75
476.94	320.34
477.31	319.73
477.67	319.24
478.04	318.89
478.41	318.70
478.77	318.93
479.14	318.61
479.50	318.54
479.87	318.59
480.23	318.47
480.60	318.47
480.96	318.42
481.33	318.83
481.69	319.09
482.06	319.32
482.42	319.57
482.79	319.97
483.15	320.45
483.52	321.15
483.88	321.70
484.25	322.14
484.61	322.86
484.98	323.53
485.34	324.56
485.71	325.45
486.07	326.38
486.44	326.99
486.80	328.08
487.17	329.17
487.53	330.47
487.90	332.01
488.26	333.71
488.62	335.44
488.99	336.93
489.35	338.67
489.72	340.55
490.08	342.54
490.44	344.55
490.81	346.58
491.17	348.77
491.54	351.20
491.90	353.91
492.26	356.53
492.63	359.52
492.99	362.26
493.36	365.38
493.72	368.71
494.08	372.09
494.45	375.84
494.81	379.74
495.17	383.59
495.54	387.60
495.90	391.85
496.26	396.24
496.63	400.88
496.99	405.68
497.35	410.80
497.72	415.95
498.08	421.35
498.44	427.07
498.80	433.06
499.17	439.11
499.53	445.30
499.89	451.96
500.26	458.70
500.62	465.70
500.98	473.00
501.34	480.33
501.71	488.05
502.07	495.76
502.43	503.74
502.79	512.10
503.16	520.94
503.52	529.95
503.88	539.22
504.24	548.90
504.60	558.83
504.97	569.04
505.33	579.50
505.69	590.61
506.05	601.73
506.41	612.87
506.78	624.44
507.14	636.42
507.50	648.65
507.86	661.11
508.22	674.18
508.59	687.10
508.95	700.70
509.31	714.75
509.67	728.89
510.03	743.08
510.39	757.80
510.75	772.55
511.12	787.63
511.48	803.16
511.84	818.76
512.20	834.66
512.56	850.83
512.92	867.54
513.28	884.25
513.64	901.32
514.00	918.77
514.37	936.31
514.73	954.34
515.09	972.59
515.45	990.95
515.81	1009.06
516.17	1027.96
516.53	1046.38
516.89	1064.88
517.25	1084.23
517.61	1104.53
517.97	1124.95
518.33	1144.97
518.69	1165.11
519.05	1185.58
519.41	1206.33
519.77	1227.33
520.13	1247.87
520.49	1268.58
520.85	1290.60
521.21	1311.82
521.57	1332.97
521.93	1353.98
522.29	1375.07
522.65	1395.42
523.01	1416.11
523.37	1436.88
523.73	1457.46
524.09	1477.98
524.45	1498.68
524.81	1519.43
525.17	1539.92
525.53	1559.89
525.89	1580.45
526.25	1601.11
526.61	1621.09
526.97	1641.70
527.33	1662.79
527.68	1684.41
528.04	1705.23
528.40	1724.72
528.76	1745.39
529.12	1765.51
529.48	1785.93
529.84	1805.75
530.20	1826.69
530.56	1847.35
530.91	1867.74
531.27	1888.08
531.63	1908.60
531.99	1928.90
532.35	1948.49
532.71	1968.54
533.07	1988.92
533.42	2008.39
533.78	2027.84
534.14	2047.38
534.50	2066.26
534.86	2084.99
535.21	2102.48
535.57	2120.96
535.93	2138.46
536.29	2156.01
536.65	2173.81
537.00	2191.12
537.36	2208.75
537.72	2225.05
538.08	2241.98
538.44	2258.54
538.79	2274.84
539.15	2291.22
539.51	2306.84
539.87	2322.11
540.22	2335.78
540.58	2349.92
540.94	2363.16
541.29	2375.67
541.65	2388.11
542.01	2400.17
542.37	2410.48
542.72	2421.24
543.08	2431.33
543.44	2442.82
543.79	2452.51
544.15	2462.52
544.51	2472.42
544.87	2481.44
545.22	2489.83
545.58	2497.44
545.94	2504.35
546.29	2510.28
546.65	2516.16
547.01	2521.60
547.36	2526.81
547.72	2531.72
548.07	2535.33
548.43	2540.33
548.79	2544.53
549.14	2548.63
549.50	2552.53
549.86	2556.36
550.21	2559.61
550.57	2562.72
550.92	2563.68
551.28	2564.89
551.64	2566.78
551.99	2568.23
552.35	2569.68
552.70	2571.75
553.06	2573.15
553.41	2574.40
553.77	2576.31
554.13	2577.68
554.48	2578.90
554.84	2580.21
555.19	2581.71
555.55	2583.73
555.90	2583.08
556.26	2582.33
556.61	2580.57
556.97	2578.22
557.32	2577.41
557.68	2576.30
558.03	2574.84
558.39	2573.60
558.74	2572.60
559.10	2569.26
559.45	2565.46
559.81	2560.76
560.16	2555.45
560.52	2550.34
560.87	2545.75
561.23	2540.09
561.58	2533.95
561.94	2526.82
562.29	2519.44
562.64	2512.35
563.00	2503.59
563.35	2496.77
563.71	2490.40
564.06	2484.32
564.42	2477.98
564.77	2471.22
565.12	2463.90
565.48	2456.06
565.83	2447.88
566.19	2439.78
566.54	2431.93
566.89	2424.14
567.25	2416.61
567.60	2409.30
567.96	2401.76
568.31	2393.64
568.66	2385.28
569.02	2376.32
569.37	2368.50
569.72	2360.88
570.08	2351.56
570.43	2342.21
570.78	2333.24
571.14	2323.88
571.49	2313.63
571.84	2303.86
572.20	2292.99
572.55	2282.89
572.90	2272.16
573.26	2262.18
573.61	2251.16
573.96	2240.31
574.31	2228.39
574.67	2216.69
575.02	2204.08
575.37	2191.32
575.72	2178.60
576.08	2166.34
576.43	2154.04
576.78	2141.07
577.13	2127.50
577.49	2114.81
577.84	2103.37
578.19	2091.42
578.54	2078.79
578.90	2066.89
579.25	2054.56
579.60	2042.08
579.95	2028.84
580.30	2015.67
580.66	2002.21
581.01	1988.73
581.36	1974.63
581.71	1962.12
582.06	1949.26
582.42	1937.05
582.77	1924.88
583.12	1912.82
583.47	1900.83
583.82	1889.04
584.17	1877.18
584.53	1865.51
584.88	1852.71
585.23	1839.43
585.58	1825.21
585.93	1812.10
586.28	1798.66
586.63	1784.91
586.98	1770.73
587.34	1757.74
587.69	1745.02
588.04	1732.73
588.39	1720.88
588.74	1709.17
589.09	1697.24
589.44	1684.62
589.79	1672.45
590.14	1660.60
590.49	1648.37
590.84	1636.07
591.19	1624.15
591.54	1612.05
591.89	1599.98
592.25	1589.98
592.60	1578.84
592.95	1567.85
593.30	1556.22
593.65	1544.49
594.00	1532.76
594.35	1523.28
594.70	1511.66
595.05	1500.32
595.40	1488.47
595.75	1476.75
596.10	1465.27
596.45	1453.95
596.80	1443.44
597.15	1432.44
597.50	1420.82
597.85	1409.78
598.19	1398.42
598.54	1387.05
598.89	1375.78
599.24	1365.14
599.59	1353.73
599.94	1342.81
600.29	1332.61
600.64	1322.35
600.99	1312.02
601.34	1302.52
601.69	1291.56
602.04	1281.86
602.39	1272.28
602.74	1263.25
603.08	1254.04
603.43	1245.00
603.78	1235.55
604.13	1225.87
604.48	1216.16
604.83	1206.64
605.18	1197.02
605.53	1187.94
605.87	1179.03
606.22	1170.76
606.57	1161.57
606.92	1152.14
607.27	1143.50
607.62	1134.62
607.96	1126.10
608.31	1118.33
608.66	1110.04
609.01	1101.31
609.36	1092.88
609.70	1084.57
610.05	1075.88
610.40	1067.34
610.75	1058.92
611.10	1050.69
611.44	1042.20
611.79	1034.22
612.14	1026.45
612.49	1018.75
612.83	1011.14
613.18	1003.41
613.53	995.75
613.88	988.06
614.22	980.63
614.57	972.74
614.92	965.08
615.27	957.80
615.61	950.09
615.96	942.60
616.31	935.28
616.65	928.46
617.00	921.23
617.35	914.16
617.70	907.24
618.04	900.08
618.39	893.12
618.74	886.96
619.08	880.13
619.43	873.19
619.78	866.18
620.12	859.16
620.47	852.29
620.82	845.43
621.16	838.77
621.51	832.54
621.85	826.42
622.20	819.99
622.55	813.38
622.89	807.07
623.24	800.92
623.59	794.96
623.93	788.64
624.28	782.65
624.62	777.22
624.97	771.50
625.32	765.87
625.66	759.98
626.01	754.08
626.35	748.69
626.70	743.23
627.04	738.17
627.39	732.78
627.73	727.43
628.08	722.31
628.43	717.02
628.77	711.59
629.12	706.49
629.46	701.81
629.81	697.15
630.15	692.45
630.50	687.56
630.84	682.73
631.19	678.14
631.53	673.42
631.88	668.22
632.22	663.44
632.57	659.17
632.91	654.73
633.26	650.25
633.60	645.55
633.95	641.06
634.29	636.38
634.64	632.15
634.98	627.60
635.32	623.34
635.67	619.50
636.01	615.49
636.36	611.15
636.70	607.06
637.05	602.94
637.39	598.80
637.73	594.78
638.08	590.87
638.42	586.74
638.77	582.62
639.11	578.33
639.45	574.09
639.80	569.65
640.14	565.61
640.49	561.73
640.83	558.15
641.17	554.51
641.52	550.92
641.86	547.17
642.20	544.11
642.55	540.40
642.89	536.66
643.23	533.05
643.58	529.82
643.92	526.23
644.26	522.90
644.61	519.77
644.95	516.38
645.29	512.94
645.64	509.86
645.98	506.80
646.32	503.98
646.66	500.97
647.01	498.07
647.35	495.38
647.69	492.43
648.04	489.46
648.38	486.58
648.72	483.79
649.06	480.94
649.41	477.87
649.75	474.75
650.09	471.92
650.43	469.23
650.78	466.42
651.12	463.64
651.46	460.84
651.80	458.05
652.14	455.51
652.49	453.14
652.83	450.59
653.17	448.04
653.51	445.36
653.85	443.17
654.20	440.79
654.54	438.15
654.88	435.69
655.22	433.59
655.56	431.27
655.90	428.81
656.25	426.64
656.59	424.37
656.93	422.35
657.27	420.30
657.61	417.88
657.95	415.57
658.29	413.52
658.64	411.45
658.98	409.22
659.32	406.93
659.66	404.64
660.00	402.56
660.34	400.53
660.68	398.51
661.02	396.39
661.36	394.44
661.70	392.59
662.05	390.75
662.39	388.62
662.73	386.79
663.07	385.21
663.41	383.23
663.75	381.29
664.09	379.57
664.43	377.59
664.77	375.97
665.11	374.24
665.45	372.53
665.79	370.90
666.13	369.18
666.47	367.57
666.81	366.01
667.15	364.20
667.49	362.69
667.83	361.49
668.17	359.97
668.51	358.49
668.85	357.09
669.19	355.94
669.53	354.54
669.87	352.99
670.21	351.50
670.55	350.28
670.89	349.24
671.23	347.84
671.57	346.59
671.91	345.25
672.25	344.00
672.58	342.80
672.92	341.32
673.26	340.16
673.60	339.05
673.94	337.81
674.28	336.78
674.62	335.76
674.96	334.45
675.30	333.20
675.64	332.05
675.97	330.89
676.31	329.42
676.65	328.28
676.99	327.41
677.33	326.25
677.67	325.19
678.01	323.87
678.34	322.88
678.68	321.97
679.02	320.88
679.36	319.81
679.70	318.69
680.04	317.86
680.37	316.91
680.71	315.83
681.05	315.02
681.39	314.08
681.73	312.99
682.06	312.03
682.40	311.18
682.74	310.42
683.08	309.69
683.42	308.80
683.75	308.04
684.09	307.07
684.43	306.21
684.77	305.31
685.10	304.56
685.44	303.77
685.78	302.89
686.12	302.16
686.45	301.38
686.79	300.60
687.13	299.87
687.46	299.10
687.80	298.59
688.14	297.79
688.48	297.08
688.81	296.30
689.15	295.66
689.49	294.96
689.82	294.21
690.16	293.25
690.50	292.57
690.83	291.83
691.17	291.05
691.51	290.41
691.84	289.85
692.18	289.16
692.52	288.45
692.85	287.92
693.19	287.44
693.52	286.92
693.86	286.34
694.20	285.69
694.53	285.14
694.87	284.38
695.21	283.73
695.54	283.15
695.88	282.62
696.21	281.88
696.55	281.31
696.88	280.68
697.22	280.08
697.56	279.54
697.89	278.96
698.23	278.54
698.56	277.93
698.90	277.37
699.23	276.81
699.57	276.29
699.90	275.57
700.24	274.94
700.58	274.43
700.91	273.98
701.25	273.92
701.58	273.85
701.92	273.42
702.25	272.95
702.59	272.48
702.92	272.04
703.26	271.65
703.59	271.21
703.93	271.28
704.26	270.97
704.60	270.60
704.93	270.09
705.26	269.59
705.60	269.32
705.93	268.80
706.27	268.57
706.60	268.29
706.94	268.17
707.27	267.67
707.61	267.25
707.94	266.90
708.27	266.11
708.61	265.25
708.94	264.90
709.28	264.48
709.61	264.02
709.94	263.74
710.28	263.38
710.61	263.10
710.95	262.25
711.28	262.24
711.61	261.83
711.95	261.64
712.28	261.26
712.61	260.86
712.95	260.75
713.28	260.49
713.61	260.18
713.95	259.72
714.28	259.41
714.61	259.06
714.95	258.65
715.28	258.28
715.61	257.96
715.95	257.65
716.28	257.30
716.61	257.15
716.95	256.72
717.28	256.42
717.61	256.09
717.94	255.77
718.28	255.06
718.61	254.77
718.94	254.36
719.27	254.05
719.61	253.85
719.94	253.44
720.27	252.90
720.60	252.56
720.94	252.25
721.27	252.07
721.60	251.96
721.93	251.73
722.27	251.66
722.60	251.50
722.93	251.21
723.26	251.06
723.59	250.78
723.93	250.60
724.26	250.45
724.59	250.10
724.92	249.93
725.25	249.82
725.59	249.60
725.92	249.48
726.25	249.34
726.58	249.09
726.91	248.90
727.24	248.89
727.57	248.62
727.91	248.41
728.24	248.29
728.57	247.96
728.90	247.86
729.23	247.51
729.56	247.55
729.89	247.37
730.22	247.23
730.55	246.95
730.89	246.79
731.22	246.59
731.55	246.46
731.88	246.31
732.21	246.07
732.54	245.89
732.87	245.71
733.20	245.49
733.53	245.34
733.86	245.27
734.19	245.08
734.52	244.95
734.85	245.10
735.18	244.83
735.51	244.92
735.84	244.73
736.17	244.72
736.50	244.27
736.83	244.72
737.16	244.55
737.49	244.47
737.82	244.29
738.15	244.17
738.48	244.06
738.81	243.88
739.14	243.77
739.47	243.65
739.80	243.55
740.13	243.56
740.46	243.46
740.79	243.26
741.12	243.03
741.45	242.98
741.78	242.60
742.11	242.67
742.44	242.43
742.77	242.40
743.10	242.17
743.43	242.09
743.75	241.47
744.08	241.98
744.41	241.80
744.74	241.74
745.07	241.49
745.40	241.44
745.73	241.59
746.06	241.45
746.39	241.37
746.71	241.20
747.04	241.00
747.37	240.71
747.70	240.62
748.03	240.56
748.36	240.50
748.68	240.28
749.01	239.95
749.34	239.81
749.67	239.69
750.00	239.64
750.33	239.91
750.65	239.82
750.98	239.05
751.31	238.95
751.64	238.78
751.97	239.00
752.29	238.90
752.62	238.49
752.95	238.33
753.28	238.17
753.60	238.07
753.93	238.06
754.26	238.10
754.59	237.91
754.91	237.78
755.24	237.58
755.57	237.50
755.90	237.40
756.22	237.15
756.55	236.94
756.88	236.69
757.20	236.18
757.53	235.91
757.86	235.83
758.19	235.82
758.51	235.73
758.84	235.39
759.17	235.22
759.49	235.17
759.82	235.39
760.15	235.27
760.47	235.12
760.80	234.92
761.13	234.82
761.45	234.67
761.78	234.56
762.11	234.50
762.43	234.44
762.76	234.45
763.08	234.45
763.41	234.47
763.74	234.48
764.06	234.43
764.39	234.35
764.71	234.27
765.04	234.09
765.37	233.96
765.69	233.82
766.02	233.76
766.34	233.64
766.67	233.30
767.00	233.38
767.32	233.59
767.65	233.78
767.97	233.71
768.30	233.72
768.62	233.64
768.95	233.56
769.27	233.45
769.60	233.42
769.92	233.32
770.25	233.08
770.57	232.92
770.90	232.81
771.22	232.75
771.55	232.70
771.87	232.70
772.20	232.72
772.52	233.09
772.85	233.53
773.17	233.53
773.50	233.50
773.82	233.33
774.15	232.99
774.47	232.69
774.80	232.57
775.12	232.54
775.45	232.53
775.77	232.43
776.09	232.46
776.42	232.41
776.74	232.51
777.07	232.46
777.39	232.52
777.72	232.54
778.04	232.59
778.36	232.54
778.69	232.49
779.01	232.43
779.33	231.99
779.66	231.42
779.98	231.31
780.31	231.28
780.63	231.42
780.95	231.48
781.28	231.43
781.60	231.45
781.92	231.38
782.25	231.30
782.57	231.32
782.89	231.25
783.22	231.18
783.54	231.02
783.86	231.06
784.19	231.01
784.51	231.08
784.83	230.97
785.16	230.90
785.48	230.88
785.80	230.83
786.12	230.83
786.45	230.83
786.77	230.86
787.09	230.82
787.42	230.70
787.74	230.69
788.06	230.67
788.38	230.55
788.71	230.48
789.03	230.45
789.35	230.47
789.67	230.38
789.99	230.40
790.32	230.38
790.64	230.42
790.96	230.77
791.28	230.55
791.61	230.45
791.93	230.46
792.25	230.43
792.57	230.72
792.89	230.66
793.21	230.67
793.54	230.61
793.86	230.54
794.18	230.47
794.50	230.38
794.82	230.32
795.14	230.33
795.47	230.40
795.79	230.42
796.11	230.33
796.43	230.28
796.75	230.30
797.07	230.31
797.39	230.22
797.71	229.83
798.04	229.85
798.36	229.89
798.68	229.85
799.00	229.81
799.32	229.53
799.64	229.55
799.96	229.49
800.28	229.46
800.60	229.38
800.92	229.33
801.24	229.24
801.56	229.25
801.89	229.19
802.21	229.14
802.53	228.97
802.85	229.04
803.17	229.27
803.49	229.00
803.81	228.91
804.13	228.87
804.45	228.82
804.77	228.80
805.09	228.82
805.41	228.79
805.73	228.72
806.05	228.58
806.37	228.42
806.69	228.37
807.01	228.34
807.33	228.36
807.65	228.25
807.97	228.49
808.28	228.43
808.60	228.37
808.92	228.29
809.24	228.61
809.56	228.47
809.88	228.19
810.20	228.22
810.52	228.28
810.84	228.19
811.16	228.05
811.48	228.01
811.80	228.09
812.12	227.96
812.43	228.01
812.75	228.05
813.07	228.05
813.39	228.02
813.71	227.95
814.03	227.88
814.35	227.85
814.67	227.58
814.98	227.56
815.30	227.66
815.62	227.60
815.94	227.31
816.26	227.47
816.58	227.39
816.89	227.46
817.21	227.44
817.53	227.56
817.85	227.55
