SpectraSuite Data File
++++++++++++++++++++++++++++++++++++
Date: Wed Sep 04 18:01:06 EDT 2013
User: lab3
Dark Spectrum Present: Yes
Reference Spectrum Present: No
Number of Sampled Component Spectra: 1
Spectrometers: USB2E7196
Integration Time (usec): 170000 (USB2E7196)
Spectra Averaged: 20 (USB2E7196)
Boxcar Smoothing: 10 (USB2E7196)
Correct for Electrical Dark: No (USB2E7196)
Strobe/Lamp Enabled: No (USB2E7196)
Correct for Detector Non-linearity: No (USB2E7196)
Correct for Stray Light: No (USB2E7196)
Number of Pixels in Processed Spectrum: 2048
>>>>>Begin Processed Spectral Data<<<<<
339.09	0.00
339.48	212.50
339.86	215.75
340.24	215.55
340.63	218.00
341.01	225.85
341.39	220.40
341.78	222.35
342.16	225.30
342.54	222.80
342.93	212.65
343.31	223.39
343.69	223.98
344.07	224.46
344.46	224.97
344.84	225.32
345.22	225.35
345.60	225.60
345.99	225.80
346.37	225.83
346.75	225.93
347.13	225.93
347.52	225.95
347.90	226.16
348.28	226.22
348.66	226.21
349.05	226.11
349.43	226.24
349.81	226.29
350.19	226.33
350.57	226.35
350.96	226.49
351.34	226.61
351.72	226.77
352.10	226.81
352.48	226.79
352.87	226.81
353.25	226.85
353.63	226.91
354.01	226.92
354.39	227.00
354.77	227.14
355.15	227.34
355.54	227.33
355.92	227.21
356.30	227.28
356.68	227.75
357.06	227.85
357.44	227.85
357.82	227.94
358.20	228.41
358.58	228.49
358.97	228.57
359.35	228.71
359.73	228.75
360.11	228.79
360.49	228.89
360.87	228.98
361.25	229.15
361.63	229.42
362.01	229.53
362.39	229.57
362.77	229.57
363.15	229.59
363.53	229.67
363.91	229.79
364.29	229.83
364.67	229.42
365.05	229.46
365.43	229.59
365.81	229.74
366.19	229.59
366.57	229.82
366.95	229.81
367.33	229.70
367.71	229.73
368.09	229.83
368.47	229.85
368.85	229.86
369.23	229.88
369.61	229.72
369.99	229.86
370.37	229.92
370.75	230.18
371.13	230.13
371.51	230.05
371.89	230.05
372.27	230.07
372.65	230.07
373.03	230.05
373.41	229.93
373.78	229.84
374.16	229.57
374.54	229.39
374.92	229.32
375.30	229.27
375.68	229.17
376.06	229.19
376.44	229.15
376.82	229.20
377.19	229.08
377.57	228.97
377.95	228.77
378.33	228.70
378.71	228.33
379.09	228.36
379.47	228.44
379.84	228.32
380.22	228.16
380.60	228.05
380.98	227.99
381.36	227.92
381.73	227.79
382.11	227.82
382.49	227.74
382.87	227.62
383.25	227.59
383.62	228.02
384.00	227.83
384.38	227.75
384.76	227.76
385.13	227.95
385.51	227.86
385.89	227.74
386.27	227.75
386.64	227.80
387.02	227.61
387.40	227.45
387.78	227.45
388.15	227.46
388.53	227.37
388.91	227.32
389.29	227.34
389.66	227.35
390.04	227.24
390.42	227.30
390.79	227.32
391.17	227.31
391.55	226.83
391.92	226.88
392.30	226.95
392.68	226.78
393.05	226.72
393.43	226.76
393.81	226.87
394.18	226.73
394.56	226.75
394.94	226.95
395.31	226.97
395.69	227.10
396.06	227.17
396.44	227.30
396.82	227.31
397.19	227.60
397.57	227.68
397.95	227.85
398.32	227.75
398.70	227.80
399.07	227.94
399.45	228.01
399.82	228.07
400.20	228.15
400.58	228.23
400.95	228.09
401.33	228.33
401.70	228.67
402.08	228.84
402.45	228.90
402.83	229.11
403.20	229.31
403.58	229.37
403.95	229.62
404.33	229.81
404.71	230.10
405.08	230.45
405.46	230.59
405.83	230.74
406.21	231.04
406.58	231.37
406.96	231.60
407.33	231.89
407.70	232.26
408.08	232.96
408.45	233.43
408.83	233.92
409.20	234.21
409.58	234.44
409.95	234.96
410.33	235.58
410.70	235.94
411.08	236.57
411.45	237.29
411.82	237.85
412.20	238.70
412.57	239.61
412.95	239.99
413.32	240.91
413.69	241.81
414.07	242.71
414.44	243.70
414.82	244.82
415.19	246.11
415.56	247.41
415.94	248.40
416.31	249.88
416.68	251.37
417.06	252.92
417.43	254.60
417.81	256.36
418.18	258.20
418.55	260.18
418.93	262.15
419.30	264.27
419.67	266.54
420.04	268.76
420.42	271.08
420.79	274.11
421.16	277.00
421.54	280.05
421.91	283.05
422.28	286.14
422.66	289.45
423.03	292.78
423.40	296.05
423.77	299.50
424.15	302.96
424.52	306.67
424.89	311.05
425.26	314.99
425.64	318.90
426.01	323.01
426.38	327.32
426.75	331.96
427.13	336.52
427.50	341.36
427.87	346.25
428.24	351.14
428.61	355.70
428.99	361.01
429.36	366.52
429.73	372.08
430.10	377.68
430.47	383.31
430.85	389.08
431.22	395.31
431.59	402.28
431.96	408.78
432.33	415.90
432.70	422.53
433.08	430.48
433.45	437.80
433.82	445.25
434.19	453.63
434.56	461.71
434.93	469.46
435.30	477.21
435.68	485.90
436.05	494.53
436.42	503.04
436.79	510.77
437.16	519.05
437.53	527.95
437.90	536.62
438.27	545.20
438.64	554.24
439.01	562.61
439.38	569.74
439.75	576.91
440.13	584.89
440.50	592.60
440.87	598.65
441.24	605.23
441.61	612.27
441.98	617.26
442.35	623.13
442.72	629.12
443.09	635.00
443.46	638.32
443.83	640.55
444.20	642.52
444.57	645.24
444.94	646.46
445.31	647.58
445.68	648.97
446.05	649.17
446.42	647.80
446.79	646.44
447.16	644.85
447.53	643.43
447.90	639.75
448.27	635.84
448.64	630.93
449.01	627.13
449.37	620.97
449.74	614.86
450.11	607.86
450.48	599.93
450.85	591.81
451.22	584.94
451.59	578.35
451.96	571.87
452.33	563.51
452.70	556.04
453.07	547.17
453.43	537.91
453.80	529.54
454.17	521.42
454.54	513.61
454.91	505.41
455.28	497.41
455.65	489.85
456.02	483.08
456.38	476.64
456.75	468.77
457.12	462.06
457.49	455.85
457.86	449.52
458.23	444.46
458.59	438.65
458.96	432.88
459.33	427.63
459.70	422.53
460.07	418.52
460.43	413.76
460.80	409.54
461.17	405.91
461.54	401.81
461.91	398.01
462.27	394.07
462.64	390.74
463.01	387.15
463.38	383.79
463.74	379.69
464.11	376.65
464.48	374.02
464.85	371.28
465.21	369.10
465.58	366.68
465.95	363.82
466.32	361.68
466.68	359.37
467.05	357.18
467.42	354.98
467.78	352.69
468.15	350.63
468.52	349.07
468.88	346.75
469.25	344.87
469.62	343.35
469.98	341.75
470.35	340.21
470.72	338.81
471.08	337.12
471.45	335.89
471.82	334.72
472.18	333.31
472.55	332.31
472.92	330.95
473.28	329.92
473.65	328.83
474.02	327.81
474.38	326.95
474.75	326.17
475.11	325.33
475.48	324.75
475.85	324.05
476.21	323.27
476.58	322.82
476.94	322.39
477.31	321.89
477.67	321.35
478.04	321.03
478.41	320.76
478.77	321.09
479.14	320.81
479.50	320.72
479.87	320.79
480.23	320.75
480.60	320.77
480.96	320.73
481.33	321.13
481.69	321.29
482.06	321.56
482.42	321.91
482.79	322.33
483.15	322.74
483.52	323.49
483.88	324.11
484.25	324.62
484.61	325.29
484.98	325.91
485.34	326.97
485.71	327.93
486.07	328.97
486.44	329.64
486.80	330.68
487.17	331.76
487.53	333.10
487.90	334.49
488.26	336.14
488.62	337.87
488.99	339.41
489.35	341.16
489.72	342.95
490.08	344.90
490.44	346.74
490.81	348.93
491.17	351.10
491.54	353.59
491.90	356.21
492.26	358.84
492.63	361.71
492.99	364.65
493.36	367.69
493.72	371.07
494.08	374.46
494.45	378.18
494.81	382.12
495.17	385.97
495.54	390.19
495.90	394.38
496.26	398.88
496.63	403.52
496.99	408.33
497.35	413.55
497.72	418.85
498.08	424.54
498.44	430.38
498.80	436.27
499.17	442.15
499.53	448.40
499.89	455.12
500.26	461.88
500.62	468.78
500.98	476.25
501.34	483.66
501.71	491.45
502.07	499.37
502.43	507.49
502.79	515.97
503.16	524.83
503.52	533.99
503.88	543.28
504.24	552.97
504.60	562.99
504.97	573.29
505.33	583.75
505.69	594.86
506.05	605.83
506.41	617.18
506.78	628.97
507.14	641.15
507.50	653.32
507.86	666.12
508.22	679.11
508.59	692.20
508.95	705.86
509.31	719.88
509.67	734.23
510.03	748.44
510.39	763.15
510.75	778.12
511.12	793.31
511.48	809.04
511.84	824.88
512.20	840.83
512.56	857.02
512.92	873.85
513.28	890.59
513.64	907.81
514.00	925.28
514.37	943.16
514.73	961.16
515.09	979.56
515.45	998.16
515.81	1016.66
516.17	1035.52
516.53	1054.17
516.89	1073.10
517.25	1092.68
517.61	1113.18
517.97	1133.56
518.33	1153.54
518.69	1173.92
519.05	1194.25
519.41	1214.83
519.77	1235.90
520.13	1257.00
520.49	1277.92
520.85	1300.29
521.21	1321.72
521.57	1343.25
521.93	1363.97
522.29	1385.31
522.65	1406.18
523.01	1426.84
523.37	1447.56
523.73	1468.72
524.09	1489.60
524.45	1510.54
524.81	1531.29
525.17	1551.96
525.53	1572.51
525.89	1593.57
526.25	1614.50
526.61	1634.98
526.97	1656.14
527.33	1677.75
527.68	1699.72
528.04	1721.05
528.40	1741.05
528.76	1762.00
529.12	1782.37
529.48	1803.49
529.84	1823.78
530.20	1845.05
530.56	1865.86
530.91	1886.97
531.27	1907.42
531.63	1928.31
531.99	1949.12
532.35	1969.22
532.71	1989.46
533.07	2010.38
533.42	2030.38
533.78	2050.45
534.14	2070.52
534.50	2089.52
534.86	2108.82
535.21	2126.23
535.57	2144.59
535.93	2162.16
536.29	2179.95
536.65	2198.68
537.00	2216.46
537.36	2233.99
537.72	2250.58
538.08	2268.45
538.44	2285.24
538.79	2302.08
539.15	2318.55
539.51	2334.16
539.87	2349.73
540.22	2363.90
540.58	2377.94
540.94	2391.53
541.29	2404.50
541.65	2417.24
542.01	2430.03
542.37	2440.28
542.72	2451.75
543.08	2462.74
543.44	2474.20
543.79	2484.21
544.15	2493.89
544.51	2504.10
544.87	2514.23
545.22	2523.26
545.58	2530.73
545.94	2538.24
546.29	2544.50
546.65	2550.44
547.01	2556.50
547.36	2561.82
547.72	2567.36
548.07	2571.64
548.43	2577.06
548.79	2581.17
549.14	2585.34
549.50	2589.45
549.86	2593.92
550.21	2597.44
550.57	2600.71
550.92	2602.50
551.28	2604.12
551.64	2606.50
551.99	2608.00
552.35	2609.52
552.70	2611.69
553.06	2613.35
553.41	2614.35
553.77	2616.26
554.13	2618.53
554.48	2619.99
554.84	2621.75
555.19	2623.02
555.55	2624.91
555.90	2623.95
556.26	2623.60
556.61	2622.29
556.97	2619.96
557.32	2619.38
557.68	2618.40
558.03	2616.70
558.39	2615.61
558.74	2614.91
559.10	2611.85
559.45	2608.59
559.81	2604.00
560.16	2598.77
560.52	2593.87
560.87	2589.86
561.23	2584.34
561.58	2578.25
561.94	2571.29
562.29	2563.63
562.64	2556.76
563.00	2548.41
563.35	2541.97
563.71	2535.22
564.06	2528.92
564.42	2522.59
564.77	2515.36
565.12	2507.50
565.48	2500.02
565.83	2491.64
566.19	2483.52
566.54	2475.50
566.89	2467.49
567.25	2460.13
567.60	2452.65
567.96	2445.32
568.31	2437.24
568.66	2428.77
569.02	2419.38
569.37	2411.21
569.72	2404.14
570.08	2394.53
570.43	2384.99
570.78	2375.95
571.14	2366.45
571.49	2356.17
571.84	2346.36
572.20	2335.49
572.55	2325.42
572.90	2314.61
573.26	2304.61
573.61	2293.44
573.96	2282.26
574.31	2270.31
574.67	2258.33
575.02	2245.76
575.37	2233.14
575.72	2219.64
576.08	2207.51
576.43	2194.93
576.78	2181.52
577.13	2167.24
577.49	2154.61
577.84	2143.03
578.19	2130.93
578.54	2118.26
578.90	2106.36
579.25	2094.11
579.60	2081.72
579.95	2069.01
580.30	2055.79
580.66	2042.11
581.01	2028.34
581.36	2014.31
581.71	2001.59
582.06	1988.46
582.42	1976.05
582.77	1963.11
583.12	1951.29
583.47	1938.76
583.82	1927.07
584.17	1915.45
584.53	1903.83
584.88	1890.89
585.23	1877.31
585.58	1862.87
585.93	1849.85
586.28	1836.45
586.63	1822.33
586.98	1807.98
587.34	1794.54
587.69	1781.16
588.04	1768.94
588.39	1757.22
588.74	1744.96
589.09	1732.57
589.44	1719.60
589.79	1707.21
590.14	1695.26
590.49	1682.82
590.84	1670.46
591.19	1658.19
591.54	1645.77
591.89	1633.38
592.25	1623.41
592.60	1611.81
592.95	1600.29
593.30	1588.22
593.65	1576.01
594.00	1564.18
594.35	1554.26
594.70	1542.40
595.05	1530.95
595.40	1518.59
595.75	1506.24
596.10	1495.09
596.45	1483.69
596.80	1472.94
597.15	1461.40
597.50	1449.33
597.85	1438.08
598.19	1426.64
598.54	1414.75
598.89	1403.37
599.24	1392.86
599.59	1381.13
599.94	1370.37
600.29	1360.00
600.64	1349.62
600.99	1338.87
601.34	1329.29
601.69	1318.12
602.04	1308.20
602.39	1298.63
602.74	1289.44
603.08	1280.05
603.43	1270.55
603.78	1260.72
604.13	1251.08
604.48	1241.10
604.83	1231.58
605.18	1221.70
605.53	1212.10
605.87	1203.09
606.22	1194.46
606.57	1184.99
606.92	1175.16
607.27	1166.17
607.62	1157.23
607.96	1148.49
608.31	1140.58
608.66	1131.99
609.01	1123.32
609.36	1114.57
609.70	1105.70
610.05	1096.93
610.40	1088.34
610.75	1079.42
611.10	1070.93
611.44	1062.26
611.79	1054.18
612.14	1046.32
612.49	1038.31
612.83	1030.79
613.18	1023.01
613.53	1015.16
613.88	1007.10
614.22	999.45
614.57	991.45
614.92	983.59
615.27	976.08
615.61	968.09
615.96	960.31
616.31	952.81
616.65	945.78
617.00	938.45
617.35	931.08
617.70	923.86
618.04	916.71
618.39	909.74
618.74	903.25
619.08	896.26
619.43	889.13
619.78	882.13
620.12	874.85
620.47	867.84
620.82	860.69
621.16	853.91
621.51	847.38
621.85	840.91
622.20	834.20
622.55	827.59
622.89	821.24
623.24	814.94
623.59	808.52
623.93	802.13
624.28	796.08
624.62	790.34
624.97	784.59
625.32	779.03
625.66	773.06
626.01	766.87
626.35	761.39
626.70	755.71
627.04	750.40
627.39	744.64
627.73	739.26
628.08	734.01
628.43	728.41
628.77	722.97
629.12	717.74
629.46	712.89
629.81	707.98
630.15	703.16
630.50	698.13
630.84	693.24
631.19	688.33
631.53	683.62
631.88	678.45
632.22	673.60
632.57	668.91
632.91	664.21
633.26	659.73
633.60	655.09
633.95	650.30
634.29	645.36
634.64	641.29
634.98	636.46
635.32	631.95
635.67	627.97
636.01	623.84
636.36	619.45
636.70	615.31
637.05	611.00
637.39	606.79
637.73	602.59
638.08	598.56
638.42	594.31
638.77	589.90
639.11	585.36
639.45	580.85
639.80	576.35
640.14	572.23
640.49	568.18
640.83	564.21
641.17	560.55
641.52	556.86
641.86	553.13
642.20	549.88
642.55	546.09
642.89	542.46
643.23	538.85
643.58	535.75
643.92	532.07
644.26	528.82
644.61	525.48
644.95	522.13
645.29	518.75
645.64	515.65
645.98	512.48
646.32	509.76
646.66	506.80
647.01	503.85
647.35	501.07
647.69	497.98
648.04	495.22
648.38	492.31
648.72	489.35
649.06	486.14
649.41	483.09
649.75	480.05
650.09	477.21
650.43	474.27
650.78	471.15
651.12	468.35
651.46	465.30
651.80	462.46
652.14	459.78
652.49	457.17
652.83	454.48
653.17	452.02
653.51	449.21
653.85	446.63
654.20	444.11
654.54	441.41
654.88	438.95
655.22	436.56
655.56	434.07
655.90	431.74
656.25	429.57
656.59	427.43
656.93	425.38
657.27	423.22
657.61	420.86
657.95	418.59
658.29	416.37
658.64	414.38
658.98	412.22
659.32	409.80
659.66	407.68
660.00	405.53
660.34	403.40
660.68	401.35
661.02	399.39
661.36	397.50
661.70	395.49
662.05	393.50
662.39	391.47
662.73	389.79
663.07	388.21
663.41	386.38
663.75	384.30
664.09	382.54
664.43	380.53
664.77	378.90
665.11	377.33
665.45	375.68
665.79	373.97
666.13	372.25
666.47	370.66
666.81	368.89
667.15	367.17
667.49	365.70
667.83	364.36
668.17	362.79
668.51	361.21
668.85	359.95
669.19	358.89
669.53	357.37
669.87	355.84
670.21	354.23
670.55	352.82
670.89	351.84
671.23	350.38
671.57	349.01
671.91	347.70
672.25	346.36
672.58	345.21
672.92	343.74
673.26	342.54
673.60	341.36
673.94	340.21
674.28	339.15
674.62	337.91
674.96	336.55
675.30	335.37
675.64	334.16
675.97	332.90
676.31	331.44
676.65	330.28
676.99	329.23
677.33	328.09
677.67	327.04
678.01	325.59
678.34	324.55
678.68	323.61
679.02	322.42
679.36	321.38
679.70	320.30
680.04	319.43
680.37	318.42
680.71	317.51
681.05	316.51
681.39	315.60
681.73	314.65
682.06	313.77
682.40	312.86
682.74	312.11
683.08	311.44
683.42	310.58
683.75	309.83
684.09	308.93
684.43	308.08
684.77	307.09
685.10	306.35
685.44	305.62
685.78	304.78
686.12	304.05
686.45	303.19
686.79	302.30
687.13	301.53
687.46	300.70
687.80	299.95
688.14	299.16
688.48	298.43
688.81	297.69
689.15	296.97
689.49	296.34
689.82	295.57
690.16	294.65
690.50	293.91
690.83	293.13
691.17	292.29
691.51	291.61
691.84	291.05
692.18	290.38
692.52	289.61
692.85	289.02
693.19	288.55
693.52	287.97
693.86	287.33
694.20	286.68
694.53	286.20
694.87	285.53
695.21	284.96
695.54	284.28
695.88	283.58
696.21	282.96
696.55	282.38
696.88	281.70
697.22	281.01
697.56	280.55
697.89	279.93
698.23	279.44
698.56	278.83
698.90	278.30
699.23	277.75
699.57	277.33
699.90	276.65
700.24	275.96
700.58	275.47
700.91	275.09
701.25	274.97
701.58	274.77
701.92	274.49
702.25	273.95
702.59	273.59
702.92	273.24
703.26	272.77
703.59	272.32
703.93	272.34
704.26	272.00
704.60	271.53
704.93	271.13
705.26	270.74
705.60	270.46
705.93	269.91
706.27	269.61
706.60	269.26
706.94	269.17
707.27	268.80
707.61	268.43
707.94	267.96
708.27	267.15
708.61	266.42
708.94	265.99
709.28	265.69
709.61	265.17
709.94	264.79
710.28	264.45
710.61	264.10
710.95	263.34
711.28	263.28
711.61	262.84
711.95	262.62
712.28	262.23
712.61	261.89
712.95	261.90
713.28	261.72
713.61	261.26
713.95	260.78
714.28	260.45
714.61	260.08
714.95	259.80
715.28	259.44
715.61	259.07
715.95	258.71
716.28	258.32
716.61	258.15
716.95	257.80
717.28	257.52
717.61	257.23
717.94	256.97
718.28	256.40
718.61	256.18
718.94	255.85
719.27	255.63
719.61	255.32
719.94	254.85
720.27	254.34
720.60	254.10
720.94	253.81
721.27	253.59
721.60	253.37
721.93	253.02
722.27	253.05
722.60	252.91
722.93	252.68
723.26	252.49
723.59	252.20
723.93	252.13
724.26	251.97
724.59	251.69
724.92	251.47
725.25	251.40
725.59	251.21
725.92	251.12
726.25	250.84
726.58	250.72
726.91	250.58
727.24	250.49
727.57	250.28
727.91	250.04
728.24	249.88
728.57	249.66
728.90	249.59
729.23	249.22
729.56	249.21
729.89	249.00
730.22	248.82
730.55	248.56
730.89	248.37
731.22	248.09
731.55	247.90
731.88	247.86
732.21	247.58
732.54	247.25
732.87	246.99
733.20	246.92
733.53	246.75
733.86	246.61
734.19	246.31
734.52	246.17
734.85	246.34
735.18	246.17
735.51	246.22
735.84	246.04
736.17	246.05
736.50	245.68
736.83	246.04
737.16	245.92
737.49	245.83
737.82	245.49
738.15	245.43
738.48	245.32
738.81	245.00
739.14	244.78
739.47	244.70
739.80	244.56
740.13	244.44
740.46	244.20
740.79	243.97
741.12	243.82
741.45	243.72
741.78	243.33
742.11	243.27
742.44	242.96
742.77	242.96
743.10	242.73
743.43	242.54
743.75	241.88
744.08	242.35
744.41	242.15
744.74	242.08
745.07	241.83
745.40	241.70
745.73	241.77
746.06	241.72
746.39	241.67
746.71	241.50
747.04	241.29
747.37	241.10
747.70	241.02
748.03	241.00
748.36	240.88
748.68	240.78
749.01	240.53
749.34	240.37
749.67	240.29
750.00	240.15
750.33	240.47
750.65	240.36
750.98	239.63
751.31	239.59
751.64	239.46
751.97	239.59
752.29	239.50
752.62	239.15
752.95	238.96
753.28	238.82
753.60	238.64
753.93	238.59
754.26	238.62
754.59	238.37
754.91	238.25
755.24	238.14
755.57	238.04
755.90	237.89
756.22	237.79
756.55	237.54
756.88	237.37
757.20	236.87
757.53	236.66
757.86	236.52
758.19	236.46
758.51	236.35
758.84	236.04
759.17	235.94
759.49	235.94
759.82	236.09
760.15	235.98
760.47	235.96
760.80	235.80
761.13	235.75
761.45	235.68
761.78	235.58
762.11	235.54
762.43	235.35
762.76	235.24
763.08	235.23
763.41	235.20
763.74	235.16
764.06	235.15
764.39	235.09
764.71	235.07
765.04	234.95
765.37	234.80
765.69	234.73
766.02	234.55
766.34	234.39
766.67	234.07
767.00	234.16
767.32	234.29
767.65	234.51
767.97	234.37
768.30	234.28
768.62	234.10
768.95	233.92
769.27	233.86
769.60	233.93
769.92	233.77
770.25	233.65
770.57	233.47
770.90	233.40
771.22	233.39
771.55	233.27
771.87	233.23
772.20	233.22
772.52	233.58
772.85	234.11
773.17	234.13
773.50	234.13
773.82	233.97
774.15	233.67
774.47	233.29
774.80	233.22
775.12	233.17
775.45	233.25
775.77	233.26
776.09	233.29
776.42	233.24
776.74	233.26
777.07	233.12
777.39	233.13
777.72	233.05
778.04	233.00
778.36	232.97
778.69	232.90
779.01	232.89
779.33	232.47
779.66	231.88
779.98	231.82
780.31	231.80
780.63	231.93
780.95	231.98
781.28	231.91
781.60	231.80
781.92	231.75
782.25	231.60
782.57	231.53
782.89	231.34
783.22	231.26
783.54	231.18
783.86	231.24
784.19	231.17
784.51	231.23
784.83	231.14
785.16	231.05
785.48	230.97
785.80	230.94
786.12	230.91
786.45	230.88
786.77	230.87
787.09	230.72
787.42	230.49
787.74	230.52
788.06	230.55
788.38	230.58
788.71	230.55
789.03	230.59
789.35	230.60
789.67	230.60
789.99	230.57
790.32	230.53
790.64	230.57
790.96	230.97
791.28	230.76
791.61	230.74
791.93	230.80
792.25	230.78
792.57	231.10
792.89	231.01
793.21	231.04
793.54	231.03
793.86	231.05
794.18	231.08
794.50	230.94
794.82	230.93
795.14	230.94
795.47	231.00
795.79	231.00
796.11	230.97
796.43	230.92
796.75	230.97
797.07	230.97
797.39	230.96
797.71	230.56
798.04	230.63
798.36	230.72
798.68	230.66
799.00	230.71
799.32	230.43
799.64	230.50
799.96	230.46
800.28	230.47
800.60	230.44
800.92	230.48
801.24	230.42
801.56	230.44
801.89	230.41
802.21	230.45
802.53	230.38
802.85	230.46
803.17	230.69
803.49	230.55
803.81	230.43
804.13	230.30
804.45	230.26
804.77	230.30
805.09	230.25
805.41	230.18
805.73	230.01
806.05	229.88
806.37	229.86
806.69	229.80
807.01	229.71
807.33	229.62
807.65	229.41
807.97	229.62
808.28	229.52
808.60	229.43
808.92	229.34
809.24	229.54
809.56	229.41
809.88	229.19
810.20	229.20
810.52	229.29
810.84	229.26
811.16	229.27
811.48	229.13
811.80	229.24
812.12	229.24
812.43	229.35
812.75	229.43
813.07	229.31
813.39	229.34
813.71	229.22
814.03	229.25
814.35	229.27
814.67	229.10
814.98	229.00
815.30	228.99
815.62	228.91
815.94	228.63
816.26	228.87
816.58	228.81
816.89	228.89
817.21	228.76
817.53	228.75
817.85	228.75
