SpectraSuite Data File
++++++++++++++++++++++++++++++++++++
Date: Wed Sep 04 17:51:35 EDT 2013
User: lab3
Dark Spectrum Present: Yes
Reference Spectrum Present: No
Number of Sampled Component Spectra: 1
Spectrometers: USB2E7196
Integration Time (usec): 170000 (USB2E7196)
Spectra Averaged: 20 (USB2E7196)
Boxcar Smoothing: 10 (USB2E7196)
Correct for Electrical Dark: No (USB2E7196)
Strobe/Lamp Enabled: No (USB2E7196)
Correct for Detector Non-linearity: No (USB2E7196)
Correct for Stray Light: No (USB2E7196)
Number of Pixels in Processed Spectrum: 2048
>>>>>Begin Processed Spectral Data<<<<<
339.09	0.00
339.48	213.50
339.86	213.95
340.24	216.15
340.63	217.00
341.01	227.65
341.39	219.55
341.78	222.55
342.16	223.40
342.54	223.60
342.93	212.50
343.31	223.22
343.69	223.74
344.07	224.16
344.46	224.62
344.84	225.05
345.22	224.91
345.60	225.22
345.99	225.45
346.37	225.58
346.75	225.66
347.13	225.75
347.52	225.79
347.90	226.01
348.28	226.04
348.66	226.14
349.05	226.02
349.43	226.11
349.81	226.10
350.19	226.09
350.57	226.13
350.96	226.27
351.34	226.35
351.72	226.39
352.10	226.60
352.48	226.61
352.87	226.68
353.25	226.76
353.63	226.77
354.01	226.74
354.39	226.84
354.77	226.90
355.15	227.07
355.54	227.07
355.92	226.92
356.30	227.07
356.68	227.43
357.06	227.51
357.44	227.43
357.82	227.45
358.20	228.02
358.58	228.08
358.97	228.03
359.35	228.24
359.73	228.45
360.11	228.45
360.49	228.53
360.87	228.53
361.25	228.66
361.63	228.88
362.01	228.92
362.39	228.88
362.77	228.98
363.15	229.00
363.53	229.04
363.91	229.11
364.29	229.11
364.67	228.69
365.05	228.74
365.43	228.87
365.81	229.05
366.19	228.89
366.57	229.17
366.95	229.28
367.33	229.16
367.71	229.13
368.09	229.27
368.47	229.33
368.85	229.34
369.23	229.40
369.61	229.23
369.99	229.46
370.37	229.59
370.75	229.82
371.13	229.68
371.51	229.58
371.89	229.71
372.27	229.71
372.65	229.66
373.03	229.62
373.41	229.58
373.78	229.44
374.16	229.22
374.54	228.95
374.92	228.87
375.30	228.84
375.68	228.72
376.06	228.70
376.44	228.59
376.82	228.52
377.19	228.48
377.57	228.37
377.95	228.11
378.33	227.91
378.71	227.56
379.09	227.62
379.47	227.69
379.84	227.49
380.22	227.35
380.60	227.21
380.98	227.16
381.36	227.09
381.73	226.96
382.11	226.93
382.49	226.86
382.87	226.69
383.25	226.57
383.62	227.12
384.00	226.90
384.38	226.84
384.76	226.94
385.13	226.99
385.51	226.98
385.89	226.88
386.27	226.89
386.64	226.90
387.02	226.81
387.40	226.70
387.78	226.72
388.15	226.71
388.53	226.66
388.91	226.59
389.29	226.50
389.66	226.58
390.04	226.46
390.42	226.54
390.79	226.58
391.17	226.58
391.55	226.00
391.92	225.95
392.30	225.98
392.68	225.84
393.05	225.82
393.43	225.88
393.81	225.88
394.18	225.89
394.56	225.94
394.94	226.05
395.31	226.03
395.69	226.17
396.06	226.32
396.44	226.39
396.82	226.41
397.19	226.66
397.57	226.64
397.95	226.75
398.32	226.63
398.70	226.71
399.07	226.86
399.45	226.84
399.82	226.98
400.20	226.97
400.58	227.09
400.95	226.96
401.33	227.15
401.70	227.57
402.08	227.68
402.45	227.74
402.83	227.90
403.20	228.09
403.58	228.15
403.95	228.35
404.33	228.65
404.71	228.88
405.08	229.31
405.46	229.56
405.83	229.80
406.21	230.13
406.58	230.43
406.96	230.69
407.33	231.09
407.70	231.47
408.08	232.21
408.45	232.70
408.83	233.24
409.20	233.55
409.58	233.74
409.95	234.24
410.33	234.79
410.70	235.17
411.08	235.80
411.45	236.48
411.82	237.05
412.20	237.83
412.57	238.81
412.95	239.12
413.32	240.01
413.69	240.85
414.07	241.77
414.44	242.80
414.82	243.86
415.19	245.10
415.56	246.32
415.94	247.31
416.31	248.66
416.68	250.12
417.06	251.72
417.43	253.39
417.81	255.17
418.18	257.08
418.55	259.06
418.93	261.01
419.30	263.05
419.67	265.33
420.04	267.55
420.42	269.80
420.79	272.90
421.16	275.58
421.54	278.62
421.91	281.65
422.28	284.69
422.66	287.94
423.03	291.33
423.40	294.55
423.77	298.11
424.15	301.71
424.52	305.46
424.89	309.68
425.26	313.58
425.64	317.35
426.01	321.37
426.38	325.73
426.75	330.34
427.13	334.92
427.50	339.49
427.87	344.44
428.24	349.42
428.61	353.96
428.99	359.41
429.36	364.90
429.73	370.34
430.10	375.82
430.47	381.51
430.85	387.15
431.22	393.34
431.59	400.15
431.96	406.39
432.33	413.23
432.70	419.83
433.08	427.68
433.45	435.02
433.82	442.42
434.19	450.67
434.56	458.69
434.93	466.27
435.30	474.05
435.68	482.49
436.05	490.88
436.42	499.03
436.79	506.47
437.16	514.77
437.53	523.37
437.90	531.95
438.27	540.36
438.64	549.12
439.01	557.42
439.38	564.39
439.75	571.46
440.13	579.42
440.50	586.78
440.87	592.73
441.24	599.20
441.61	606.16
441.98	611.21
442.35	616.85
442.72	622.90
443.09	628.75
443.46	632.09
443.83	634.32
444.20	636.38
444.57	639.22
444.94	640.35
445.31	641.65
445.68	643.18
446.05	643.48
446.42	642.20
446.79	640.83
447.16	639.41
447.53	638.14
447.90	634.50
448.27	630.87
448.64	626.21
449.01	622.39
449.37	616.27
449.74	610.16
450.11	603.42
450.48	595.73
450.85	587.68
451.22	580.95
451.59	574.43
451.96	568.12
452.33	559.90
452.70	552.54
453.07	543.82
453.43	534.69
453.80	526.33
454.17	518.33
454.54	510.55
454.91	502.38
455.28	494.45
455.65	487.01
456.02	480.44
456.38	474.11
456.75	466.45
457.12	459.91
457.49	453.65
457.86	447.42
458.23	442.26
458.59	436.63
458.96	430.94
459.33	425.78
459.70	420.77
460.07	416.80
460.43	412.05
460.80	407.95
461.17	404.18
461.54	400.20
461.91	396.46
462.27	392.72
462.64	389.49
463.01	385.89
463.38	382.71
463.74	378.61
464.11	375.43
464.48	372.87
464.85	370.03
465.21	367.96
465.58	365.59
465.95	362.73
466.32	360.45
466.68	358.18
467.05	355.94
467.42	353.86
467.78	351.58
468.15	349.51
468.52	347.84
468.88	345.66
469.25	343.70
469.62	342.31
469.98	340.71
470.35	339.19
470.72	337.83
471.08	336.13
471.45	334.86
471.82	333.74
472.18	332.30
472.55	331.30
472.92	329.96
473.28	328.80
473.65	327.77
474.02	326.79
474.38	325.90
474.75	325.21
475.11	324.23
475.48	323.57
475.85	322.89
476.21	322.17
476.58	321.62
476.94	321.26
477.31	320.78
477.67	320.32
478.04	319.97
478.41	319.77
478.77	319.93
479.14	319.60
479.50	319.49
479.87	319.48
480.23	319.41
480.60	319.38
480.96	319.45
481.33	319.79
481.69	319.88
482.06	320.02
482.42	320.32
482.79	320.67
483.15	321.07
483.52	321.67
483.88	322.20
484.25	322.78
484.61	323.35
484.98	323.98
485.34	324.93
485.71	325.85
486.07	326.83
486.44	327.33
486.80	328.46
487.17	329.54
487.53	330.88
487.90	332.30
488.26	333.95
488.62	335.60
488.99	337.08
489.35	338.88
489.72	340.87
490.08	342.82
490.44	344.84
490.81	347.03
491.17	349.19
491.54	351.66
491.90	354.24
492.26	356.95
492.63	359.71
492.99	362.47
493.36	365.61
493.72	368.79
494.08	372.32
494.45	376.07
494.81	379.82
495.17	383.71
495.54	387.89
495.90	392.11
496.26	396.50
496.63	401.20
496.99	405.89
497.35	410.93
497.72	416.28
498.08	421.66
498.44	427.30
498.80	433.37
499.17	439.20
499.53	445.49
499.89	452.03
500.26	458.75
500.62	465.72
500.98	473.07
501.34	480.46
501.71	488.18
502.07	495.96
502.43	504.15
502.79	512.40
503.16	520.96
503.52	529.87
503.88	539.14
504.24	548.85
504.60	558.97
504.97	569.17
505.33	579.53
505.69	590.68
506.05	601.77
506.41	613.03
506.78	624.80
507.14	636.70
507.50	649.20
507.86	661.93
508.22	675.01
508.59	688.09
508.95	701.82
509.31	715.93
509.67	730.20
510.03	744.55
510.39	759.38
510.75	774.46
511.12	789.61
511.48	805.20
511.84	820.67
512.20	836.53
512.56	852.93
512.92	869.60
513.28	886.24
513.64	903.54
514.00	920.92
514.37	938.44
514.73	956.76
515.09	974.67
515.45	992.82
515.81	1010.96
516.17	1029.66
516.53	1048.35
516.89	1066.79
517.25	1085.95
517.61	1106.22
517.97	1126.31
518.33	1146.41
518.69	1166.62
519.05	1187.20
519.41	1207.98
519.77	1228.72
520.13	1249.44
520.49	1269.90
520.85	1292.29
521.21	1313.26
521.57	1334.49
521.93	1355.39
522.29	1376.34
522.65	1397.01
523.01	1417.92
523.37	1438.79
523.73	1459.60
524.09	1479.92
524.45	1500.96
524.81	1521.75
525.17	1542.11
525.53	1562.76
525.89	1583.50
526.25	1604.23
526.61	1624.18
526.97	1645.19
527.33	1666.18
527.68	1687.71
528.04	1709.06
528.40	1728.59
528.76	1749.52
529.12	1769.75
529.48	1790.69
529.84	1810.35
530.20	1831.27
530.56	1851.85
530.91	1872.39
531.27	1892.71
531.63	1913.41
531.99	1933.48
532.35	1953.25
532.71	1973.39
533.07	1993.87
533.42	2013.52
533.78	2033.40
534.14	2053.38
534.50	2072.01
534.86	2091.34
535.21	2108.80
535.57	2127.17
535.93	2144.70
536.29	2162.32
536.65	2180.54
537.00	2197.72
537.36	2215.38
537.72	2232.10
538.08	2249.01
538.44	2265.75
538.79	2282.14
539.15	2298.34
539.51	2314.24
539.87	2329.35
540.22	2343.12
540.58	2357.11
540.94	2370.11
541.29	2382.53
541.65	2394.63
542.01	2407.07
542.37	2417.56
542.72	2428.48
543.08	2438.84
543.44	2450.51
543.79	2460.34
544.15	2469.95
544.51	2480.11
544.87	2489.34
545.22	2497.71
545.58	2505.37
545.94	2512.40
546.29	2518.55
546.65	2524.68
547.01	2530.33
547.36	2535.91
547.72	2541.52
548.07	2545.30
548.43	2550.42
548.79	2554.74
549.14	2558.98
549.50	2563.03
549.86	2566.60
550.21	2570.28
550.57	2573.43
550.92	2574.55
551.28	2575.71
551.64	2577.59
551.99	2579.04
552.35	2580.85
552.70	2582.47
553.06	2584.50
553.41	2585.47
553.77	2587.38
554.13	2588.77
554.48	2590.29
554.84	2591.84
555.19	2592.57
555.55	2594.23
555.90	2593.35
556.26	2592.77
556.61	2591.29
556.97	2589.24
557.32	2588.67
557.68	2587.47
558.03	2585.82
558.39	2584.47
558.74	2583.54
559.10	2580.22
559.45	2576.86
559.81	2572.13
560.16	2567.27
560.52	2561.97
560.87	2557.72
561.23	2551.83
561.58	2545.78
561.94	2538.45
562.29	2530.68
562.64	2524.03
563.00	2515.83
563.35	2509.68
563.71	2502.92
564.06	2496.58
564.42	2489.54
564.77	2482.52
565.12	2474.64
565.48	2467.14
565.83	2459.23
566.19	2451.10
566.54	2443.57
566.89	2435.46
567.25	2428.20
567.60	2421.17
567.96	2413.56
568.31	2405.36
568.66	2397.16
569.02	2388.45
569.37	2380.41
569.72	2372.73
570.08	2363.27
570.43	2353.81
570.78	2344.43
571.14	2335.04
571.49	2324.79
571.84	2315.26
572.20	2304.40
572.55	2294.64
572.90	2283.76
573.26	2273.09
573.61	2262.25
573.96	2251.05
574.31	2239.08
574.67	2227.37
575.02	2214.20
575.37	2201.64
575.72	2188.50
576.08	2176.19
576.43	2163.66
576.78	2150.76
577.13	2137.26
577.49	2124.52
577.84	2112.80
578.19	2100.91
578.54	2088.58
578.90	2076.63
579.25	2064.37
579.60	2052.34
579.95	2039.24
580.30	2026.30
580.66	2013.23
581.01	1999.62
581.36	1985.93
581.71	1973.40
582.06	1960.23
582.42	1948.45
582.77	1935.90
583.12	1924.07
583.47	1912.09
583.82	1900.15
584.17	1888.46
584.53	1876.93
584.88	1864.35
585.23	1851.40
585.58	1837.37
585.93	1824.06
586.28	1810.95
586.63	1797.10
586.98	1782.77
587.34	1769.85
587.69	1756.45
588.04	1744.00
588.39	1732.15
588.74	1720.12
589.09	1708.12
589.44	1695.41
589.79	1682.99
590.14	1671.15
590.49	1659.29
590.84	1647.16
591.19	1635.26
591.54	1622.75
591.89	1610.56
592.25	1600.04
592.60	1588.65
592.95	1577.20
593.30	1565.44
593.65	1553.29
594.00	1541.49
594.35	1532.01
594.70	1520.07
595.05	1509.03
595.40	1496.93
595.75	1485.00
596.10	1473.72
596.45	1462.19
596.80	1451.55
597.15	1440.15
597.50	1428.49
597.85	1417.03
598.19	1405.46
598.54	1393.84
598.89	1382.39
599.24	1371.80
599.59	1360.40
599.94	1349.33
600.29	1339.14
600.64	1328.69
600.99	1318.34
601.34	1308.92
601.69	1297.75
602.04	1288.19
602.39	1278.50
602.74	1269.47
603.08	1260.03
603.43	1250.78
603.78	1241.07
604.13	1231.49
604.48	1222.03
604.83	1212.39
605.18	1202.78
605.53	1193.45
605.87	1184.26
606.22	1176.15
606.57	1166.79
606.92	1157.56
607.27	1148.87
607.62	1140.04
607.96	1131.73
608.31	1123.67
608.66	1115.08
609.01	1106.47
609.36	1097.88
609.70	1089.45
610.05	1080.93
610.40	1072.67
610.75	1063.99
611.10	1055.78
611.44	1047.31
611.79	1039.26
612.14	1031.50
612.49	1023.74
612.83	1016.20
613.18	1008.83
613.53	1000.94
613.88	993.31
614.22	985.68
614.57	977.73
614.92	970.10
615.27	962.57
615.61	955.14
615.96	947.61
616.31	940.24
616.65	933.20
617.00	925.99
617.35	918.71
617.70	911.62
618.04	904.62
618.39	897.79
618.74	891.53
619.08	884.60
619.43	877.56
619.78	870.55
620.12	863.58
620.47	856.59
620.82	849.74
621.16	842.95
621.51	836.72
621.85	830.62
622.20	823.99
622.55	817.56
622.89	811.12
623.24	804.76
623.59	798.52
623.93	792.08
624.28	786.06
624.62	780.59
624.97	774.83
625.32	769.16
625.66	763.18
626.01	756.93
626.35	751.55
626.70	746.23
627.04	741.07
627.39	735.56
627.73	730.42
628.08	725.26
628.43	719.89
628.77	714.40
629.12	709.21
629.46	704.49
629.81	699.70
630.15	695.01
630.50	690.34
630.84	685.58
631.19	680.92
631.53	676.31
631.88	671.10
632.22	666.39
632.57	661.97
632.91	657.58
633.26	653.29
633.60	648.63
633.95	644.02
634.29	639.19
634.64	634.88
634.98	630.08
635.32	625.69
635.67	621.85
636.01	617.90
636.36	613.47
636.70	609.46
637.05	605.19
637.39	601.08
637.73	597.12
638.08	593.09
638.42	588.95
638.77	584.53
639.11	580.24
639.45	575.99
639.80	571.53
640.14	567.55
640.49	563.50
640.83	559.74
641.17	556.05
641.52	552.62
641.86	549.03
642.20	545.86
642.55	542.25
642.89	538.56
643.23	534.80
643.58	531.74
643.92	528.02
644.26	524.70
644.61	521.52
644.95	518.07
645.29	514.71
645.64	511.67
645.98	508.75
646.32	505.80
646.66	502.68
647.01	499.85
647.35	496.86
647.69	494.03
648.04	491.20
648.38	488.41
648.72	485.45
649.06	482.35
649.41	479.21
649.75	476.35
650.09	473.60
650.43	470.96
650.78	468.00
651.12	465.30
651.46	462.41
651.80	459.51
652.14	456.70
652.49	454.09
652.83	451.52
653.17	448.90
653.51	446.22
653.85	443.83
654.20	441.44
654.54	438.98
654.88	436.50
655.22	434.26
655.56	431.70
655.90	429.19
656.25	426.95
656.59	424.69
656.93	422.43
657.27	420.23
657.61	417.65
657.95	415.47
658.29	413.24
658.64	411.42
658.98	409.30
659.32	407.18
659.66	405.13
660.00	402.98
660.34	400.93
660.68	398.94
661.02	396.83
661.36	394.81
661.70	392.79
662.05	390.85
662.39	388.81
662.73	387.15
663.07	385.71
663.41	383.94
663.75	382.09
664.09	380.23
664.43	378.43
664.77	376.87
665.11	375.08
665.45	373.49
665.79	371.70
666.13	369.98
666.47	368.34
666.81	366.68
667.15	364.98
667.49	363.43
667.83	362.08
668.17	360.76
668.51	359.34
668.85	358.04
669.19	356.94
669.53	355.47
669.87	353.93
670.21	352.32
670.55	350.97
670.89	349.89
671.23	348.62
671.57	347.21
671.91	345.93
672.25	344.62
672.58	343.42
672.92	342.06
673.26	340.91
673.60	339.80
673.94	338.67
674.28	337.64
674.62	336.59
674.96	335.32
675.30	334.05
675.64	332.72
675.97	331.34
676.31	329.93
676.65	328.71
676.99	327.78
677.33	326.68
677.67	325.53
678.01	324.26
678.34	323.27
678.68	322.32
679.02	321.20
679.36	320.20
679.70	319.10
680.04	318.16
680.37	317.14
680.71	316.09
681.05	315.23
681.39	314.23
681.73	313.20
682.06	312.29
682.40	311.53
682.74	310.84
683.08	310.31
683.42	309.33
683.75	308.55
684.09	307.56
684.43	306.73
684.77	305.91
685.10	305.17
685.44	304.30
685.78	303.42
686.12	302.73
686.45	301.90
686.79	301.05
687.13	300.35
687.46	299.56
687.80	299.00
688.14	298.10
688.48	297.40
688.81	296.66
689.15	296.06
689.49	295.20
689.82	294.51
690.16	293.55
690.50	293.00
690.83	292.30
691.17	291.56
691.51	290.79
691.84	290.14
692.18	289.41
692.52	288.71
692.85	288.11
693.19	287.65
693.52	287.13
693.86	286.50
694.20	285.80
694.53	285.22
694.87	284.51
695.21	283.87
695.54	283.28
695.88	282.66
696.21	281.90
696.55	281.32
696.88	280.68
697.22	280.11
697.56	279.52
697.89	278.95
698.23	278.46
698.56	277.98
698.90	277.52
699.23	276.99
699.57	276.58
699.90	275.95
700.24	275.22
700.58	274.72
700.91	274.38
701.25	274.28
701.58	274.16
701.92	273.77
702.25	273.41
702.59	272.93
702.92	272.51
703.26	272.14
703.59	271.73
703.93	271.74
704.26	271.40
704.60	270.98
704.93	270.58
705.26	270.11
705.60	269.80
705.93	269.26
706.27	268.99
706.60	268.68
706.94	268.53
707.27	268.19
707.61	267.85
707.94	267.46
708.27	266.72
708.61	265.95
708.94	265.53
709.28	265.14
709.61	264.73
709.94	264.39
710.28	264.03
710.61	263.76
710.95	262.94
711.28	262.92
711.61	262.54
711.95	262.26
712.28	261.79
712.61	261.40
712.95	261.36
713.28	261.22
713.61	260.77
713.95	260.34
714.28	259.94
714.61	259.56
714.95	259.15
715.28	258.77
715.61	258.48
715.95	258.23
716.28	257.85
716.61	257.67
716.95	257.31
717.28	256.98
717.61	256.69
717.94	256.40
718.28	255.71
718.61	255.46
718.94	255.00
719.27	254.85
719.61	254.56
719.94	254.15
720.27	253.59
720.60	253.30
720.94	252.97
721.27	252.82
721.60	252.63
721.93	252.42
722.27	252.35
722.60	252.18
722.93	251.89
723.26	251.70
723.59	251.41
723.93	251.26
724.26	251.13
724.59	250.81
724.92	250.57
725.25	250.50
725.59	250.23
725.92	250.28
726.25	250.08
726.58	249.98
726.91	249.70
727.24	249.55
727.57	249.36
727.91	249.06
728.24	248.91
728.57	248.66
728.90	248.47
729.23	248.10
729.56	248.14
729.89	247.89
730.22	247.72
730.55	247.50
730.89	247.31
731.22	247.05
731.55	246.87
731.88	246.75
732.21	246.49
732.54	246.25
732.87	246.03
733.20	245.87
733.53	245.66
733.86	245.61
734.19	245.44
734.52	245.33
734.85	245.56
735.18	245.32
735.51	245.32
735.84	245.22
736.17	245.22
736.50	244.75
736.83	245.25
737.16	245.09
737.49	245.07
737.82	244.94
738.15	244.87
738.48	244.83
738.81	244.70
739.14	244.46
739.47	244.36
739.80	244.11
740.13	243.98
740.46	243.76
740.79	243.53
741.12	243.36
741.45	243.12
741.78	242.73
742.11	242.71
742.44	242.40
742.77	242.35
743.10	242.14
743.43	241.95
743.75	241.28
744.08	241.75
744.41	241.49
744.74	241.32
745.07	241.11
745.40	240.96
745.73	240.97
746.06	240.92
746.39	240.84
746.71	240.71
747.04	240.52
747.37	240.41
747.70	240.26
748.03	240.18
748.36	240.17
748.68	240.04
749.01	239.81
749.34	239.77
749.67	239.59
750.00	239.58
750.33	239.87
750.65	239.77
750.98	239.07
751.31	238.98
751.64	238.86
751.97	239.02
752.29	238.87
752.62	238.57
752.95	238.39
753.28	238.22
753.60	238.11
753.93	238.11
754.26	238.00
754.59	237.80
754.91	237.62
755.24	237.48
755.57	237.34
755.90	237.17
756.22	236.95
756.55	236.81
756.88	236.61
757.20	236.17
757.53	235.93
757.86	235.87
758.19	235.78
758.51	235.64
758.84	235.28
759.17	235.15
759.49	234.98
759.82	235.23
760.15	235.20
760.47	235.03
760.80	234.77
761.13	234.72
761.45	234.71
761.78	234.66
762.11	234.55
762.43	234.39
762.76	234.33
763.08	234.32
763.41	234.23
763.74	234.12
764.06	234.05
764.39	234.00
764.71	233.78
765.04	233.60
765.37	233.50
765.69	233.38
766.02	233.26
766.34	233.22
766.67	232.92
767.00	232.90
767.32	233.17
767.65	233.45
767.97	233.35
768.30	233.25
768.62	233.19
768.95	233.09
769.27	233.02
769.60	233.10
769.92	232.99
770.25	232.82
770.57	232.71
770.90	232.58
771.22	232.43
771.55	232.48
771.87	232.53
772.20	232.44
772.52	232.84
772.85	233.42
773.17	233.39
773.50	233.24
773.82	233.10
774.15	232.77
774.47	232.35
774.80	232.26
775.12	232.20
775.45	232.05
775.77	232.12
776.09	232.16
776.42	232.10
776.74	232.28
777.07	232.25
777.39	232.28
777.72	232.20
778.04	232.36
778.36	232.17
778.69	232.15
779.01	232.13
779.33	231.65
779.66	231.07
779.98	230.97
780.31	230.94
780.63	231.14
780.95	231.22
781.28	231.28
781.60	231.20
781.92	231.15
782.25	231.15
782.57	231.07
782.89	231.02
783.22	230.94
783.54	230.70
783.86	230.73
784.19	230.66
784.51	230.83
784.83	230.60
785.16	230.66
785.48	230.64
785.80	230.69
786.12	230.68
786.45	230.57
786.77	230.62
787.09	230.67
787.42	230.47
787.74	230.44
788.06	230.46
788.38	230.48
788.71	230.42
789.03	230.50
789.35	230.47
789.67	230.35
789.99	230.32
790.32	230.26
790.64	230.30
790.96	230.65
791.28	230.50
791.61	230.52
791.93	230.48
792.25	230.34
792.57	230.63
792.89	230.60
793.21	230.65
793.54	230.56
793.86	230.49
794.18	230.48
794.50	230.37
794.82	230.33
795.14	230.35
795.47	230.42
795.79	230.32
796.11	230.24
796.43	230.23
796.75	230.21
797.07	230.24
797.39	230.14
797.71	229.75
798.04	229.72
798.36	229.62
798.68	229.53
799.00	229.59
799.32	229.28
799.64	229.21
799.96	229.17
800.28	229.28
800.60	229.20
800.92	229.18
801.24	229.07
801.56	229.06
801.89	229.00
802.21	229.00
802.53	228.93
802.85	228.92
803.17	229.04
803.49	228.96
803.81	228.80
804.13	228.74
804.45	228.65
804.77	228.71
805.09	228.79
805.41	228.72
805.73	228.57
806.05	228.50
806.37	228.53
806.69	228.51
807.01	228.41
807.33	228.36
807.65	228.16
807.97	228.41
808.28	228.30
808.60	228.28
808.92	228.19
809.24	228.45
809.56	228.43
809.88	228.35
810.20	228.21
810.52	228.34
810.84	228.29
811.16	228.23
811.48	228.13
811.80	228.32
812.12	228.39
812.43	228.54
812.75	228.51
813.07	228.45
813.39	228.45
813.71	228.39
814.03	228.37
814.35	228.40
814.67	228.19
814.98	228.19
815.30	228.16
815.62	228.11
815.94	227.80
816.26	228.01
816.58	227.92
816.89	228.03
817.21	227.92
817.53	227.97
817.85	228.00
