SpectraSuite Data File
++++++++++++++++++++++++++++++++++++
Date: Wed Sep 04 17:52:45 EDT 2013
User: lab3
Dark Spectrum Present: Yes
Reference Spectrum Present: No
Number of Sampled Component Spectra: 1
Spectrometers: USB2E7196
Integration Time (usec): 170000 (USB2E7196)
Spectra Averaged: 20 (USB2E7196)
Boxcar Smoothing: 10 (USB2E7196)
Correct for Electrical Dark: No (USB2E7196)
Strobe/Lamp Enabled: No (USB2E7196)
Correct for Detector Non-linearity: No (USB2E7196)
Correct for Stray Light: No (USB2E7196)
Number of Pixels in Processed Spectrum: 2048
>>>>>Begin Processed Spectral Data<<<<<
339.09	0.00
339.48	212.90
339.86	214.25
340.24	214.95
340.63	217.80
341.01	225.80
341.39	219.40
341.78	222.60
342.16	223.50
342.54	223.20
342.93	212.13
343.31	222.84
343.69	223.36
344.07	223.87
344.46	224.45
344.84	224.89
345.22	224.87
345.60	225.26
345.99	225.44
346.37	225.56
346.75	225.66
347.13	225.74
347.52	225.87
347.90	226.08
348.28	226.12
348.66	226.17
349.05	226.08
349.43	226.24
349.81	226.38
350.19	226.49
350.57	226.53
350.96	226.65
351.34	226.72
351.72	226.83
352.10	226.93
352.48	226.90
352.87	226.90
353.25	227.00
353.63	226.99
354.01	227.01
354.39	227.09
354.77	227.15
355.15	227.32
355.54	227.26
355.92	227.15
356.30	227.22
356.68	227.63
357.06	227.74
357.44	227.67
357.82	227.71
358.20	228.12
358.58	228.19
358.97	228.33
359.35	228.56
359.73	228.79
360.11	228.81
360.49	228.87
360.87	228.87
361.25	228.95
361.63	229.16
362.01	229.29
362.39	229.35
362.77	229.48
363.15	229.47
363.53	229.61
363.91	229.66
364.29	229.70
364.67	229.32
365.05	229.33
365.43	229.47
365.81	229.51
366.19	229.37
366.57	229.54
366.95	229.44
367.33	229.29
367.71	229.23
368.09	229.35
368.47	229.39
368.85	229.39
369.23	229.46
369.61	229.28
369.99	229.38
370.37	229.41
370.75	229.63
371.13	229.56
371.51	229.39
371.89	229.45
372.27	229.42
372.65	229.39
373.03	229.39
373.41	229.30
373.78	229.31
374.16	229.04
374.54	228.95
374.92	228.89
375.30	228.86
375.68	228.66
376.06	228.67
376.44	228.60
376.82	228.55
377.19	228.50
377.57	228.37
377.95	228.14
378.33	228.00
378.71	227.63
379.09	227.58
379.47	227.67
379.84	227.47
380.22	227.37
380.60	227.25
380.98	227.09
381.36	227.01
381.73	226.81
382.11	226.89
382.49	226.76
382.87	226.70
383.25	226.61
383.62	227.18
384.00	226.96
384.38	226.89
384.76	227.01
385.13	227.12
385.51	227.13
385.89	227.07
386.27	227.07
386.64	227.05
387.02	227.01
387.40	226.89
387.78	226.92
388.15	226.90
388.53	226.85
388.91	226.89
389.29	226.88
389.66	226.97
390.04	226.80
390.42	226.85
390.79	226.86
391.17	226.87
391.55	226.29
391.92	226.26
392.30	226.28
392.68	226.14
393.05	226.04
393.43	226.01
393.81	226.00
394.18	225.97
394.56	226.01
394.94	226.11
395.31	226.10
395.69	226.30
396.06	226.37
396.44	226.42
396.82	226.41
397.19	226.75
397.57	226.71
397.95	226.87
398.32	226.80
398.70	226.87
399.07	227.02
399.45	227.12
399.82	227.25
400.20	227.30
400.58	227.36
400.95	227.35
401.33	227.60
401.70	228.04
402.08	228.10
402.45	228.27
402.83	228.50
403.20	228.69
403.58	228.72
403.95	228.98
404.33	229.27
404.71	229.51
405.08	229.86
405.46	230.07
405.83	230.30
406.21	230.55
406.58	230.87
406.96	231.15
407.33	231.46
407.70	231.83
408.08	232.58
408.45	233.08
408.83	233.61
409.20	233.98
409.58	234.19
409.95	234.79
410.33	235.35
410.70	235.70
411.08	236.37
411.45	237.07
411.82	237.62
412.20	238.33
412.57	239.29
412.95	239.73
413.32	240.70
413.69	241.50
414.07	242.50
414.44	243.47
414.82	244.50
415.19	245.67
415.56	246.76
415.94	247.77
416.31	249.15
416.68	250.49
417.06	252.13
417.43	253.74
417.81	255.45
418.18	257.22
418.55	259.21
418.93	261.26
419.30	263.30
419.67	265.55
420.04	267.79
420.42	270.12
420.79	273.15
421.16	275.89
421.54	278.99
421.91	281.94
422.28	285.05
422.66	288.36
423.03	291.79
423.40	295.23
423.77	298.74
424.15	302.28
424.52	305.98
424.89	310.08
425.26	314.04
425.64	317.85
426.01	322.04
426.38	326.37
426.75	330.72
427.13	335.25
427.50	339.86
427.87	344.73
428.24	349.63
428.61	354.04
428.99	359.26
429.36	364.71
429.73	370.22
430.10	375.71
430.47	381.30
430.85	387.00
431.22	393.20
431.59	399.99
431.96	406.19
432.33	413.23
432.70	419.94
433.08	427.85
433.45	435.26
433.82	442.49
434.19	450.72
434.56	458.84
434.93	466.44
435.30	474.10
435.68	482.53
436.05	490.93
436.42	499.31
436.79	506.98
437.16	515.09
437.53	523.86
437.90	532.44
438.27	541.01
438.64	549.81
439.01	558.07
439.38	565.11
439.75	572.24
440.13	580.19
440.50	587.67
440.87	593.72
441.24	599.93
441.61	606.98
441.98	612.04
442.35	617.75
442.72	623.76
443.09	629.63
443.46	633.20
443.83	635.29
444.20	637.29
444.57	639.96
444.94	641.18
445.31	642.32
445.68	643.72
446.05	643.82
446.42	642.54
446.79	641.06
447.16	639.61
447.53	638.46
447.90	634.79
448.27	630.96
448.64	625.96
449.01	622.41
449.37	616.29
449.74	610.22
450.11	603.47
450.48	595.75
450.85	587.79
451.22	581.01
451.59	574.68
451.96	568.29
452.33	560.13
452.70	552.79
453.07	544.12
453.43	535.05
453.80	526.65
454.17	518.71
454.54	511.03
454.91	502.80
455.28	494.70
455.65	487.22
456.02	480.45
456.38	474.18
456.75	466.38
457.12	459.85
457.49	453.58
457.86	447.21
458.23	442.14
458.59	436.51
458.96	430.73
459.33	425.56
459.70	420.58
460.07	416.63
460.43	411.97
460.80	407.59
461.17	403.86
461.54	399.96
461.91	396.06
462.27	392.20
462.64	388.90
463.01	385.44
463.38	382.26
463.74	378.38
464.11	375.44
464.48	372.84
464.85	370.06
465.21	367.87
465.58	365.59
465.95	362.76
466.32	360.61
466.68	358.42
467.05	356.27
467.42	354.04
467.78	351.76
468.15	349.70
468.52	348.19
468.88	345.98
469.25	344.06
469.62	342.66
469.98	341.08
470.35	339.62
470.72	338.17
471.08	336.32
471.45	334.97
471.82	333.70
472.18	332.32
472.55	331.30
472.92	329.94
473.28	328.88
473.65	327.80
474.02	326.69
474.38	325.77
474.75	324.97
475.11	324.08
475.48	323.46
475.85	322.77
476.21	321.99
476.58	321.53
476.94	321.13
477.31	320.65
477.67	320.16
478.04	319.83
478.41	319.65
478.77	319.98
479.14	319.72
479.50	319.50
479.87	319.50
480.23	319.45
480.60	319.55
480.96	319.48
481.33	319.83
481.69	320.01
482.06	320.14
482.42	320.38
482.79	320.75
483.15	321.08
483.52	321.77
483.88	322.26
484.25	322.85
484.61	323.49
484.98	324.15
485.34	325.14
485.71	326.18
486.07	327.11
486.44	327.67
486.80	328.76
487.17	329.89
487.53	331.25
487.90	332.62
488.26	334.30
488.62	336.06
488.99	337.58
489.35	339.37
489.72	341.35
490.08	343.23
490.44	345.22
490.81	347.35
491.17	349.48
491.54	351.96
491.90	354.55
492.26	357.19
492.63	360.08
492.99	362.84
493.36	365.77
493.72	369.09
494.08	372.54
494.45	376.28
494.81	380.14
495.17	383.99
495.54	388.18
495.90	392.36
496.26	396.78
496.63	401.38
496.99	406.15
497.35	411.15
497.72	416.58
498.08	421.99
498.44	427.77
498.80	433.81
499.17	439.82
499.53	446.08
499.89	452.73
500.26	459.41
500.62	466.64
500.98	474.03
501.34	481.47
501.71	489.21
502.07	496.96
502.43	505.15
502.79	513.52
503.16	522.29
503.52	531.19
503.88	540.34
504.24	550.23
504.60	560.26
504.97	570.55
505.33	580.97
505.69	592.00
506.05	603.10
506.41	614.28
506.78	625.95
507.14	637.89
507.50	650.33
507.86	662.83
508.22	675.58
508.59	688.61
508.95	702.12
509.31	716.52
509.67	730.82
510.03	745.08
510.39	759.77
510.75	774.80
511.12	790.06
511.48	805.73
511.84	821.16
512.20	837.04
512.56	853.29
512.92	870.01
513.28	886.87
513.64	903.98
514.00	921.49
514.37	939.49
514.73	957.58
515.09	975.60
515.45	994.08
515.81	1012.32
516.17	1031.09
516.53	1049.80
516.89	1068.11
517.25	1087.36
517.61	1107.59
517.97	1127.80
518.33	1147.51
518.69	1167.76
519.05	1188.11
519.41	1208.80
519.77	1229.85
520.13	1250.44
520.49	1270.81
520.85	1293.34
521.21	1314.41
521.57	1335.73
521.93	1356.24
522.29	1377.35
522.65	1398.22
523.01	1418.97
523.37	1439.66
523.73	1460.85
524.09	1481.46
524.45	1502.08
524.81	1522.70
525.17	1543.20
525.53	1563.58
525.89	1584.48
526.25	1605.23
526.61	1625.55
526.97	1646.63
527.33	1667.57
527.68	1689.21
528.04	1710.76
528.40	1729.85
528.76	1750.67
529.12	1771.05
529.48	1791.88
529.84	1812.05
530.20	1832.85
530.56	1853.60
530.91	1874.60
531.27	1894.83
531.63	1915.31
531.99	1935.78
532.35	1955.88
532.71	1975.80
533.07	1996.50
533.42	2016.51
533.78	2036.32
534.14	2056.20
534.50	2074.84
534.86	2094.03
535.21	2111.65
535.57	2129.81
535.93	2147.46
536.29	2165.07
536.65	2183.13
537.00	2200.55
537.36	2217.67
537.72	2234.13
538.08	2250.92
538.44	2267.48
538.79	2283.63
539.15	2299.78
539.51	2315.84
539.87	2330.90
540.22	2345.05
540.58	2359.40
540.94	2372.28
541.29	2385.06
541.65	2397.25
542.01	2409.75
542.37	2420.08
542.72	2430.89
543.08	2441.31
543.44	2452.89
543.79	2462.80
544.15	2472.36
544.51	2482.35
544.87	2492.00
545.22	2500.91
545.58	2508.94
545.94	2515.91
546.29	2522.26
546.65	2528.45
547.01	2533.88
547.36	2539.31
547.72	2544.62
548.07	2548.01
548.43	2553.24
548.79	2557.64
549.14	2562.02
549.50	2566.09
549.86	2569.93
550.21	2573.73
550.57	2577.23
550.92	2578.51
551.28	2579.85
551.64	2582.26
551.99	2584.35
552.35	2585.85
552.70	2587.73
553.06	2589.26
553.41	2590.36
553.77	2592.10
554.13	2593.74
554.48	2595.19
554.84	2596.53
555.19	2597.69
555.55	2599.56
555.90	2598.88
556.26	2598.08
556.61	2596.34
556.97	2593.56
557.32	2592.84
557.68	2591.82
558.03	2590.21
558.39	2588.81
558.74	2587.84
559.10	2584.47
559.45	2580.45
559.81	2575.98
560.16	2570.68
560.52	2565.86
560.87	2561.63
561.23	2556.42
561.58	2550.80
561.94	2543.86
562.29	2536.47
562.64	2529.26
563.00	2520.84
563.35	2514.22
563.71	2507.05
564.06	2500.77
564.42	2494.81
564.77	2487.85
565.12	2480.10
565.48	2472.26
565.83	2464.15
566.19	2456.17
566.54	2448.06
566.89	2440.11
567.25	2432.51
567.60	2425.45
567.96	2417.95
568.31	2410.07
568.66	2401.03
569.02	2391.77
569.37	2383.53
569.72	2376.05
570.08	2366.80
570.43	2357.42
570.78	2348.25
571.14	2339.20
571.49	2329.20
571.84	2319.29
572.20	2308.70
572.55	2298.44
572.90	2287.54
573.26	2277.58
573.61	2266.72
573.96	2255.79
574.31	2243.61
574.67	2231.54
575.02	2218.60
575.37	2205.73
575.72	2192.40
576.08	2180.52
576.43	2167.95
576.78	2154.93
577.13	2141.35
577.49	2128.93
577.84	2117.30
578.19	2105.46
578.54	2093.00
578.90	2081.05
579.25	2068.57
579.60	2056.07
579.95	2043.24
580.30	2030.39
580.66	2016.95
581.01	2003.49
581.36	1989.68
581.71	1977.35
582.06	1964.53
582.42	1952.37
582.77	1939.93
583.12	1928.03
583.47	1915.56
583.82	1903.75
584.17	1891.82
584.53	1879.92
584.88	1866.92
585.23	1853.80
585.58	1839.70
585.93	1826.35
586.28	1813.13
586.63	1799.64
586.98	1785.50
587.34	1772.25
587.69	1759.01
588.04	1746.62
588.39	1734.51
588.74	1722.31
589.09	1710.30
589.44	1697.95
589.79	1685.53
590.14	1673.48
590.49	1661.26
590.84	1649.59
591.19	1637.56
591.54	1625.39
591.89	1613.30
592.25	1603.29
592.60	1591.80
592.95	1580.34
593.30	1568.53
593.65	1556.34
594.00	1544.49
594.35	1534.99
594.70	1523.28
595.05	1512.08
595.40	1499.99
595.75	1488.07
596.10	1477.12
596.45	1465.63
596.80	1454.74
597.15	1443.57
597.50	1431.77
597.85	1420.78
598.19	1409.08
598.54	1397.55
598.89	1386.61
599.24	1376.07
599.59	1364.46
599.94	1353.68
600.29	1343.45
600.64	1333.50
600.99	1323.05
601.34	1313.23
601.69	1301.96
602.04	1292.43
602.39	1282.78
602.74	1273.85
603.08	1264.73
603.43	1255.29
603.78	1245.75
604.13	1236.09
604.48	1226.59
604.83	1216.99
605.18	1207.05
605.53	1197.71
605.87	1188.81
606.22	1180.11
606.57	1170.96
606.92	1161.59
607.27	1152.84
607.62	1144.16
607.96	1135.39
608.31	1127.73
608.66	1119.54
609.01	1111.13
609.36	1102.62
609.70	1094.19
610.05	1085.45
610.40	1076.78
610.75	1068.15
611.10	1059.88
611.44	1051.43
611.79	1043.11
612.14	1035.55
612.49	1027.75
612.83	1020.48
613.18	1012.61
613.53	1004.95
613.88	997.16
614.22	989.55
614.57	981.75
614.92	973.74
615.27	966.25
615.61	958.13
615.96	950.44
616.31	942.74
616.65	935.52
617.00	928.17
617.35	921.14
617.70	914.04
618.04	906.92
618.39	899.77
618.74	893.38
619.08	886.59
619.43	879.45
619.78	872.51
620.12	865.07
620.47	858.25
620.82	851.05
621.16	844.27
621.51	838.03
621.85	831.77
622.20	825.28
622.55	818.58
622.89	812.24
623.24	805.86
623.59	799.54
623.93	793.24
624.28	787.10
624.62	781.28
624.97	775.72
625.32	769.96
625.66	764.06
626.01	758.05
626.35	752.47
626.70	746.99
627.04	741.75
627.39	736.40
627.73	731.12
628.08	726.04
628.43	720.52
628.77	714.99
629.12	709.67
629.46	704.97
629.81	700.40
630.15	695.84
630.50	691.26
630.84	686.61
631.19	681.98
631.53	677.46
631.88	672.31
632.22	667.32
632.57	662.80
632.91	658.30
633.26	653.76
633.60	649.14
633.95	644.45
634.29	639.59
634.64	635.16
634.98	630.43
635.32	626.09
635.67	622.23
636.01	618.19
636.36	613.81
636.70	609.73
637.05	605.60
637.39	601.48
637.73	597.45
638.08	593.44
638.42	589.29
638.77	584.92
639.11	580.69
639.45	576.47
639.80	572.23
640.14	568.22
640.49	564.38
640.83	560.70
641.17	557.17
641.52	553.54
641.86	549.94
642.20	546.79
642.55	543.18
642.89	539.51
643.23	535.97
643.58	532.84
643.92	529.13
644.26	525.71
644.61	522.46
644.95	518.98
645.29	515.51
645.64	512.38
645.98	509.40
646.32	506.55
646.66	503.45
647.01	500.56
647.35	497.79
647.69	494.73
648.04	491.84
648.38	489.09
648.72	486.33
649.06	483.34
649.41	480.26
649.75	477.22
650.09	474.39
650.43	471.40
650.78	468.44
651.12	465.71
651.46	462.77
651.80	460.05
652.14	457.32
652.49	454.92
652.83	452.27
653.17	449.73
653.51	447.02
653.85	444.55
654.20	442.17
654.54	439.55
654.88	437.06
655.22	434.79
655.56	432.28
655.90	429.92
656.25	427.59
656.59	425.32
656.93	423.27
657.27	421.14
657.61	418.89
657.95	416.60
658.29	414.45
658.64	412.47
658.98	410.17
659.32	407.98
659.66	405.85
660.00	403.77
660.34	401.65
660.68	399.63
661.02	397.63
661.36	395.56
661.70	393.55
662.05	391.66
662.39	389.63
662.73	387.81
663.07	386.21
663.41	384.36
663.75	382.39
664.09	380.39
664.43	378.57
664.77	376.90
665.11	375.19
665.45	373.49
665.79	371.84
666.13	370.13
666.47	368.57
666.81	366.92
667.15	365.29
667.49	363.79
667.83	362.41
668.17	360.85
668.51	359.41
668.85	358.07
669.19	356.98
669.53	355.50
669.87	354.00
670.21	352.34
670.55	351.02
670.89	349.95
671.23	348.73
671.57	347.24
671.91	345.99
672.25	344.79
672.58	343.60
672.92	342.13
673.26	340.90
673.60	339.67
673.94	338.43
674.28	337.32
674.62	336.19
674.96	334.89
675.30	333.84
675.64	332.59
675.97	331.36
676.31	329.98
676.65	328.73
676.99	327.86
677.33	326.73
677.67	325.78
678.01	324.54
678.34	323.50
678.68	322.49
679.02	321.40
679.36	320.34
679.70	319.25
680.04	318.39
680.37	317.41
680.71	316.48
681.05	315.66
681.39	314.73
681.73	313.81
682.06	312.95
682.40	312.08
682.74	311.25
683.08	310.55
683.42	309.63
683.75	308.96
684.09	307.99
684.43	307.25
684.77	306.31
685.10	305.52
685.44	304.74
685.78	304.03
686.12	303.26
686.45	302.53
686.79	301.74
687.13	301.07
687.46	300.41
687.80	299.81
688.14	298.97
688.48	298.14
688.81	297.38
689.15	296.75
689.49	295.99
689.82	295.33
690.16	294.45
690.50	293.77
690.83	293.02
691.17	292.19
691.51	291.51
691.84	290.96
692.18	290.21
692.52	289.47
692.85	288.86
693.19	288.49
693.52	287.77
693.86	287.13
694.20	286.43
694.53	285.80
694.87	285.04
695.21	284.40
695.54	283.96
695.88	283.40
696.21	282.65
696.55	282.03
696.88	281.40
697.22	280.79
697.56	280.26
697.89	279.62
698.23	279.22
698.56	278.76
698.90	278.17
699.23	277.61
699.57	277.14
699.90	276.52
700.24	275.78
700.58	275.42
700.91	275.09
701.25	275.02
701.58	274.86
701.92	274.46
702.25	274.12
702.59	273.50
702.92	273.04
703.26	272.55
703.59	272.14
703.93	272.10
704.26	271.75
704.60	271.31
704.93	270.91
705.26	270.40
705.60	269.91
705.93	269.43
706.27	269.13
706.60	268.83
706.94	268.68
707.27	268.29
707.61	267.80
707.94	267.34
708.27	266.55
708.61	265.80
708.94	265.40
709.28	264.95
709.61	264.58
709.94	264.15
710.28	263.84
710.61	263.56
710.95	262.76
711.28	262.71
711.61	262.38
711.95	262.13
712.28	261.69
712.61	261.32
712.95	261.16
713.28	261.00
713.61	260.53
713.95	260.06
714.28	259.67
714.61	259.32
714.95	259.01
715.28	258.61
715.61	258.22
715.95	257.91
716.28	257.54
716.61	257.26
716.95	256.88
717.28	256.60
717.61	256.26
717.94	255.98
718.28	255.37
718.61	255.03
718.94	254.66
719.27	254.50
719.61	254.29
719.94	253.93
720.27	253.42
720.60	253.20
720.94	252.90
721.27	252.71
721.60	252.57
721.93	252.31
722.27	252.27
722.60	252.19
722.93	251.86
723.26	251.72
723.59	251.42
723.93	251.26
724.26	251.06
724.59	250.74
724.92	250.55
725.25	250.40
725.59	250.20
725.92	250.03
726.25	249.79
726.58	249.60
726.91	249.38
727.24	249.21
727.57	249.01
727.91	248.83
728.24	248.67
728.57	248.38
728.90	248.22
729.23	247.90
729.56	247.92
729.89	247.78
730.22	247.49
730.55	247.34
730.89	247.14
731.22	246.92
731.55	246.77
731.88	246.59
732.21	246.32
732.54	246.09
732.87	245.94
733.20	245.78
733.53	245.57
733.86	245.43
734.19	245.28
734.52	245.28
734.85	245.43
735.18	245.28
735.51	245.28
735.84	245.17
736.17	245.11
736.50	244.80
736.83	245.23
737.16	245.10
737.49	245.00
737.82	244.88
738.15	244.87
738.48	244.79
738.81	244.63
739.14	244.52
739.47	244.41
739.80	244.27
740.13	244.26
740.46	244.11
740.79	243.95
741.12	243.77
741.45	243.50
741.78	243.07
742.11	243.00
742.44	242.79
742.77	242.69
743.10	242.53
743.43	242.21
743.75	241.56
744.08	242.04
744.41	241.80
744.74	241.61
745.07	241.32
745.40	241.17
745.73	241.25
746.06	241.12
746.39	241.05
746.71	240.84
747.04	240.62
747.37	240.40
747.70	240.34
748.03	240.29
748.36	240.17
748.68	239.97
749.01	239.74
749.34	239.58
749.67	239.42
750.00	239.38
750.33	239.64
750.65	239.54
750.98	238.87
751.31	238.80
751.64	238.69
751.97	238.85
752.29	238.74
752.62	238.44
752.95	238.30
753.28	238.17
753.60	238.04
753.93	238.00
754.26	237.98
754.59	237.75
754.91	237.55
755.24	237.48
755.57	237.42
755.90	237.32
756.22	237.20
756.55	236.99
756.88	236.74
757.20	236.40
757.53	236.18
757.86	236.05
758.19	236.02
758.51	235.95
758.84	235.61
759.17	235.48
759.49	235.44
759.82	235.50
760.15	235.43
760.47	235.39
760.80	235.22
761.13	235.19
761.45	235.07
761.78	235.02
762.11	234.90
762.43	234.78
762.76	234.69
763.08	234.73
763.41	234.71
763.74	234.62
764.06	234.58
764.39	234.55
764.71	234.52
765.04	234.40
765.37	234.29
765.69	234.21
766.02	234.18
766.34	234.07
766.67	233.87
767.00	233.81
767.32	234.01
767.65	234.17
767.97	234.06
768.30	234.07
768.62	233.98
768.95	233.85
769.27	233.72
769.60	233.70
769.92	233.44
770.25	233.32
770.57	233.20
770.90	233.05
771.22	232.88
771.55	232.81
771.87	232.80
772.20	232.73
772.52	233.17
772.85	233.64
773.17	233.56
773.50	233.53
773.82	233.40
774.15	233.10
774.47	232.71
774.80	232.57
775.12	232.48
775.45	232.46
775.77	232.53
776.09	232.57
776.42	232.50
776.74	232.65
777.07	232.60
777.39	232.62
777.72	232.53
778.04	232.58
778.36	232.45
778.69	232.41
779.01	232.43
779.33	231.89
779.66	231.35
779.98	231.33
780.31	231.42
780.63	231.66
780.95	231.71
781.28	231.75
781.60	231.79
781.92	231.78
782.25	231.79
782.57	231.74
782.89	231.65
783.22	231.63
783.54	231.48
783.86	231.44
784.19	231.39
784.51	231.56
784.83	231.46
785.16	231.45
785.48	231.37
785.80	231.38
786.12	231.39
786.45	231.34
786.77	231.32
787.09	231.13
787.42	230.90
787.74	230.88
788.06	230.88
788.38	230.81
788.71	230.72
789.03	230.65
789.35	230.68
789.67	230.57
789.99	230.59
790.32	230.58
790.64	230.61
790.96	230.95
791.28	230.71
791.61	230.66
791.93	230.70
792.25	230.68
792.57	230.97
792.89	230.87
793.21	230.88
793.54	230.82
793.86	230.77
794.18	230.79
794.50	230.65
794.82	230.63
795.14	230.69
795.47	230.78
795.79	230.82
796.11	230.62
796.43	230.62
796.75	230.52
797.07	230.47
797.39	230.38
797.71	230.07
798.04	230.12
798.36	230.18
798.68	230.04
799.00	230.04
799.32	229.68
799.64	229.78
799.96	229.79
800.28	229.81
800.60	229.79
800.92	229.79
801.24	229.76
801.56	229.80
801.89	229.67
802.21	229.69
802.53	229.49
802.85	229.59
803.17	229.78
803.49	229.76
803.81	229.73
804.13	229.74
804.45	229.62
804.77	229.56
805.09	229.55
805.41	229.60
805.73	229.49
806.05	229.34
806.37	229.22
806.69	229.05
807.01	228.98
807.33	229.00
807.65	228.82
807.97	229.00
808.28	228.90
808.60	228.94
808.92	228.80
809.24	229.12
809.56	229.00
809.88	228.87
810.20	228.87
810.52	228.87
810.84	228.73
811.16	228.67
811.48	228.59
811.80	228.73
812.12	228.64
812.43	228.76
812.75	228.83
813.07	228.82
813.39	228.92
813.71	228.83
814.03	228.70
814.35	228.68
814.67	228.50
814.98	228.39
815.30	228.35
815.62	228.29
815.94	227.94
816.26	228.22
816.58	228.02
816.89	228.02
817.21	227.93
817.53	227.90
817.85	227.88
