SpectraSuite Data File
++++++++++++++++++++++++++++++++++++
Date: Wed Sep 04 17:48:06 EDT 2013
User: lab3
Dark Spectrum Present: Yes
Reference Spectrum Present: No
Number of Sampled Component Spectra: 1
Spectrometers: USB2E7196
Integration Time (usec): 170000 (USB2E7196)
Spectra Averaged: 20 (USB2E7196)
Boxcar Smoothing: 10 (USB2E7196)
Correct for Electrical Dark: No (USB2E7196)
Strobe/Lamp Enabled: No (USB2E7196)
Correct for Detector Non-linearity: No (USB2E7196)
Correct for Stray Light: No (USB2E7196)
Number of Pixels in Processed Spectrum: 2048
>>>>>Begin Processed Spectral Data<<<<<
339.09	0.00
339.48	212.70
339.86	213.90
340.24	216.05
340.63	216.35
341.01	225.65
341.39	219.10
341.78	222.40
342.16	224.80
342.54	223.00
342.93	212.19
343.31	222.86
343.69	223.38
344.07	223.91
344.46	224.31
344.84	224.76
345.22	224.80
345.60	225.05
345.99	225.19
346.37	225.22
346.75	225.36
347.13	225.41
347.52	225.48
347.90	225.66
348.28	225.65
348.66	225.75
349.05	225.64
349.43	225.76
349.81	225.74
350.19	225.80
350.57	225.95
350.96	226.06
351.34	226.15
351.72	226.24
352.10	226.28
352.48	226.36
352.87	226.37
353.25	226.38
353.63	226.44
354.01	226.48
354.39	226.57
354.77	226.67
355.15	226.89
355.54	226.84
355.92	226.78
356.30	226.91
356.68	227.18
357.06	227.30
357.44	227.31
357.82	227.39
358.20	227.84
358.58	227.79
358.97	227.80
359.35	227.98
359.73	228.23
360.11	228.31
360.49	228.41
360.87	228.52
361.25	228.57
361.63	228.86
362.01	228.95
362.39	228.90
362.77	229.00
363.15	228.99
363.53	229.05
363.91	229.08
364.29	229.10
364.67	228.74
365.05	228.74
365.43	228.74
365.81	228.83
366.19	228.68
366.57	228.90
366.95	228.85
367.33	228.75
367.71	228.70
368.09	228.76
368.47	228.78
368.85	228.71
369.23	228.80
369.61	228.57
369.99	228.74
370.37	228.82
370.75	228.95
371.13	228.82
371.51	228.82
371.89	228.87
372.27	228.94
372.65	228.97
373.03	228.95
373.41	228.89
373.78	228.82
374.16	228.56
374.54	228.34
374.92	228.32
375.30	228.29
375.68	228.16
376.06	228.12
376.44	227.98
376.82	228.00
377.19	227.93
377.57	227.88
377.95	227.65
378.33	227.61
378.71	227.20
379.09	227.20
379.47	227.14
379.84	227.03
380.22	226.84
380.60	226.66
380.98	226.54
381.36	226.54
381.73	226.39
382.11	226.39
382.49	226.41
382.87	226.24
383.25	226.15
383.62	226.63
384.00	226.48
384.38	226.47
384.76	226.55
385.13	226.69
385.51	226.65
385.89	226.53
386.27	226.44
386.64	226.53
387.02	226.44
387.40	226.37
387.78	226.37
388.15	226.35
388.53	226.34
388.91	226.35
389.29	226.24
389.66	226.30
390.04	226.23
390.42	226.21
390.79	226.30
391.17	226.35
391.55	225.80
391.92	225.85
392.30	225.87
392.68	225.72
393.05	225.64
393.43	225.65
393.81	225.76
394.18	225.75
394.56	225.76
394.94	225.91
395.31	225.85
395.69	226.01
396.06	226.11
396.44	226.25
396.82	226.32
397.19	226.68
397.57	226.71
397.95	226.85
398.32	226.85
398.70	226.93
399.07	227.11
399.45	227.16
399.82	227.18
400.20	227.26
400.58	227.31
400.95	227.24
401.33	227.42
401.70	227.81
402.08	227.93
402.45	228.10
402.83	228.34
403.20	228.61
403.58	228.64
403.95	228.89
404.33	229.10
404.71	229.30
405.08	229.58
405.46	229.76
405.83	229.96
406.21	230.23
406.58	230.58
406.96	230.81
407.33	231.22
407.70	231.64
408.08	232.32
408.45	232.74
408.83	233.29
409.20	233.69
409.58	233.83
409.95	234.37
410.33	234.90
410.70	235.33
411.08	235.95
411.45	236.65
411.82	237.21
412.20	237.89
412.57	238.83
412.95	239.31
413.32	240.29
413.69	241.13
414.07	242.06
414.44	242.92
414.82	243.94
415.19	245.08
415.56	246.26
415.94	247.40
416.31	248.83
416.68	250.18
417.06	251.73
417.43	253.36
417.81	255.11
418.18	256.86
418.55	258.72
418.93	260.68
419.30	262.65
419.67	264.85
420.04	267.12
420.42	269.36
420.79	272.33
421.16	274.99
421.54	278.03
421.91	280.94
422.28	284.01
422.66	287.23
423.03	290.58
423.40	293.87
423.77	297.29
424.15	300.85
424.52	304.60
424.89	308.77
425.26	312.70
425.64	316.42
426.01	320.55
426.38	324.84
426.75	329.40
427.13	333.88
427.50	338.48
427.87	343.29
428.24	348.17
428.61	352.70
428.99	357.87
429.36	363.24
429.73	368.75
430.10	374.27
430.47	379.89
430.85	385.46
431.22	391.57
431.59	398.19
431.96	404.34
432.33	411.15
432.70	417.70
433.08	425.51
433.45	432.81
433.82	440.05
434.19	448.16
434.56	456.13
434.93	463.75
435.30	471.37
435.68	479.87
436.05	488.26
436.42	496.40
436.79	503.93
437.16	512.16
437.53	520.73
437.90	529.29
438.27	537.68
438.64	546.56
439.01	554.68
439.38	561.73
439.75	568.92
440.13	577.01
440.50	584.44
440.87	590.41
441.24	596.87
441.61	603.87
441.98	608.94
442.35	614.53
442.72	620.55
443.09	626.53
443.46	629.90
443.83	632.10
444.20	633.92
444.57	636.86
444.94	637.90
445.31	639.06
445.68	640.37
446.05	640.56
446.42	639.22
446.79	637.84
447.16	636.46
447.53	635.14
447.90	631.32
448.27	627.73
448.64	622.95
449.01	619.15
449.37	613.08
449.74	607.06
450.11	600.35
450.48	592.65
450.85	584.76
451.22	578.05
451.59	571.69
451.96	565.61
452.33	557.42
452.70	550.34
453.07	541.71
453.43	532.72
453.80	524.52
454.17	516.56
454.54	509.07
454.91	500.84
455.28	492.97
455.65	485.66
456.02	478.83
456.38	472.55
456.75	464.92
457.12	458.37
457.49	452.15
457.86	445.78
458.23	440.75
458.59	434.92
458.96	429.15
459.33	423.91
459.70	418.87
460.07	415.00
460.43	410.24
460.80	406.08
461.17	402.41
461.54	398.40
461.91	394.58
462.27	390.68
462.64	387.54
463.01	384.06
463.38	380.81
463.74	376.96
464.11	373.92
464.48	371.31
464.85	368.61
465.21	366.50
465.58	364.37
465.95	361.40
466.32	359.30
466.68	357.13
467.05	354.95
467.42	352.69
467.78	350.22
468.15	348.12
468.52	346.55
468.88	344.42
469.25	342.53
469.62	341.14
469.98	339.53
470.35	337.91
470.72	336.40
471.08	334.68
471.45	333.42
471.82	332.17
472.18	330.75
472.55	329.77
472.92	328.50
473.28	327.38
473.65	326.51
474.02	325.44
474.38	324.50
474.75	323.81
475.11	323.11
475.48	322.56
475.85	321.94
476.21	321.25
476.58	320.68
476.94	320.25
477.31	319.72
477.67	319.23
478.04	318.95
478.41	318.79
478.77	319.06
479.14	318.77
479.50	318.68
479.87	318.73
480.23	318.70
480.60	318.61
480.96	318.65
481.33	318.89
481.69	319.15
482.06	319.48
482.42	319.79
482.79	320.11
483.15	320.59
483.52	321.38
483.88	321.94
484.25	322.55
484.61	323.22
484.98	324.00
485.34	325.07
485.71	326.07
486.07	326.96
486.44	327.57
486.80	328.65
487.17	329.74
487.53	331.07
487.90	332.41
488.26	334.21
488.62	335.88
488.99	337.51
489.35	339.21
489.72	340.96
490.08	342.93
490.44	345.00
490.81	347.11
491.17	349.15
491.54	351.60
491.90	354.16
492.26	356.84
492.63	359.56
492.99	362.37
493.36	365.50
493.72	368.93
494.08	372.40
494.45	376.10
494.81	380.03
495.17	383.91
495.54	388.10
495.90	392.20
496.26	396.64
496.63	401.20
496.99	405.93
497.35	411.11
497.72	416.35
498.08	421.76
498.44	427.45
498.80	433.53
499.17	439.42
499.53	445.62
499.89	452.29
500.26	459.04
500.62	466.00
500.98	473.41
501.34	480.67
501.71	488.34
502.07	496.03
502.43	504.11
502.79	512.48
503.16	521.17
503.52	530.02
503.88	539.07
504.24	548.62
504.60	558.63
504.97	568.70
505.33	578.96
505.69	589.93
506.05	600.91
506.41	611.96
506.78	623.65
507.14	635.58
507.50	647.80
507.86	660.43
508.22	673.32
508.59	686.12
508.95	699.71
509.31	713.74
509.67	728.14
510.03	742.28
510.39	756.96
510.75	771.64
511.12	786.80
511.48	802.20
511.84	817.87
512.20	833.39
512.56	849.50
512.92	866.11
513.28	882.71
513.64	899.83
514.00	917.16
514.37	934.70
514.73	952.76
515.09	970.93
515.45	989.29
515.81	1007.50
516.17	1026.08
516.53	1044.50
516.89	1063.07
517.25	1082.05
517.61	1101.98
517.97	1122.09
518.33	1142.14
518.69	1162.26
519.05	1182.87
519.41	1203.06
519.77	1224.15
520.13	1244.83
520.49	1265.34
520.85	1287.56
521.21	1308.50
521.57	1329.47
521.93	1349.91
522.29	1371.07
522.65	1391.33
523.01	1411.91
523.37	1432.40
523.73	1453.20
524.09	1473.64
524.45	1493.97
524.81	1514.57
525.17	1535.03
525.53	1555.25
525.89	1576.00
526.25	1596.56
526.61	1616.39
526.97	1637.29
527.33	1658.12
527.68	1679.49
528.04	1700.56
528.40	1720.03
528.76	1740.47
529.12	1760.77
529.48	1781.25
529.84	1800.51
530.20	1821.28
530.56	1841.60
530.91	1862.07
531.27	1882.14
531.63	1902.43
531.99	1922.72
532.35	1942.52
532.71	1962.45
533.07	1982.62
533.42	2001.79
533.78	2021.32
534.14	2041.05
534.50	2059.77
534.86	2078.64
535.21	2095.78
535.57	2113.68
535.93	2130.81
536.29	2148.16
536.65	2165.94
537.00	2183.39
537.36	2200.75
537.72	2217.10
538.08	2233.97
538.44	2250.43
538.79	2266.60
539.15	2282.73
539.51	2298.11
539.87	2312.80
540.22	2326.23
540.58	2340.17
540.94	2353.35
541.29	2365.51
541.65	2377.46
542.01	2389.65
542.37	2399.82
542.72	2410.63
543.08	2420.98
543.44	2432.34
543.79	2442.01
544.15	2451.48
544.51	2461.29
544.87	2470.79
545.22	2478.88
545.58	2486.09
545.94	2492.91
546.29	2498.95
546.65	2504.70
547.01	2510.02
547.36	2515.52
547.72	2521.00
548.07	2524.75
548.43	2529.80
548.79	2534.31
549.14	2538.36
549.50	2542.21
549.86	2545.72
550.21	2548.99
550.57	2552.34
550.92	2553.62
551.28	2555.06
551.64	2557.03
551.99	2558.74
552.35	2559.96
552.70	2562.04
553.06	2563.66
553.41	2564.59
553.77	2566.09
554.13	2567.55
554.48	2569.06
554.84	2570.39
555.19	2571.05
555.55	2572.35
555.90	2571.26
556.26	2570.22
556.61	2568.57
556.97	2565.99
557.32	2565.62
557.68	2564.70
558.03	2563.10
558.39	2561.62
558.74	2560.49
559.10	2557.25
559.45	2553.26
559.81	2548.64
560.16	2543.17
560.52	2538.21
560.87	2533.58
561.23	2528.01
561.58	2522.00
561.94	2515.01
562.29	2507.30
562.64	2500.45
563.00	2492.48
563.35	2485.67
563.71	2478.83
564.06	2472.38
564.42	2465.94
564.77	2458.49
565.12	2450.51
565.48	2442.39
565.83	2434.27
566.19	2426.32
566.54	2418.22
566.89	2410.36
567.25	2402.73
567.60	2395.69
567.96	2387.75
568.31	2379.82
568.66	2371.26
569.02	2362.53
569.37	2354.12
569.72	2346.40
570.08	2337.03
570.43	2327.35
570.78	2318.46
571.14	2309.32
571.49	2299.08
571.84	2289.62
572.20	2279.02
572.55	2269.08
572.90	2258.13
573.26	2247.88
573.61	2236.59
573.96	2225.81
574.31	2213.68
574.67	2202.05
575.02	2189.40
575.37	2176.91
575.72	2164.04
576.08	2152.35
576.43	2139.81
576.78	2127.11
577.13	2113.81
577.49	2101.64
577.84	2089.99
578.19	2078.12
578.54	2065.65
578.90	2054.03
579.25	2041.71
579.60	2029.53
579.95	2016.97
580.30	2004.55
580.66	1991.17
581.01	1977.76
581.36	1963.98
581.71	1951.79
582.06	1939.00
582.42	1926.78
582.77	1914.66
583.12	1902.86
583.47	1890.67
583.82	1878.72
584.17	1867.00
584.53	1855.23
584.88	1842.31
585.23	1829.35
585.58	1815.47
585.93	1802.27
586.28	1789.21
586.63	1775.48
586.98	1761.49
587.34	1748.44
587.69	1735.35
588.04	1723.32
588.39	1711.84
588.74	1699.92
589.09	1687.96
589.44	1675.56
589.79	1663.63
590.14	1651.86
590.49	1639.85
590.84	1627.95
591.19	1616.25
591.54	1604.23
591.89	1592.22
592.25	1582.30
592.60	1571.21
592.95	1560.12
593.30	1548.66
593.65	1536.97
594.00	1525.17
594.35	1515.60
594.70	1503.83
595.05	1492.76
595.40	1480.79
595.75	1468.91
596.10	1457.90
596.45	1446.52
596.80	1435.83
597.15	1424.56
597.50	1413.00
597.85	1401.86
598.19	1390.42
598.54	1378.86
598.89	1367.89
599.24	1357.76
599.59	1346.18
599.94	1335.46
600.29	1325.17
600.64	1315.21
600.99	1304.81
601.34	1295.46
601.69	1284.47
602.04	1275.07
602.39	1265.32
602.74	1256.39
603.08	1247.32
603.43	1238.24
603.78	1228.74
604.13	1219.49
604.48	1210.11
604.83	1200.58
605.18	1191.06
605.53	1181.89
605.87	1173.19
606.22	1164.80
606.57	1155.53
606.92	1146.36
607.27	1137.72
607.62	1129.03
607.96	1120.45
608.31	1112.66
608.66	1104.66
609.01	1096.51
609.36	1088.11
609.70	1079.86
610.05	1071.23
610.40	1063.02
610.75	1054.43
611.10	1046.42
611.44	1037.83
611.79	1029.84
612.14	1022.23
612.49	1014.62
612.83	1007.13
613.18	999.58
613.53	992.02
613.88	984.53
614.22	977.17
614.57	969.25
614.92	961.66
615.27	954.30
615.61	946.68
615.96	939.17
616.31	931.84
616.65	924.78
617.00	917.65
617.35	910.58
617.70	903.70
618.04	896.82
618.39	889.87
618.74	883.76
619.08	876.99
619.43	870.26
619.78	863.35
620.12	856.30
620.47	849.28
620.82	842.25
621.16	835.36
621.51	829.05
621.85	823.01
622.20	816.69
622.55	810.27
622.89	804.05
623.24	797.63
623.59	791.26
623.93	785.25
624.28	779.22
624.62	773.81
624.97	767.93
625.32	762.20
625.66	756.42
626.01	750.24
626.35	744.90
626.70	739.33
627.04	734.09
627.39	728.80
627.73	723.87
628.08	718.67
628.43	713.36
628.77	708.06
629.12	702.96
629.46	698.17
629.81	693.47
630.15	688.72
630.50	683.97
630.84	679.31
631.19	674.68
631.53	670.31
631.88	665.26
632.22	660.37
632.57	656.08
632.91	651.58
633.26	647.21
633.60	642.75
633.95	638.18
634.29	633.48
634.64	629.11
634.98	624.38
635.32	620.14
635.67	616.25
636.01	612.13
636.36	607.78
636.70	603.68
637.05	599.59
637.39	595.55
637.73	591.67
638.08	587.75
638.42	583.59
638.77	579.38
639.11	575.12
639.45	571.02
639.80	566.66
640.14	562.61
640.49	558.72
640.83	554.97
641.17	551.44
641.52	547.83
641.86	544.32
642.20	541.23
642.55	537.70
642.89	534.23
643.23	530.73
643.58	527.63
643.92	524.15
644.26	520.87
644.61	517.71
644.95	514.46
645.29	511.02
645.64	507.94
645.98	504.84
646.32	501.91
646.66	498.85
647.01	495.91
647.35	493.34
647.69	490.50
648.04	487.74
648.38	484.94
648.72	482.24
649.06	479.29
649.41	476.23
649.75	473.45
650.09	470.57
650.43	467.90
650.78	465.14
651.12	462.35
651.46	459.48
651.80	456.69
652.14	453.95
652.49	451.64
652.83	449.04
653.17	446.45
653.51	443.71
653.85	441.61
654.20	439.26
654.54	436.62
654.88	434.10
655.22	431.83
655.56	429.43
655.90	427.12
656.25	424.92
656.59	422.66
656.93	420.47
657.27	418.36
657.61	415.94
657.95	413.59
658.29	411.54
658.64	409.59
658.98	407.45
659.32	405.28
659.66	402.96
660.00	400.82
660.34	398.79
660.68	397.03
661.02	394.83
661.36	392.87
661.70	390.95
662.05	389.08
662.39	387.09
662.73	385.29
663.07	383.75
663.41	381.91
663.75	380.04
664.09	378.24
664.43	376.38
664.77	374.76
665.11	373.05
665.45	371.34
665.79	369.63
666.13	367.88
666.47	366.22
666.81	364.61
667.15	363.07
667.49	361.59
667.83	360.23
668.17	358.82
668.51	357.39
668.85	356.05
669.19	354.94
669.53	353.39
669.87	351.91
670.21	350.28
670.55	348.87
670.89	347.87
671.23	346.45
671.57	345.02
671.91	343.81
672.25	342.51
672.58	341.29
672.92	339.88
673.26	338.75
673.60	337.63
673.94	336.54
674.28	335.45
674.62	334.41
674.96	332.99
675.30	331.81
675.64	330.67
675.97	329.47
676.31	328.13
676.65	326.96
676.99	325.96
677.33	324.86
677.67	323.95
678.01	322.60
678.34	321.61
678.68	320.76
679.02	319.60
679.36	318.68
679.70	317.75
680.04	316.91
680.37	316.07
680.71	315.15
681.05	314.32
681.39	313.45
681.73	312.44
682.06	311.62
682.40	310.85
682.74	310.04
683.08	309.44
683.42	308.60
683.75	307.88
684.09	307.06
684.43	306.34
684.77	305.48
685.10	304.71
685.44	303.90
685.78	303.05
686.12	302.30
686.45	301.50
686.79	300.70
687.13	300.08
687.46	299.30
687.80	298.64
688.14	297.73
688.48	296.98
688.81	296.24
689.15	295.73
689.49	294.89
689.82	294.21
690.16	293.22
690.50	292.52
690.83	291.84
691.17	291.00
691.51	290.30
691.84	289.60
692.18	288.89
692.52	288.25
692.85	287.69
693.19	287.20
693.52	286.59
693.86	285.94
694.20	285.28
694.53	284.62
694.87	283.94
695.21	283.37
695.54	282.70
695.88	282.05
696.21	281.23
696.55	280.70
696.88	280.05
697.22	279.48
697.56	279.02
697.89	278.36
698.23	277.94
698.56	277.34
698.90	276.91
699.23	276.45
699.57	275.99
699.90	275.42
700.24	274.81
700.58	274.42
700.91	273.98
701.25	273.83
701.58	273.66
701.92	273.34
702.25	272.92
702.59	272.51
702.92	272.14
703.26	271.81
703.59	271.38
703.93	271.43
704.26	271.11
704.60	270.63
704.93	270.25
705.26	269.77
705.60	269.44
705.93	268.91
706.27	268.63
706.60	268.34
706.94	268.11
707.27	267.73
707.61	267.30
707.94	266.83
708.27	266.07
708.61	265.38
708.94	264.90
709.28	264.65
709.61	264.18
709.94	263.76
710.28	263.32
710.61	262.96
710.95	262.14
711.28	262.09
711.61	261.69
711.95	261.44
712.28	261.08
712.61	260.78
712.95	260.74
713.28	260.65
713.61	260.19
713.95	259.78
714.28	259.48
714.61	259.09
714.95	258.76
715.28	258.36
715.61	257.97
715.95	257.67
716.28	257.20
716.61	257.09
716.95	256.85
717.28	256.60
717.61	256.31
717.94	255.99
718.28	255.35
718.61	255.10
718.94	254.79
719.27	254.57
719.61	254.32
719.94	253.90
720.27	253.37
720.60	253.14
720.94	252.92
721.27	252.72
721.60	252.61
721.93	252.43
722.27	252.43
722.60	252.35
722.93	252.05
723.26	251.93
723.59	251.62
723.93	251.47
724.26	251.29
724.59	251.01
724.92	250.79
725.25	250.63
725.59	250.44
725.92	250.33
726.25	250.15
726.58	249.92
726.91	249.69
727.24	249.51
727.57	249.29
727.91	248.89
728.24	248.72
728.57	248.46
728.90	248.32
729.23	247.99
729.56	247.96
729.89	247.72
730.22	247.46
730.55	247.20
730.89	246.94
731.22	246.67
731.55	246.49
731.88	246.43
732.21	246.19
732.54	245.95
732.87	245.67
733.20	245.51
733.53	245.37
733.86	245.23
734.19	245.01
734.52	244.99
734.85	245.31
735.18	245.00
735.51	244.95
735.84	244.87
736.17	244.78
736.50	244.42
736.83	244.89
737.16	244.75
737.49	244.72
737.82	244.57
738.15	244.55
738.48	244.52
738.81	244.32
739.14	244.11
739.47	243.98
739.80	243.87
740.13	243.75
740.46	243.49
740.79	243.25
741.12	243.17
741.45	242.81
741.78	242.36
742.11	242.40
742.44	242.13
742.77	241.99
743.10	241.78
743.43	241.58
743.75	240.93
744.08	241.43
744.41	241.15
744.74	240.97
745.07	240.71
745.40	240.55
745.73	240.52
746.06	240.42
746.39	240.36
746.71	240.15
747.04	239.94
747.37	239.79
747.70	239.75
748.03	239.64
748.36	239.66
748.68	239.53
749.01	239.28
749.34	239.18
749.67	239.01
750.00	239.01
750.33	239.23
750.65	239.17
750.98	238.42
751.31	238.34
751.64	238.26
751.97	238.39
752.29	238.23
752.62	237.99
752.95	237.90
753.28	237.74
753.60	237.62
753.93	237.62
754.26	237.67
754.59	237.48
754.91	237.25
755.24	237.09
755.57	236.99
755.90	236.88
756.22	236.82
756.55	236.72
756.88	236.49
757.20	236.05
757.53	235.82
757.86	235.72
758.19	235.67
758.51	235.54
758.84	235.26
759.17	235.12
759.49	235.06
759.82	235.22
760.15	235.16
760.47	235.10
760.80	234.87
761.13	234.78
761.45	234.68
761.78	234.65
762.11	234.60
762.43	234.45
762.76	234.41
763.08	234.33
763.41	234.23
763.74	234.22
764.06	234.15
764.39	234.13
764.71	234.05
765.04	233.92
765.37	233.79
765.69	233.65
766.02	233.57
766.34	233.39
766.67	233.08
767.00	233.08
767.32	233.28
767.65	233.54
767.97	233.40
768.30	233.45
768.62	233.35
768.95	233.28
769.27	233.25
769.60	233.24
769.92	233.09
770.25	232.95
770.57	232.74
770.90	232.75
771.22	232.60
771.55	232.56
771.87	232.62
772.20	232.57
772.52	232.90
772.85	233.54
773.17	233.62
773.50	233.56
773.82	233.42
774.15	233.11
774.47	232.73
774.80	232.69
775.12	232.51
775.45	232.41
775.77	232.37
776.09	232.32
776.42	232.31
776.74	232.44
777.07	232.38
777.39	232.40
777.72	232.28
778.04	232.37
778.36	232.34
778.69	232.25
779.01	232.30
779.33	231.86
779.66	231.20
779.98	231.05
780.31	231.05
780.63	231.24
780.95	231.29
781.28	231.35
781.60	231.22
781.92	231.25
782.25	231.30
782.57	231.24
782.89	231.17
783.22	231.06
783.54	230.88
783.86	230.86
784.19	230.88
784.51	231.00
784.83	230.85
785.16	230.76
785.48	230.71
785.80	230.72
786.12	230.75
786.45	230.73
786.77	230.72
787.09	230.66
787.42	230.44
787.74	230.40
788.06	230.35
788.38	230.34
788.71	230.28
789.03	230.24
789.35	230.28
789.67	230.20
789.99	230.28
790.32	230.25
790.64	230.33
790.96	230.70
791.28	230.45
791.61	230.45
791.93	230.48
792.25	230.45
792.57	230.77
792.89	230.65
793.21	230.66
793.54	230.67
793.86	230.63
794.18	230.62
794.50	230.55
794.82	230.51
795.14	230.50
795.47	230.57
795.79	230.56
796.11	230.46
796.43	230.41
796.75	230.30
797.07	230.28
797.39	230.20
797.71	229.77
798.04	229.86
798.36	229.82
798.68	229.82
799.00	229.79
799.32	229.38
799.64	229.48
799.96	229.45
800.28	229.50
800.60	229.42
800.92	229.43
801.24	229.40
801.56	229.35
801.89	229.36
802.21	229.31
802.53	229.16
802.85	229.21
803.17	229.42
803.49	229.34
803.81	229.31
804.13	229.29
804.45	229.20
804.77	229.15
805.09	229.12
805.41	228.98
805.73	228.89
806.05	228.79
806.37	228.75
806.69	228.64
807.01	228.61
807.33	228.68
807.65	228.47
807.97	228.59
808.28	228.58
808.60	228.54
808.92	228.48
809.24	228.79
809.56	228.61
809.88	228.48
810.20	228.47
810.52	228.48
810.84	228.42
811.16	228.37
811.48	228.38
811.80	228.57
812.12	228.57
812.43	228.68
812.75	228.72
813.07	228.64
813.39	228.68
813.71	228.57
814.03	228.49
814.35	228.57
814.67	228.40
814.98	228.27
815.30	228.25
815.62	228.12
815.94	227.70
816.26	227.93
816.58	227.75
816.89	227.81
817.21	227.69
817.53	227.71
817.85	227.72
