SpectraSuite Data File
++++++++++++++++++++++++++++++++++++
Date: Wed Sep 04 17:55:56 EDT 2013
User: lab3
Dark Spectrum Present: Yes
Reference Spectrum Present: No
Number of Sampled Component Spectra: 1
Spectrometers: USB2E7196
Integration Time (usec): 170000 (USB2E7196)
Spectra Averaged: 20 (USB2E7196)
Boxcar Smoothing: 10 (USB2E7196)
Correct for Electrical Dark: No (USB2E7196)
Strobe/Lamp Enabled: No (USB2E7196)
Correct for Detector Non-linearity: No (USB2E7196)
Correct for Stray Light: No (USB2E7196)
Number of Pixels in Processed Spectrum: 2048
>>>>>Begin Processed Spectral Data<<<<<
339.09	0.00
339.48	215.30
339.86	215.00
340.24	216.00
340.63	217.40
341.01	227.25
341.39	220.45
341.78	221.35
342.16	223.80
342.54	223.00
342.93	212.65
343.31	223.37
343.69	223.81
344.07	224.21
344.46	224.66
344.84	225.14
345.22	225.04
345.60	225.34
345.99	225.58
346.37	225.70
346.75	225.85
347.13	225.87
347.52	225.98
347.90	226.17
348.28	226.26
348.66	226.34
349.05	226.22
349.43	226.27
349.81	226.30
350.19	226.39
350.57	226.42
350.96	226.58
351.34	226.74
351.72	226.82
352.10	226.97
352.48	227.02
352.87	226.99
353.25	227.05
353.63	227.06
354.01	227.09
354.39	227.20
354.77	227.26
355.15	227.47
355.54	227.46
355.92	227.38
356.30	227.41
356.68	227.78
357.06	227.84
357.44	227.89
357.82	227.97
358.20	228.34
358.58	228.48
358.97	228.57
359.35	228.66
359.73	228.81
360.11	228.89
360.49	228.97
360.87	229.01
361.25	229.21
361.63	229.43
362.01	229.51
362.39	229.47
362.77	229.52
363.15	229.56
363.53	229.65
363.91	229.69
364.29	229.73
364.67	229.35
365.05	229.37
365.43	229.42
365.81	229.45
366.19	229.37
366.57	229.55
366.95	229.56
367.33	229.47
367.71	229.44
368.09	229.53
368.47	229.52
368.85	229.55
369.23	229.54
369.61	229.35
369.99	229.52
370.37	229.61
370.75	229.85
371.13	229.70
371.51	229.61
371.89	229.63
372.27	229.69
372.65	229.71
373.03	229.70
373.41	229.64
373.78	229.59
374.16	229.31
374.54	229.07
374.92	228.95
375.30	228.89
375.68	228.84
376.06	228.83
376.44	228.75
376.82	228.70
377.19	228.61
377.57	228.52
377.95	228.26
378.33	228.15
378.71	227.77
379.09	227.76
379.47	227.74
379.84	227.65
380.22	227.45
380.60	227.28
380.98	227.20
381.36	227.13
381.73	227.02
382.11	227.03
382.49	227.02
382.87	226.95
383.25	226.97
383.62	227.45
384.00	227.32
384.38	227.29
384.76	227.32
385.13	227.46
385.51	227.49
385.89	227.36
386.27	227.35
386.64	227.46
387.02	227.37
387.40	227.28
387.78	227.28
388.15	227.29
388.53	227.21
388.91	227.18
389.29	227.11
389.66	227.24
390.04	227.19
390.42	227.26
390.79	227.25
391.17	227.18
391.55	226.62
391.92	226.59
392.30	226.61
392.68	226.55
393.05	226.51
393.43	226.50
393.81	226.60
394.18	226.52
394.56	226.52
394.94	226.69
395.31	226.62
395.69	226.71
396.06	226.85
396.44	226.96
396.82	226.93
397.19	227.21
397.57	227.07
397.95	227.22
398.32	227.16
398.70	227.25
399.07	227.35
399.45	227.37
399.82	227.44
400.20	227.56
400.58	227.64
400.95	227.51
401.33	227.70
401.70	228.08
402.08	228.19
402.45	228.26
402.83	228.48
403.20	228.66
403.58	228.76
403.95	228.95
404.33	229.16
404.71	229.37
405.08	229.80
405.46	230.06
405.83	230.25
406.21	230.54
406.58	230.91
406.96	231.20
407.33	231.63
407.70	231.97
408.08	232.68
408.45	233.11
408.83	233.65
409.20	234.00
409.58	234.27
409.95	234.85
410.33	235.44
410.70	235.81
411.08	236.47
411.45	237.08
411.82	237.68
412.20	238.51
412.57	239.57
412.95	239.96
413.32	240.93
413.69	241.77
414.07	242.65
414.44	243.56
414.82	244.63
415.19	245.70
415.56	246.90
415.94	247.89
416.31	249.35
416.68	250.76
417.06	252.36
417.43	253.93
417.81	255.69
418.18	257.50
418.55	259.40
418.93	261.44
419.30	263.56
419.67	265.75
420.04	268.03
420.42	270.31
420.79	273.36
421.16	276.02
421.54	279.06
421.91	282.03
422.28	285.08
422.66	288.34
423.03	291.86
423.40	295.22
423.77	298.71
424.15	302.30
424.52	306.03
424.89	310.23
425.26	314.15
425.64	317.96
426.01	322.03
426.38	326.48
426.75	330.99
427.13	335.58
427.50	340.31
427.87	345.08
428.24	349.91
428.61	354.52
428.99	359.83
429.36	365.23
429.73	370.81
430.10	376.30
430.47	382.00
430.85	387.65
431.22	393.76
431.59	400.66
431.96	406.81
432.33	413.78
432.70	420.51
433.08	428.42
433.45	435.80
433.82	443.28
434.19	451.46
434.56	459.60
434.93	467.31
435.30	475.02
435.68	483.76
436.05	492.31
436.42	500.66
436.79	508.32
437.16	516.77
437.53	525.58
437.90	534.38
438.27	542.97
438.64	551.89
439.01	560.21
439.38	567.31
439.75	574.51
440.13	582.74
440.50	590.27
440.87	596.27
441.24	602.65
441.61	609.75
441.98	614.85
442.35	620.62
442.72	626.63
443.09	632.60
443.46	635.83
443.83	638.14
444.20	640.00
444.57	642.78
444.94	644.08
445.31	645.22
445.68	646.69
446.05	646.85
446.42	645.51
446.79	644.11
447.16	642.42
447.53	641.16
447.90	637.39
448.27	633.69
448.64	628.85
449.01	625.25
449.37	618.98
449.74	612.99
450.11	606.16
450.48	598.43
450.85	590.34
451.22	583.60
451.59	577.05
451.96	570.79
452.33	562.68
452.70	555.10
453.07	546.40
453.43	537.20
453.80	528.89
454.17	520.80
454.54	513.07
454.91	504.97
455.28	497.00
455.65	489.40
456.02	482.44
456.38	476.03
456.75	468.15
457.12	461.62
457.49	455.28
457.86	448.86
458.23	443.63
458.59	437.90
458.96	432.07
459.33	426.75
459.70	421.59
460.07	417.53
460.43	412.83
460.80	408.55
461.17	404.77
461.54	400.62
461.91	396.94
462.27	393.20
462.64	389.91
463.01	386.37
463.38	383.14
463.74	379.24
464.11	376.36
464.48	373.73
464.85	370.86
465.21	368.72
465.58	366.43
465.95	363.63
466.32	361.40
466.68	359.20
467.05	357.05
467.42	354.91
467.78	352.58
468.15	350.42
468.52	348.77
468.88	346.51
469.25	344.59
469.62	343.12
469.98	341.40
470.35	339.90
470.72	338.41
471.08	336.62
471.45	335.27
471.82	333.98
472.18	332.51
472.55	331.45
472.92	330.07
473.28	328.94
473.65	327.80
474.02	326.71
474.38	325.86
474.75	325.03
475.11	324.15
475.48	323.48
475.85	322.87
476.21	322.14
476.58	321.64
476.94	321.30
477.31	320.66
477.67	320.14
478.04	319.81
478.41	319.59
478.77	319.97
479.14	319.75
479.50	319.65
479.87	319.74
480.23	319.82
480.60	319.79
480.96	319.79
481.33	320.19
481.69	320.52
482.06	320.78
482.42	321.12
482.79	321.41
483.15	321.77
483.52	322.40
483.88	322.83
484.25	323.45
484.61	324.04
484.98	324.78
485.34	325.86
485.71	326.80
486.07	327.73
486.44	328.32
486.80	329.41
487.17	330.46
487.53	331.82
487.90	333.15
488.26	334.87
488.62	336.55
488.99	338.14
489.35	339.79
489.72	341.60
490.08	343.60
490.44	345.62
490.81	347.83
491.17	350.05
491.54	352.62
491.90	355.18
492.26	357.88
492.63	360.73
492.99	363.50
493.36	366.67
493.72	370.10
494.08	373.47
494.45	377.26
494.81	381.23
495.17	385.11
495.54	389.31
495.90	393.48
496.26	397.89
496.63	402.48
496.99	407.17
497.35	412.27
497.72	417.58
498.08	423.10
498.44	428.92
498.80	435.00
499.17	441.10
499.53	447.39
499.89	454.08
500.26	460.98
500.62	468.02
500.98	475.30
501.34	482.61
501.71	490.35
502.07	498.02
502.43	506.21
502.79	514.56
503.16	523.26
503.52	532.38
503.88	541.75
504.24	551.40
504.60	561.49
504.97	571.68
505.33	582.17
505.69	593.35
506.05	604.43
506.41	615.58
506.78	627.22
507.14	639.30
507.50	651.66
507.86	664.07
508.22	677.00
508.59	690.03
508.95	703.62
509.31	717.88
509.67	732.09
510.03	746.39
510.39	761.10
510.75	776.20
511.12	791.31
511.48	806.89
511.84	822.62
512.20	838.48
512.56	854.75
512.92	871.36
513.28	888.07
513.64	905.20
514.00	922.77
514.37	940.50
514.73	958.48
515.09	976.83
515.45	995.33
515.81	1013.84
516.17	1032.82
516.53	1051.68
516.89	1070.30
517.25	1089.91
517.61	1110.07
517.97	1130.43
518.33	1150.49
518.69	1170.80
519.05	1191.63
519.41	1212.37
519.77	1233.46
520.13	1254.45
520.49	1275.31
520.85	1297.62
521.21	1318.70
521.57	1340.08
521.93	1360.79
522.29	1382.04
522.65	1402.42
523.01	1423.30
523.37	1443.90
523.73	1464.72
524.09	1485.31
524.45	1506.12
524.81	1526.76
525.17	1547.29
525.53	1567.95
525.89	1588.87
526.25	1609.62
526.61	1629.48
526.97	1650.52
527.33	1671.78
527.68	1693.39
528.04	1714.51
528.40	1734.18
528.76	1755.09
529.12	1775.30
529.48	1796.28
529.84	1816.63
530.20	1837.97
530.56	1858.88
530.91	1879.52
531.27	1900.28
531.63	1921.05
531.99	1941.40
532.35	1961.52
532.71	1981.86
533.07	2002.63
533.42	2022.21
533.78	2042.31
534.14	2062.38
534.50	2081.34
534.86	2100.50
535.21	2118.11
535.57	2136.37
535.93	2153.96
536.29	2171.86
536.65	2190.30
537.00	2207.96
537.36	2225.28
537.72	2241.74
538.08	2258.93
538.44	2276.16
538.79	2292.31
539.15	2308.63
539.51	2324.77
539.87	2340.14
540.22	2354.15
540.58	2368.17
540.94	2381.66
541.29	2394.28
541.65	2407.02
542.01	2419.57
542.37	2430.26
542.72	2441.44
543.08	2452.35
543.44	2464.27
543.79	2474.15
544.15	2484.11
544.51	2494.11
544.87	2503.84
545.22	2512.55
545.58	2520.30
545.94	2527.28
546.29	2533.83
546.65	2539.98
547.01	2545.43
547.36	2551.02
547.72	2556.58
548.07	2560.39
548.43	2565.81
548.79	2570.43
549.14	2574.43
549.50	2578.35
549.86	2582.26
550.21	2585.94
550.57	2589.28
550.92	2590.53
551.28	2592.17
551.64	2594.47
551.99	2596.33
552.35	2597.68
552.70	2599.81
553.06	2601.51
553.41	2602.98
553.77	2604.57
554.13	2606.41
554.48	2608.21
554.84	2609.66
555.19	2610.77
555.55	2612.49
555.90	2611.76
556.26	2610.95
556.61	2609.54
556.97	2607.33
557.32	2606.95
557.68	2605.74
558.03	2604.03
558.39	2602.89
558.74	2602.10
559.10	2598.54
559.45	2594.87
559.81	2590.92
560.16	2585.88
560.52	2580.60
560.87	2576.09
561.23	2570.85
561.58	2564.95
561.94	2557.52
562.29	2550.00
562.64	2543.30
563.00	2535.16
563.35	2528.28
563.71	2521.84
564.06	2515.61
564.42	2509.34
564.77	2502.55
565.12	2495.11
565.48	2487.66
565.83	2479.83
566.19	2471.68
566.54	2464.01
566.89	2456.07
567.25	2448.20
567.60	2440.84
567.96	2433.73
568.31	2425.67
568.66	2416.81
569.02	2407.82
569.37	2400.30
569.72	2392.76
570.08	2383.22
570.43	2374.01
570.78	2365.10
571.14	2355.74
571.49	2345.44
571.84	2335.85
572.20	2324.55
572.55	2314.45
572.90	2303.41
573.26	2292.60
573.61	2281.73
573.96	2270.40
574.31	2258.29
574.67	2246.34
575.02	2233.43
575.37	2220.49
575.72	2207.27
576.08	2195.49
576.43	2182.85
576.78	2169.51
577.13	2155.78
577.49	2142.82
577.84	2130.93
578.19	2118.74
578.54	2105.88
578.90	2093.86
579.25	2081.14
579.60	2068.77
579.95	2055.66
580.30	2042.76
580.66	2029.72
581.01	2016.23
581.36	2002.48
581.71	1990.04
582.06	1977.21
582.42	1965.03
582.77	1952.58
583.12	1940.42
583.47	1927.99
583.82	1916.26
584.17	1904.28
584.53	1892.54
584.88	1879.76
585.23	1866.39
585.58	1852.30
585.93	1839.12
586.28	1825.96
586.63	1812.21
586.98	1798.09
587.34	1784.96
587.69	1771.72
588.04	1759.01
588.39	1747.03
588.74	1734.75
589.09	1722.49
589.44	1709.45
589.79	1697.21
590.14	1684.95
590.49	1672.82
590.84	1660.88
591.19	1648.58
591.54	1636.25
591.89	1623.75
592.25	1613.75
592.60	1602.38
592.95	1591.00
593.30	1579.07
593.65	1566.90
594.00	1554.76
594.35	1544.62
594.70	1532.46
595.05	1521.20
595.40	1508.95
595.75	1496.73
596.10	1485.53
596.45	1474.01
596.80	1463.27
597.15	1451.87
597.50	1440.30
597.85	1429.13
598.19	1417.30
598.54	1405.64
598.89	1394.31
599.24	1383.98
599.59	1372.08
599.94	1361.34
600.29	1350.87
600.64	1340.49
600.99	1329.98
601.34	1320.87
601.69	1309.91
602.04	1300.32
602.39	1290.50
602.74	1281.35
603.08	1271.81
603.43	1262.49
603.78	1252.95
604.13	1243.42
604.48	1233.75
604.83	1224.04
605.18	1214.21
605.53	1204.58
605.87	1195.36
606.22	1187.15
606.57	1177.74
606.92	1168.45
607.27	1159.37
607.62	1150.71
607.96	1142.00
608.31	1134.12
608.66	1125.19
609.01	1116.62
609.36	1108.01
609.70	1099.37
610.05	1090.64
610.40	1082.21
610.75	1073.37
611.10	1064.97
611.44	1056.38
611.79	1048.32
612.14	1040.47
612.49	1032.58
612.83	1025.19
613.18	1017.37
613.53	1009.28
613.88	1001.27
614.22	993.70
614.57	985.76
614.92	977.80
615.27	970.39
615.61	962.38
615.96	954.96
616.31	947.46
616.65	940.48
617.00	933.23
617.35	926.12
617.70	918.94
618.04	911.84
618.39	904.76
618.74	898.33
619.08	891.29
619.43	884.21
619.78	877.39
620.12	870.23
620.47	863.41
620.82	856.46
621.16	849.78
621.51	843.28
621.85	836.96
622.20	830.40
622.55	823.80
622.89	817.45
623.24	811.00
623.59	804.60
623.93	798.18
624.28	792.17
624.62	786.69
624.97	780.91
625.32	775.20
625.66	769.26
626.01	763.24
626.35	757.70
626.70	752.12
627.04	746.55
627.39	740.93
627.73	735.51
628.08	730.29
628.43	724.71
628.77	719.25
629.12	713.98
629.46	709.28
629.81	704.52
630.15	699.66
630.50	694.83
630.84	689.96
631.19	685.08
631.53	680.36
631.88	674.85
632.22	669.90
632.57	665.37
632.91	660.75
633.26	656.12
633.60	651.32
633.95	646.70
634.29	641.95
634.64	637.55
634.98	632.88
635.32	628.40
635.67	624.54
636.01	620.35
636.36	615.95
636.70	611.71
637.05	607.44
637.39	603.20
637.73	599.12
638.08	595.14
638.42	591.10
638.77	586.83
639.11	582.72
639.45	578.44
639.80	574.11
640.14	570.11
640.49	566.22
640.83	562.61
641.17	559.10
641.52	555.54
641.86	552.01
642.20	548.91
642.55	545.30
642.89	541.52
643.23	538.05
643.58	534.91
643.92	531.26
644.26	527.93
644.61	524.79
644.95	521.32
645.29	517.79
645.64	514.55
645.98	511.35
646.32	508.34
646.66	505.28
647.01	502.37
647.35	499.55
647.69	496.70
648.04	493.83
648.38	490.83
648.72	488.07
649.06	484.96
649.41	481.75
649.75	478.81
650.09	476.06
650.43	473.12
650.78	470.13
651.12	467.34
651.46	464.49
651.80	461.74
652.14	459.09
652.49	456.75
652.83	454.25
653.17	451.61
653.51	448.95
653.85	446.58
654.20	443.96
654.54	441.38
654.88	438.65
655.22	436.34
655.56	433.83
655.90	431.45
656.25	429.17
656.59	426.98
656.93	424.82
657.27	422.71
657.61	420.36
657.95	418.18
658.29	415.95
658.64	413.95
658.98	411.67
659.32	409.37
659.66	407.10
660.00	404.89
660.34	402.93
660.68	400.95
661.02	398.79
661.36	396.88
661.70	394.82
662.05	393.01
662.39	391.05
662.73	389.43
663.07	387.75
663.41	385.93
663.75	383.90
664.09	381.90
664.43	379.93
664.77	378.36
665.11	376.62
665.45	375.14
665.79	373.42
666.13	371.67
666.47	370.10
666.81	368.47
667.15	366.82
667.49	365.30
667.83	363.89
668.17	362.42
668.51	361.01
668.85	359.69
669.19	358.43
669.53	356.77
669.87	355.17
670.21	353.52
670.55	352.18
670.89	351.16
671.23	349.94
671.57	348.57
671.91	347.27
672.25	345.89
672.58	344.53
672.92	343.08
673.26	341.84
673.60	340.65
673.94	339.58
674.28	338.45
674.62	337.26
674.96	336.00
675.30	334.84
675.64	333.55
675.97	332.35
676.31	330.97
676.65	329.82
676.99	328.82
677.33	327.69
677.67	326.57
678.01	325.24
678.34	324.16
678.68	323.26
679.02	321.97
679.36	320.95
679.70	319.89
680.04	319.02
680.37	318.08
680.71	317.07
681.05	316.10
681.39	315.20
681.73	314.24
682.06	313.30
682.40	312.55
682.74	311.78
683.08	311.07
683.42	310.16
683.75	309.35
684.09	308.38
684.43	307.60
684.77	306.79
685.10	306.04
685.44	305.22
685.78	304.35
686.12	303.63
686.45	302.79
686.79	301.93
687.13	301.28
687.46	300.48
687.80	299.80
688.14	298.92
688.48	298.15
688.81	297.37
689.15	296.72
689.49	295.89
689.82	295.18
690.16	294.25
690.50	293.61
690.83	292.89
691.17	292.05
691.51	291.33
691.84	290.64
692.18	289.84
692.52	289.18
692.85	288.60
693.19	288.20
693.52	287.65
693.86	287.07
694.20	286.30
694.53	285.79
694.87	285.11
695.21	284.51
695.54	283.83
695.88	283.16
696.21	282.44
696.55	281.84
696.88	281.15
697.22	280.51
697.56	279.97
697.89	279.37
698.23	279.02
698.56	278.50
698.90	278.10
699.23	277.55
699.57	277.08
699.90	276.43
700.24	275.73
700.58	275.21
700.91	274.79
701.25	274.65
701.58	274.48
701.92	274.11
702.25	273.69
702.59	273.21
702.92	272.82
703.26	272.42
703.59	271.93
703.93	271.93
704.26	271.56
704.60	271.12
704.93	270.70
705.26	270.15
705.60	269.77
705.93	269.29
706.27	269.10
706.60	268.70
706.94	268.60
707.27	268.18
707.61	267.85
707.94	267.49
708.27	266.79
708.61	265.94
708.94	265.60
709.28	265.20
709.61	264.76
709.94	264.48
710.28	264.12
710.61	263.81
710.95	263.01
711.28	262.93
711.61	262.54
711.95	262.29
712.28	261.96
712.61	261.66
712.95	261.53
713.28	261.35
713.61	260.96
713.95	260.40
714.28	260.13
714.61	259.75
714.95	259.34
715.28	258.95
715.61	258.72
715.95	258.32
716.28	257.92
716.61	257.83
716.95	257.36
717.28	257.09
717.61	256.80
717.94	256.53
718.28	256.02
718.61	255.73
718.94	255.38
719.27	255.15
719.61	254.79
719.94	254.39
720.27	253.87
720.60	253.65
720.94	253.47
721.27	253.26
721.60	253.06
721.93	252.87
722.27	252.83
722.60	252.66
722.93	252.36
723.26	252.25
723.59	251.92
723.93	251.80
724.26	251.54
724.59	251.32
724.92	251.22
725.25	251.04
725.59	250.81
725.92	250.64
726.25	250.41
726.58	250.31
726.91	250.07
727.24	249.92
727.57	249.67
727.91	249.34
728.24	249.18
728.57	249.04
728.90	248.80
729.23	248.49
729.56	248.49
729.89	248.39
730.22	248.18
730.55	248.03
730.89	247.85
731.22	247.68
731.55	247.46
731.88	247.23
732.21	246.97
732.54	246.80
732.87	246.64
733.20	246.48
733.53	246.34
733.86	246.21
734.19	246.00
734.52	245.90
734.85	246.05
735.18	245.80
735.51	245.76
735.84	245.69
736.17	245.64
736.50	245.29
736.83	245.61
737.16	245.44
737.49	245.31
737.82	245.10
738.15	245.04
738.48	244.94
738.81	244.66
739.14	244.52
739.47	244.39
739.80	244.23
740.13	244.10
740.46	243.84
740.79	243.57
741.12	243.49
741.45	243.29
741.78	242.89
742.11	242.89
742.44	242.59
742.77	242.52
743.10	242.27
743.43	242.09
743.75	241.46
744.08	241.96
744.41	241.81
744.74	241.74
745.07	241.49
745.40	241.38
745.73	241.47
746.06	241.39
746.39	241.30
746.71	241.08
747.04	240.93
747.37	240.70
747.70	240.72
748.03	240.58
748.36	240.55
748.68	240.49
749.01	240.22
749.34	240.06
749.67	239.85
750.00	239.78
750.33	240.02
750.65	239.96
750.98	239.19
751.31	238.98
751.64	238.86
751.97	238.98
752.29	238.87
752.62	238.59
752.95	238.43
753.28	238.19
753.60	238.12
753.93	238.08
754.26	238.13
754.59	237.90
754.91	237.67
755.24	237.46
755.57	237.35
755.90	237.25
756.22	237.21
756.55	237.11
756.88	236.93
757.20	236.53
757.53	236.31
757.86	236.35
758.19	236.30
758.51	236.20
758.84	235.86
759.17	235.71
759.49	235.66
759.82	235.77
760.15	235.86
760.47	235.75
760.80	235.63
761.13	235.58
761.45	235.46
761.78	235.40
762.11	235.53
762.43	235.38
762.76	235.33
763.08	235.21
763.41	235.20
763.74	235.19
764.06	235.10
764.39	235.07
764.71	234.94
765.04	234.85
765.37	234.71
765.69	234.69
766.02	234.58
766.34	234.46
766.67	234.18
767.00	234.13
767.32	234.32
767.65	234.49
767.97	234.44
768.30	234.42
768.62	234.38
768.95	234.13
769.27	234.09
769.60	234.10
769.92	234.09
770.25	233.90
770.57	233.72
770.90	233.66
771.22	233.54
771.55	233.47
771.87	233.40
772.20	233.35
772.52	233.79
772.85	234.31
773.17	234.25
773.50	234.21
773.82	234.06
774.15	233.81
774.47	233.56
774.80	233.38
775.12	233.26
775.45	233.21
775.77	233.18
776.09	233.16
776.42	233.05
776.74	233.04
777.07	232.95
777.39	232.93
777.72	232.83
778.04	232.82
778.36	232.68
778.69	232.69
779.01	232.63
779.33	232.11
779.66	231.57
779.98	231.52
780.31	231.49
780.63	231.63
780.95	231.62
781.28	231.48
781.60	231.39
781.92	231.41
782.25	231.39
782.57	231.35
782.89	231.20
783.22	231.16
783.54	231.02
783.86	231.07
784.19	230.99
784.51	231.15
784.83	231.06
785.16	231.09
785.48	231.05
785.80	231.11
786.12	231.04
786.45	230.97
786.77	230.95
787.09	230.89
787.42	230.72
787.74	230.78
788.06	230.74
788.38	230.69
788.71	230.61
789.03	230.59
789.35	230.67
789.67	230.64
789.99	230.61
790.32	230.53
790.64	230.51
790.96	230.90
791.28	230.74
791.61	230.64
791.93	230.68
792.25	230.64
792.57	230.98
792.89	230.96
793.21	230.97
793.54	230.96
793.86	230.92
794.18	230.86
794.50	230.70
794.82	230.74
795.14	230.86
795.47	230.98
795.79	231.01
796.11	230.81
796.43	230.80
796.75	230.80
797.07	230.87
797.39	230.82
797.71	230.49
798.04	230.40
798.36	230.49
798.68	230.42
799.00	230.41
799.32	230.07
799.64	230.15
799.96	230.18
800.28	230.25
800.60	230.20
800.92	230.25
801.24	230.23
801.56	230.26
801.89	230.18
802.21	230.12
802.53	229.99
802.85	230.06
803.17	230.32
803.49	230.20
803.81	230.09
804.13	230.06
804.45	229.92
804.77	229.96
805.09	229.95
805.41	229.89
805.73	229.82
806.05	229.70
806.37	229.64
806.69	229.55
807.01	229.47
807.33	229.55
807.65	229.43
807.97	229.61
808.28	229.49
808.60	229.45
808.92	229.35
809.24	229.65
809.56	229.60
809.88	229.32
810.20	229.35
810.52	229.46
810.84	229.45
811.16	229.46
811.48	229.50
811.80	229.63
812.12	229.67
812.43	229.71
812.75	229.73
813.07	229.68
813.39	229.67
813.71	229.65
814.03	229.53
814.35	229.48
814.67	229.28
814.98	229.31
815.30	229.31
815.62	229.27
815.94	228.92
816.26	229.13
816.58	229.06
816.89	229.10
817.21	228.98
817.53	228.97
817.85	228.95
