SpectraSuite Data File
++++++++++++++++++++++++++++++++++++
Date: Wed Sep 04 17:42:50 EDT 2013
User: lab3
Dark Spectrum Present: Yes
Reference Spectrum Present: No
Number of Sampled Component Spectra: 1
Spectrometers: USB2E7196
Integration Time (usec): 170000 (USB2E7196)
Spectra Averaged: 20 (USB2E7196)
Boxcar Smoothing: 10 (USB2E7196)
Correct for Electrical Dark: No (USB2E7196)
Strobe/Lamp Enabled: No (USB2E7196)
Correct for Detector Non-linearity: No (USB2E7196)
Correct for Stray Light: No (USB2E7196)
Number of Pixels in Processed Spectrum: 2048
>>>>>Begin Processed Spectral Data<<<<<
339.09	0.00
339.48	212.45
339.86	214.50
340.24	214.95
340.63	215.75
341.01	224.00
341.39	219.15
341.78	223.00
342.16	223.35
342.54	222.75
342.93	211.85
343.31	222.56
343.69	223.09
344.07	223.50
344.46	223.94
344.84	224.43
345.22	224.46
345.60	224.82
345.99	224.96
346.37	225.08
346.75	225.19
347.13	225.24
347.52	225.28
347.90	225.52
348.28	225.52
348.66	225.65
349.05	225.50
349.43	225.56
349.81	225.62
350.19	225.61
350.57	225.80
350.96	225.81
351.34	225.84
351.72	225.94
352.10	226.08
352.48	226.16
352.87	226.17
353.25	226.22
353.63	226.17
354.01	226.20
354.39	226.28
354.77	226.30
355.15	226.45
355.54	226.46
355.92	226.30
356.30	226.37
356.68	226.80
357.06	227.00
357.44	226.97
357.82	227.00
358.20	227.49
358.58	227.47
358.97	227.55
359.35	227.76
359.73	227.96
360.11	228.01
360.49	228.08
360.87	228.15
361.25	228.25
361.63	228.51
362.01	228.56
362.39	228.59
362.77	228.68
363.15	228.78
363.53	228.85
363.91	228.96
364.29	228.99
364.67	228.50
365.05	228.46
365.43	228.59
365.81	228.68
366.19	228.58
366.57	228.77
366.95	228.79
367.33	228.70
367.71	228.61
368.09	228.76
368.47	228.83
368.85	228.89
369.23	229.01
369.61	228.85
369.99	228.99
370.37	229.03
370.75	229.25
371.13	229.10
371.51	229.05
371.89	229.11
372.27	229.13
372.65	229.19
373.03	229.18
373.41	229.13
373.78	229.05
374.16	228.67
374.54	228.56
374.92	228.46
375.30	228.41
375.68	228.29
376.06	228.18
376.44	228.03
376.82	227.91
377.19	227.82
377.57	227.73
377.95	227.51
378.33	227.37
378.71	227.03
379.09	227.04
379.47	226.98
379.84	226.84
380.22	226.65
380.60	226.44
380.98	226.32
381.36	226.26
381.73	226.13
382.11	226.20
382.49	226.10
382.87	225.99
383.25	225.89
383.62	226.42
384.00	226.24
384.38	226.21
384.76	226.23
385.13	226.26
385.51	226.27
385.89	226.15
386.27	226.09
386.64	226.12
387.02	225.98
387.40	225.80
387.78	225.77
388.15	225.76
388.53	225.77
388.91	225.69
389.29	225.58
389.66	225.65
390.04	225.56
390.42	225.58
390.79	225.59
391.17	225.50
391.55	224.88
391.92	224.94
392.30	224.94
392.68	224.86
393.05	224.84
393.43	224.73
393.81	224.72
394.18	224.67
394.56	224.66
394.94	224.81
395.31	224.91
395.69	225.02
396.06	225.18
396.44	225.23
396.82	225.28
397.19	225.59
397.57	225.59
397.95	225.66
398.32	225.59
398.70	225.64
399.07	225.94
399.45	226.01
399.82	226.07
400.20	226.07
400.58	226.15
400.95	225.96
401.33	226.23
401.70	226.72
402.08	226.87
402.45	226.96
402.83	227.17
403.20	227.23
403.58	227.31
403.95	227.45
404.33	227.66
404.71	227.85
405.08	228.23
405.46	228.40
405.83	228.66
406.21	228.89
406.58	229.18
406.96	229.35
407.33	229.73
407.70	230.10
408.08	230.83
408.45	231.24
408.83	231.80
409.20	232.05
409.58	232.18
409.95	232.70
410.33	233.22
410.70	233.54
411.08	234.16
411.45	234.72
411.82	235.23
412.20	236.01
412.57	236.90
412.95	237.11
413.32	237.86
413.69	238.53
414.07	239.33
414.44	240.16
414.82	241.04
415.19	242.07
415.56	243.00
415.94	243.84
416.31	245.04
416.68	246.19
417.06	247.61
417.43	249.00
417.81	250.42
418.18	251.98
418.55	253.57
418.93	255.32
419.30	257.07
419.67	259.01
420.04	260.78
420.42	262.59
420.79	265.21
421.16	267.47
421.54	270.08
421.91	272.53
422.28	275.12
422.66	277.81
423.03	280.74
423.40	283.55
423.77	286.48
424.15	289.43
424.52	292.53
424.89	296.05
425.26	299.28
425.64	302.50
426.01	305.94
426.38	309.55
426.75	313.22
427.13	316.94
427.50	320.77
427.87	324.85
428.24	328.97
428.61	332.54
428.99	336.99
429.36	341.46
429.73	346.10
430.10	350.69
430.47	355.44
430.85	359.98
431.22	365.07
431.59	370.83
431.96	375.95
432.33	381.78
432.70	387.20
433.08	393.82
433.45	399.94
433.82	405.96
434.19	412.82
434.56	419.62
434.93	425.99
435.30	432.51
435.68	439.65
436.05	446.70
436.42	453.77
436.79	460.12
437.16	467.10
437.53	474.46
437.90	481.58
438.27	488.79
438.64	496.20
439.01	503.07
439.38	509.01
439.75	515.06
440.13	521.78
440.50	528.12
440.87	533.14
441.24	538.55
441.61	544.40
441.98	548.70
442.35	553.36
442.72	558.51
443.09	563.36
443.46	566.22
443.83	568.23
444.20	569.88
444.57	572.29
444.94	573.22
445.31	574.17
445.68	575.54
446.05	575.65
446.42	574.59
446.79	573.62
447.16	572.12
447.53	571.12
447.90	568.06
448.27	565.01
448.64	561.01
449.01	557.95
449.37	552.96
449.74	548.01
450.11	542.70
450.48	536.19
450.85	529.54
451.22	524.00
451.59	518.48
451.96	513.39
452.33	506.68
452.70	500.59
453.07	493.50
453.43	485.90
453.80	478.95
454.17	472.38
454.54	465.97
454.91	459.38
455.28	452.75
455.65	446.51
456.02	441.07
456.38	435.85
456.75	429.47
457.12	424.05
457.49	418.82
457.86	413.50
458.23	409.26
458.59	404.58
458.96	399.72
459.33	395.57
459.70	391.30
460.07	387.92
460.43	384.07
460.80	380.40
461.17	377.46
461.54	374.20
461.91	370.97
462.27	367.78
462.64	364.96
463.01	361.98
463.38	359.44
463.74	355.97
464.11	353.45
464.48	351.28
464.85	348.90
465.21	347.15
465.58	345.18
465.95	342.90
466.32	341.08
466.68	339.17
467.05	337.30
467.42	335.42
467.78	333.50
468.15	331.77
468.52	330.58
468.88	328.57
469.25	327.00
469.62	325.84
469.98	324.52
470.35	323.32
470.72	322.20
471.08	320.75
471.45	319.71
471.82	318.72
472.18	317.44
472.55	316.75
472.92	315.64
473.28	314.78
473.65	313.90
474.02	313.06
474.38	312.46
474.75	311.93
475.11	311.28
475.48	310.79
475.85	310.30
476.21	309.67
476.58	309.31
476.94	309.03
477.31	308.68
477.67	308.35
478.04	308.23
478.41	308.14
478.77	308.48
479.14	308.24
479.50	308.26
479.87	308.43
480.23	308.36
480.60	308.41
480.96	308.37
481.33	308.73
481.69	308.94
482.06	309.14
482.42	309.33
482.79	309.73
483.15	310.19
483.52	310.77
483.88	311.23
484.25	311.74
484.61	312.27
484.98	312.86
485.34	313.82
485.71	314.69
486.07	315.63
486.44	316.12
486.80	317.24
487.17	318.20
487.53	319.44
487.90	320.80
488.26	322.39
488.62	323.98
488.99	325.40
489.35	327.05
489.72	328.85
490.08	330.69
490.44	332.52
490.81	334.59
491.17	336.50
491.54	338.86
491.90	341.23
492.26	343.65
492.63	346.32
492.99	348.83
493.36	351.61
493.72	354.56
494.08	357.61
494.45	360.87
494.81	364.37
495.17	367.96
495.54	371.76
495.90	375.47
496.26	379.45
496.63	383.72
496.99	388.05
497.35	392.63
497.72	397.50
498.08	402.46
498.44	407.52
498.80	413.09
499.17	418.52
499.53	424.19
499.89	430.34
500.26	436.32
500.62	442.59
500.98	449.18
501.34	455.88
501.71	462.88
502.07	469.80
502.43	477.09
502.79	484.40
503.16	491.96
503.52	499.91
503.88	508.13
504.24	516.63
504.60	525.39
504.97	534.43
505.33	543.54
505.69	553.18
506.05	562.70
506.41	572.36
506.78	582.45
507.14	592.77
507.50	603.40
507.86	614.35
508.22	625.57
508.59	636.74
508.95	648.37
509.31	660.53
509.67	672.80
510.03	684.66
510.39	697.07
510.75	709.82
511.12	722.73
511.48	736.07
511.84	749.21
512.20	762.60
512.56	775.99
512.92	790.00
513.28	804.21
513.64	818.74
514.00	833.34
514.37	848.14
514.73	863.27
515.09	878.35
515.45	893.61
515.81	908.45
516.17	923.95
516.53	939.11
516.89	954.19
517.25	969.86
517.61	986.73
517.97	1003.24
518.33	1019.45
518.69	1035.96
519.05	1052.24
519.41	1068.83
519.77	1085.82
520.13	1102.38
520.49	1118.82
520.85	1136.62
521.21	1153.21
521.57	1170.14
521.93	1186.49
522.29	1203.03
522.65	1218.99
523.01	1235.24
523.37	1251.50
523.73	1267.78
524.09	1283.88
524.45	1299.98
524.81	1316.02
525.17	1331.52
525.53	1347.23
525.89	1363.30
526.25	1378.81
526.61	1394.09
526.97	1409.92
527.33	1425.68
527.68	1442.06
528.04	1457.65
528.40	1471.91
528.76	1487.47
529.12	1502.29
529.48	1517.73
529.84	1532.25
530.20	1547.72
530.56	1562.54
530.91	1577.75
531.27	1592.37
531.63	1606.89
531.99	1621.47
532.35	1635.58
532.71	1649.89
533.07	1664.37
533.42	1678.04
533.78	1691.95
534.14	1705.98
534.50	1719.09
534.86	1732.12
535.21	1744.21
535.57	1757.02
535.93	1768.94
536.29	1780.93
536.65	1793.30
537.00	1804.85
537.36	1816.34
537.72	1826.90
538.08	1838.35
538.44	1848.81
538.79	1859.24
539.15	1869.91
539.51	1880.10
539.87	1889.73
540.22	1898.40
540.58	1907.24
540.94	1915.14
541.29	1922.75
541.65	1930.07
542.01	1937.32
542.37	1943.43
542.72	1949.08
543.08	1954.51
543.44	1961.00
543.79	1966.06
544.15	1970.88
544.51	1976.01
544.87	1981.12
545.22	1985.35
545.58	1988.54
545.94	1991.78
546.29	1994.36
546.65	1996.73
547.01	1998.31
547.36	2000.08
547.72	2001.73
548.07	2001.98
548.43	2003.51
548.79	2004.34
549.14	2004.91
549.50	2005.33
549.86	2005.36
550.21	2005.70
550.57	2005.97
550.92	2004.59
551.28	2002.98
551.64	2002.35
551.99	2001.13
552.35	1999.57
552.70	1999.14
553.06	1997.91
553.41	1996.39
553.77	1995.39
554.13	1994.31
554.48	1993.23
554.84	1991.76
555.19	1990.28
555.55	1989.65
555.90	1986.77
556.26	1983.87
556.61	1980.25
556.97	1976.51
557.32	1973.98
557.68	1971.29
558.03	1968.29
558.39	1965.02
558.74	1962.48
559.10	1958.12
559.45	1953.51
559.81	1948.30
560.16	1942.15
560.52	1936.80
560.87	1932.06
561.23	1926.23
561.58	1920.19
561.94	1913.22
562.29	1906.65
562.64	1899.62
563.00	1891.79
563.35	1885.24
563.71	1879.14
564.06	1873.30
564.42	1867.00
564.77	1860.42
565.12	1853.69
565.48	1846.64
565.83	1839.58
566.19	1832.15
566.54	1824.97
566.89	1817.71
567.25	1811.16
567.60	1804.78
567.96	1798.33
568.31	1791.27
568.66	1784.04
569.02	1776.28
569.37	1769.66
569.72	1762.72
570.08	1755.35
570.43	1747.44
570.78	1740.00
571.14	1732.24
571.49	1723.88
571.84	1716.10
572.20	1707.43
572.55	1699.12
572.90	1690.12
573.26	1681.81
573.61	1673.27
573.96	1664.70
574.31	1655.49
574.67	1646.25
575.02	1636.50
575.37	1626.62
575.72	1616.38
576.08	1606.74
576.43	1597.05
576.78	1586.70
577.13	1576.29
577.49	1566.41
577.84	1557.55
578.19	1548.28
578.54	1538.49
578.90	1529.33
579.25	1519.98
579.60	1510.72
579.95	1500.98
580.30	1491.35
580.66	1481.23
581.01	1471.32
581.36	1461.01
581.71	1451.62
582.06	1442.20
582.42	1433.05
582.77	1423.86
583.12	1415.03
583.47	1406.19
583.82	1397.56
584.17	1389.00
584.53	1380.55
584.88	1371.31
585.23	1361.69
585.58	1351.74
585.93	1342.23
586.28	1332.75
586.63	1322.77
586.98	1312.55
587.34	1303.01
587.69	1293.56
588.04	1284.77
588.39	1276.18
588.74	1267.43
589.09	1258.86
589.44	1249.71
589.79	1240.96
590.14	1232.27
590.49	1223.59
590.84	1214.81
591.19	1206.13
591.54	1197.37
591.89	1188.76
592.25	1181.64
592.60	1173.50
592.95	1165.71
593.30	1157.40
593.65	1149.08
594.00	1140.70
594.35	1134.45
594.70	1126.36
595.05	1118.44
595.40	1110.10
595.75	1101.64
596.10	1094.03
596.45	1086.16
596.80	1078.45
597.15	1070.67
597.50	1062.58
597.85	1054.93
598.19	1046.90
598.54	1038.85
598.89	1031.21
599.24	1023.84
599.59	1015.62
599.94	1008.19
600.29	1001.06
600.64	994.13
600.99	986.80
601.34	980.41
601.69	972.30
602.04	965.46
602.39	958.81
602.74	952.43
603.08	946.20
603.43	939.85
603.78	933.21
604.13	926.90
604.48	920.30
604.83	913.89
605.18	907.15
605.53	900.93
605.87	894.84
606.22	888.99
606.57	882.62
606.92	876.61
607.27	870.69
607.62	864.73
607.96	859.15
608.31	854.10
608.66	848.37
609.01	842.65
609.36	836.95
609.70	831.29
610.05	825.53
610.40	819.80
610.75	813.81
611.10	808.34
611.44	802.46
611.79	796.98
612.14	791.50
612.49	786.23
612.83	781.07
613.18	775.74
613.53	770.55
613.88	765.18
614.22	759.82
614.57	754.43
614.92	748.90
615.27	743.49
615.61	737.95
615.96	732.54
616.31	727.36
616.65	722.59
617.00	717.47
617.35	712.40
617.70	707.63
618.04	702.78
618.39	697.84
618.74	693.65
619.08	688.86
619.43	684.18
619.78	679.31
620.12	674.50
620.47	669.86
620.82	664.90
621.16	660.43
621.51	656.08
621.85	651.76
622.20	647.42
622.55	642.82
622.89	638.55
623.24	634.43
623.59	630.10
623.93	625.80
624.28	621.82
624.62	618.35
624.97	614.40
625.32	610.27
625.66	606.15
626.01	601.82
626.35	598.07
626.70	594.19
627.04	590.78
627.39	586.90
627.73	583.35
628.08	580.04
628.43	576.31
628.77	572.61
629.12	568.99
629.46	565.87
629.81	562.95
630.15	559.65
630.50	556.27
630.84	553.04
631.19	549.71
631.53	546.64
631.88	542.80
632.22	539.24
632.57	536.36
632.91	533.41
633.26	530.48
633.60	527.35
633.95	524.15
634.29	520.88
634.64	517.82
634.98	514.50
635.32	511.52
635.67	508.85
636.01	505.94
636.36	502.95
636.70	500.00
637.05	496.91
637.39	494.11
637.73	491.35
638.08	488.69
638.42	485.80
638.77	482.74
639.11	480.00
639.45	477.26
639.80	474.35
640.14	471.56
640.49	468.81
640.83	466.30
641.17	463.83
641.52	461.26
641.86	458.99
642.20	456.88
642.55	454.31
642.89	451.71
643.23	449.29
643.58	447.27
643.92	444.76
644.26	442.41
644.61	440.24
644.95	437.98
645.29	435.63
645.64	433.58
645.98	431.48
646.32	429.44
646.66	427.23
647.01	425.18
647.35	423.30
647.69	421.40
648.04	419.43
648.38	417.55
648.72	415.57
649.06	413.45
649.41	411.30
649.75	409.19
650.09	407.30
650.43	405.38
650.78	403.29
651.12	401.46
651.46	399.52
651.80	397.40
652.14	395.39
652.49	393.61
652.83	391.80
653.17	389.98
653.51	388.04
653.85	386.41
654.20	384.70
654.54	382.79
654.88	380.81
655.22	379.23
655.56	377.50
655.90	375.87
656.25	374.33
656.59	372.86
656.93	371.39
657.27	369.96
657.61	368.20
657.95	366.66
658.29	365.05
658.64	363.71
658.98	362.23
659.32	360.78
659.66	359.17
660.00	357.65
660.34	356.25
660.68	354.89
661.02	353.41
661.36	352.00
661.70	350.69
662.05	349.46
662.39	348.06
662.73	346.89
663.07	345.72
663.41	344.40
663.75	342.99
664.09	341.73
664.43	340.29
664.77	339.26
665.11	337.99
665.45	336.77
665.79	335.62
666.13	334.50
666.47	333.23
666.81	332.17
667.15	330.91
667.49	329.80
667.83	328.86
668.17	327.88
668.51	326.80
668.85	325.84
669.19	325.05
669.53	323.99
669.87	322.84
670.21	321.85
670.55	320.81
670.89	320.09
671.23	319.13
671.57	318.28
671.91	317.39
672.25	316.41
672.58	315.66
672.92	314.53
673.26	313.57
673.60	312.82
673.94	311.94
674.28	311.29
674.62	310.41
674.96	309.51
675.30	308.66
675.64	307.91
675.97	307.05
676.31	306.09
676.65	305.20
676.99	304.57
677.33	303.65
677.67	302.99
678.01	302.02
678.34	301.37
678.68	300.67
679.02	299.86
679.36	299.14
679.70	298.33
680.04	297.70
680.37	297.10
680.71	296.42
681.05	295.82
681.39	295.06
681.73	294.45
682.06	293.78
682.40	293.08
682.74	292.48
683.08	292.08
683.42	291.41
683.75	290.88
684.09	290.15
684.43	289.62
684.77	288.92
685.10	288.35
685.44	287.83
685.78	287.09
686.12	286.50
686.45	285.95
686.79	285.36
687.13	284.87
687.46	284.33
687.80	283.85
688.14	283.26
688.48	282.80
688.81	282.31
689.15	281.86
689.49	281.43
689.82	280.97
690.16	280.17
690.50	279.72
690.83	279.21
691.17	278.70
691.51	278.22
691.84	277.91
692.18	277.43
692.52	276.81
692.85	276.51
693.19	276.24
693.52	275.89
693.86	275.50
694.20	275.05
694.53	274.60
694.87	274.10
695.21	273.66
695.54	273.18
695.88	272.65
696.21	272.07
696.55	271.61
696.88	271.05
697.22	270.67
697.56	270.30
697.89	269.84
698.23	269.53
698.56	269.05
698.90	268.64
699.23	268.15
699.57	267.76
699.90	267.26
700.24	266.73
700.58	266.30
700.91	265.95
701.25	265.92
701.58	265.91
701.92	265.59
702.25	265.32
702.59	264.90
702.92	264.55
703.26	264.31
703.59	264.04
703.93	264.21
704.26	263.93
704.60	263.57
704.93	263.23
705.26	262.75
705.60	262.55
705.93	262.09
706.27	262.01
706.60	261.88
706.94	261.75
707.27	261.42
707.61	261.16
707.94	260.83
708.27	260.24
708.61	259.47
708.94	259.15
709.28	258.74
709.61	258.49
709.94	258.31
710.28	257.96
710.61	257.61
710.95	256.89
711.28	256.88
711.61	256.60
711.95	256.43
712.28	256.06
712.61	255.68
712.95	255.68
713.28	255.45
713.61	254.99
713.95	254.52
714.28	254.25
714.61	253.94
714.95	253.61
715.28	253.18
715.61	253.02
715.95	252.81
716.28	252.55
716.61	252.31
716.95	251.88
717.28	251.59
717.61	251.38
717.94	251.12
718.28	250.49
718.61	250.18
718.94	249.75
719.27	249.68
719.61	249.55
719.94	249.18
720.27	248.79
720.60	248.59
720.94	248.40
721.27	248.30
721.60	248.14
721.93	247.97
722.27	247.99
722.60	247.88
722.93	247.61
723.26	247.47
723.59	247.22
723.93	247.21
724.26	247.13
724.59	246.89
724.92	246.66
725.25	246.69
725.59	246.56
725.92	246.54
726.25	246.36
726.58	246.16
726.91	245.93
727.24	245.81
727.57	245.62
727.91	245.41
728.24	245.26
728.57	245.10
728.90	244.97
729.23	244.57
729.56	244.63
729.89	244.48
730.22	244.28
730.55	244.12
730.89	243.98
731.22	243.80
731.55	243.66
731.88	243.59
732.21	243.43
732.54	243.28
732.87	243.13
733.20	242.95
733.53	242.81
733.86	242.81
734.19	242.63
734.52	242.57
734.85	242.80
735.18	242.62
735.51	242.59
735.84	242.49
736.17	242.60
736.50	242.16
736.83	242.60
737.16	242.48
737.49	242.55
737.82	242.36
738.15	242.29
738.48	242.15
738.81	242.02
739.14	241.76
739.47	241.58
739.80	241.40
740.13	241.45
740.46	241.22
740.79	241.02
741.12	240.87
741.45	240.69
741.78	240.30
742.11	240.30
742.44	240.09
742.77	240.05
743.10	239.81
743.43	239.67
743.75	239.04
744.08	239.58
744.41	239.37
744.74	239.16
745.07	238.91
745.40	238.88
745.73	238.94
746.06	238.90
746.39	238.85
746.71	238.73
747.04	238.45
747.37	238.35
747.70	238.29
748.03	238.25
748.36	238.20
748.68	238.05
749.01	237.78
749.34	237.69
749.67	237.60
750.00	237.60
750.33	237.88
750.65	237.86
750.98	237.21
751.31	237.08
751.64	237.11
751.97	237.35
752.29	237.24
752.62	236.96
752.95	236.80
753.28	236.64
753.60	236.55
753.93	236.62
754.26	236.67
754.59	236.45
754.91	236.31
755.24	236.17
755.57	236.15
755.90	236.00
756.22	235.80
756.55	235.58
756.88	235.39
757.20	235.01
757.53	234.78
757.86	234.56
758.19	234.54
758.51	234.39
758.84	234.02
759.17	233.90
759.49	233.77
759.82	234.01
760.15	233.99
760.47	233.95
760.80	233.69
761.13	233.62
761.45	233.54
761.78	233.41
762.11	233.38
762.43	233.22
762.76	233.18
763.08	233.21
763.41	233.17
763.74	233.12
764.06	233.02
764.39	232.98
764.71	232.99
765.04	232.87
765.37	232.76
765.69	232.72
766.02	232.60
766.34	232.55
766.67	232.24
767.00	232.26
767.32	232.40
767.65	232.66
767.97	232.56
768.30	232.52
768.62	232.47
768.95	232.33
769.27	232.33
769.60	232.40
769.92	232.21
770.25	232.13
770.57	232.00
770.90	231.93
771.22	231.79
771.55	231.72
771.87	231.71
772.20	231.68
772.52	232.03
772.85	232.63
773.17	232.59
773.50	232.50
773.82	232.35
774.15	232.13
774.47	231.80
774.80	231.69
775.12	231.71
775.45	231.66
775.77	231.65
776.09	231.66
776.42	231.56
776.74	231.71
777.07	231.64
777.39	231.61
777.72	231.65
778.04	231.72
778.36	231.59
778.69	231.59
779.01	231.60
779.33	231.18
779.66	230.59
779.98	230.49
780.31	230.56
780.63	230.75
780.95	230.79
781.28	230.76
781.60	230.69
781.92	230.58
782.25	230.57
782.57	230.60
782.89	230.44
783.22	230.33
783.54	230.22
783.86	230.20
784.19	230.15
784.51	230.21
784.83	230.04
785.16	230.08
785.48	229.96
785.80	229.90
786.12	229.89
786.45	229.87
786.77	229.90
787.09	229.80
787.42	229.55
787.74	229.55
788.06	229.56
788.38	229.60
788.71	229.60
789.03	229.58
789.35	229.62
789.67	229.61
789.99	229.66
790.32	229.58
790.64	229.63
790.96	230.00
791.28	229.79
791.61	229.82
791.93	229.80
792.25	229.78
792.57	230.16
792.89	230.02
793.21	230.00
793.54	229.93
793.86	229.75
794.18	229.85
794.50	229.71
794.82	229.61
795.14	229.60
795.47	229.67
795.79	229.68
796.11	229.52
796.43	229.52
796.75	229.42
797.07	229.41
797.39	229.27
797.71	228.94
798.04	228.93
798.36	228.92
798.68	228.89
799.00	228.87
799.32	228.54
799.64	228.59
799.96	228.52
800.28	228.55
800.60	228.60
800.92	228.59
801.24	228.55
801.56	228.62
801.89	228.61
802.21	228.55
802.53	228.41
802.85	228.56
803.17	228.71
803.49	228.66
803.81	228.64
804.13	228.68
804.45	228.60
804.77	228.68
805.09	228.70
805.41	228.64
805.73	228.55
806.05	228.46
806.37	228.48
806.69	228.46
807.01	228.49
807.33	228.56
807.65	228.32
807.97	228.50
808.28	228.44
808.60	228.36
808.92	228.28
809.24	228.58
809.56	228.45
809.88	228.26
810.20	228.35
810.52	228.45
810.84	228.38
811.16	228.28
811.48	228.15
811.80	228.35
812.12	228.28
812.43	228.38
812.75	228.40
813.07	228.32
813.39	228.32
813.71	228.18
814.03	228.09
814.35	228.21
814.67	228.03
814.98	227.96
815.30	227.94
815.62	227.93
815.94	227.54
816.26	227.71
816.58	227.61
816.89	227.62
817.21	227.46
817.53	227.52
817.85	227.60
818.17	227.64
818.48	227.34
818.80	227.45
