SpectraSuite Data File
++++++++++++++++++++++++++++++++++++
Date: Wed Sep 04 17:51:32 EDT 2013
User: lab3
Dark Spectrum Present: Yes
Reference Spectrum Present: No
Number of Sampled Component Spectra: 1
Spectrometers: USB2E7196
Integration Time (usec): 170000 (USB2E7196)
Spectra Averaged: 20 (USB2E7196)
Boxcar Smoothing: 10 (USB2E7196)
Correct for Electrical Dark: No (USB2E7196)
Strobe/Lamp Enabled: No (USB2E7196)
Correct for Detector Non-linearity: No (USB2E7196)
Correct for Stray Light: No (USB2E7196)
Number of Pixels in Processed Spectrum: 2048
>>>>>Begin Processed Spectral Data<<<<<
339.09	0.00
339.48	213.15
339.86	214.80
340.24	215.40
340.63	217.15
341.01	226.20
341.39	219.00
341.78	221.25
342.16	224.20
342.54	223.25
342.93	212.33
343.31	223.04
343.69	223.60
344.07	224.01
344.46	224.47
344.84	224.91
345.22	224.93
345.60	225.23
345.99	225.48
346.37	225.55
346.75	225.66
347.13	225.75
347.52	225.75
347.90	225.98
348.28	226.03
348.66	226.11
349.05	225.99
349.43	226.07
349.81	226.11
350.19	226.13
350.57	226.16
350.96	226.19
351.34	226.32
351.72	226.39
352.10	226.54
352.48	226.61
352.87	226.60
353.25	226.66
353.63	226.73
354.01	226.70
354.39	226.79
354.77	226.85
355.15	227.02
355.54	227.11
355.92	226.99
356.30	227.04
356.68	227.37
357.06	227.52
357.44	227.52
357.82	227.60
358.20	228.11
358.58	228.13
358.97	228.25
359.35	228.33
359.73	228.55
360.11	228.60
360.49	228.64
360.87	228.71
361.25	228.79
361.63	228.97
362.01	229.06
362.39	229.07
362.77	229.17
363.15	229.13
363.53	229.12
363.91	229.16
364.29	229.20
364.67	228.82
365.05	228.81
365.43	228.92
365.81	229.02
366.19	228.83
366.57	229.03
366.95	229.00
367.33	228.88
367.71	228.78
368.09	228.88
368.47	228.85
368.85	228.81
369.23	228.85
369.61	228.75
369.99	228.93
370.37	229.05
370.75	229.24
371.13	229.18
371.51	229.13
371.89	229.17
372.27	229.18
372.65	229.18
373.03	229.14
373.41	229.04
373.78	228.96
374.16	228.71
374.54	228.55
374.92	228.52
375.30	228.50
375.68	228.42
376.06	228.37
376.44	228.36
376.82	228.41
377.19	228.34
377.57	228.21
377.95	228.01
378.33	227.88
378.71	227.57
379.09	227.54
379.47	227.53
379.84	227.44
380.22	227.32
380.60	227.12
380.98	227.09
381.36	227.01
381.73	226.84
382.11	226.88
382.49	226.85
382.87	226.69
383.25	226.66
383.62	227.11
384.00	227.02
384.38	227.00
384.76	227.02
385.13	227.12
385.51	227.01
385.89	226.89
386.27	226.87
386.64	226.90
387.02	226.85
387.40	226.84
387.78	226.80
388.15	226.83
388.53	226.85
388.91	226.83
389.29	226.81
389.66	226.90
390.04	226.79
390.42	226.84
390.79	226.85
391.17	226.84
391.55	226.34
391.92	226.26
392.30	226.27
392.68	226.18
393.05	226.16
393.43	226.29
393.81	226.36
394.18	226.26
394.56	226.26
394.94	226.41
395.31	226.31
395.69	226.56
396.06	226.69
396.44	226.71
396.82	226.72
397.19	226.95
397.57	226.97
397.95	227.09
398.32	226.97
398.70	227.12
399.07	227.32
399.45	227.35
399.82	227.40
400.20	227.44
400.58	227.48
400.95	227.40
401.33	227.57
401.70	227.96
402.08	228.09
402.45	228.20
402.83	228.38
403.20	228.64
403.58	228.75
403.95	228.91
404.33	229.18
404.71	229.39
405.08	229.80
405.46	230.03
405.83	230.31
406.21	230.61
406.58	230.88
406.96	231.07
407.33	231.42
407.70	231.87
408.08	232.60
408.45	233.16
408.83	233.70
409.20	234.13
409.58	234.35
409.95	234.90
410.33	235.46
410.70	235.88
411.08	236.44
411.45	237.00
411.82	237.56
412.20	238.31
412.57	239.28
412.95	239.71
413.32	240.61
413.69	241.41
414.07	242.35
414.44	243.39
414.82	244.45
415.19	245.63
415.56	246.84
415.94	247.83
416.31	249.18
416.68	250.53
417.06	252.11
417.43	253.67
417.81	255.51
418.18	257.28
418.55	259.17
418.93	261.16
419.30	263.21
419.67	265.44
420.04	267.70
420.42	269.99
420.79	272.99
421.16	275.75
421.54	278.78
421.91	281.73
422.28	284.64
422.66	287.87
423.03	291.30
423.40	294.53
423.77	298.10
424.15	301.67
424.52	305.43
424.89	309.52
425.26	313.45
425.64	317.11
426.01	321.22
426.38	325.55
426.75	330.07
427.13	334.62
427.50	339.29
427.87	344.32
428.24	349.24
428.61	353.73
428.99	358.97
429.36	364.41
429.73	369.95
430.10	375.47
430.47	381.27
430.85	386.90
431.22	393.19
431.59	399.98
431.96	406.14
432.33	413.05
432.70	419.63
433.08	427.50
433.45	435.00
433.82	442.33
434.19	450.47
434.56	458.48
434.93	466.07
435.30	473.83
435.68	482.18
436.05	490.58
436.42	498.96
436.79	506.56
437.16	514.91
437.53	523.55
437.90	532.17
438.27	540.74
438.64	549.69
439.01	557.95
439.38	565.15
439.75	572.12
440.13	580.06
440.50	587.56
440.87	593.76
441.24	599.88
441.61	606.87
441.98	612.03
442.35	617.75
442.72	623.88
443.09	629.74
443.46	633.16
443.83	635.42
444.20	637.28
444.57	640.12
444.94	641.25
445.31	642.38
445.68	643.90
446.05	644.01
446.42	642.70
446.79	641.16
447.16	639.43
447.53	638.25
447.90	634.73
448.27	631.02
448.64	625.96
449.01	622.35
449.37	616.29
449.74	610.24
450.11	603.56
450.48	595.65
450.85	587.52
451.22	580.79
451.59	574.20
451.96	568.00
452.33	559.84
452.70	552.43
453.07	543.83
453.43	534.70
453.80	526.28
454.17	518.15
454.54	510.44
454.91	502.23
455.28	494.42
455.65	486.84
456.02	480.08
456.38	473.84
456.75	466.20
457.12	459.60
457.49	453.38
457.86	447.05
458.23	442.06
458.59	436.41
458.96	430.69
459.33	425.62
459.70	420.48
460.07	416.38
460.43	411.64
460.80	407.41
461.17	403.72
461.54	399.70
461.91	395.98
462.27	392.18
462.64	389.10
463.01	385.50
463.38	382.21
463.74	378.16
464.11	375.05
464.48	372.42
464.85	369.67
465.21	367.47
465.58	365.12
465.95	362.26
466.32	360.12
466.68	357.77
467.05	355.50
467.42	353.28
467.78	350.93
468.15	348.90
468.52	347.26
468.88	344.92
469.25	343.00
469.62	341.47
469.98	339.87
470.35	338.25
470.72	336.77
471.08	335.10
471.45	333.90
471.82	332.71
472.18	331.20
472.55	330.17
472.92	328.79
473.28	327.71
473.65	326.58
474.02	325.44
474.38	324.63
474.75	323.97
475.11	323.05
475.48	322.43
475.85	321.78
476.21	321.09
476.58	320.63
476.94	320.23
477.31	319.75
477.67	319.32
478.04	318.98
478.41	318.81
478.77	319.05
479.14	318.80
479.50	318.67
479.87	318.81
480.23	318.80
480.60	318.85
480.96	318.92
481.33	319.28
481.69	319.54
482.06	319.67
482.42	319.87
482.79	320.31
483.15	320.79
483.52	321.40
483.88	321.98
484.25	322.56
484.61	323.14
484.98	323.74
485.34	324.69
485.71	325.66
486.07	326.51
486.44	327.20
486.80	328.30
487.17	329.48
487.53	330.83
487.90	332.30
488.26	333.91
488.62	335.50
488.99	336.99
489.35	338.80
489.72	340.77
490.08	342.73
490.44	344.69
490.81	346.85
491.17	349.07
491.54	351.55
491.90	354.13
492.26	356.90
492.63	359.86
492.99	362.63
493.36	365.62
493.72	369.10
494.08	372.54
494.45	376.28
494.81	380.08
495.17	383.80
495.54	387.89
495.90	392.20
496.26	396.69
496.63	401.39
496.99	406.19
497.35	411.28
497.72	416.64
498.08	422.09
498.44	427.72
498.80	433.74
499.17	439.74
499.53	446.06
499.89	452.78
500.26	459.54
500.62	466.68
500.98	474.14
501.34	481.52
501.71	489.26
502.07	497.03
502.43	505.22
502.79	513.83
503.16	522.53
503.52	531.54
503.88	540.63
504.24	550.39
504.60	560.41
504.97	570.58
505.33	581.04
505.69	592.22
506.05	603.25
506.41	614.37
506.78	626.07
507.14	638.14
507.50	650.38
507.86	662.90
508.22	675.72
508.59	688.75
508.95	702.16
509.31	716.27
509.67	730.51
510.03	744.95
510.39	759.53
510.75	774.48
511.12	789.53
511.48	805.17
511.84	820.84
512.20	836.68
512.56	852.95
512.92	869.70
513.28	886.28
513.64	903.60
514.00	921.18
514.37	938.80
514.73	956.98
515.09	975.09
515.45	993.32
515.81	1011.55
516.17	1030.07
516.53	1048.75
516.89	1067.25
517.25	1086.61
517.61	1106.38
517.97	1126.60
518.33	1146.66
518.69	1166.89
519.05	1187.38
519.41	1207.65
519.77	1228.58
520.13	1249.38
520.49	1269.75
520.85	1292.04
521.21	1312.93
521.57	1333.94
521.93	1354.61
522.29	1375.60
522.65	1396.16
523.01	1417.04
523.37	1437.75
523.73	1458.72
524.09	1479.31
524.45	1500.14
524.81	1520.77
525.17	1541.28
525.53	1561.93
525.89	1582.33
526.25	1602.94
526.61	1623.20
526.97	1644.31
527.33	1665.26
527.68	1686.72
528.04	1708.03
528.40	1727.33
528.76	1748.36
529.12	1768.58
529.48	1789.20
529.84	1808.94
530.20	1830.28
530.56	1850.76
530.91	1871.79
531.27	1892.16
531.63	1912.60
531.99	1932.98
532.35	1953.10
532.71	1973.38
533.07	1993.48
533.42	2013.27
533.78	2032.95
534.14	2052.56
534.50	2071.54
534.86	2090.95
535.21	2108.41
535.57	2126.32
535.93	2144.02
536.29	2161.58
536.65	2179.88
537.00	2197.86
537.36	2215.17
537.72	2231.21
538.08	2248.18
538.44	2264.76
538.79	2280.84
539.15	2297.09
539.51	2312.83
539.87	2327.88
540.22	2341.80
540.58	2356.29
540.94	2369.64
541.29	2382.31
541.65	2395.19
542.01	2407.52
542.37	2417.86
542.72	2428.85
543.08	2439.75
543.44	2451.48
543.79	2461.50
544.15	2471.51
544.51	2481.35
544.87	2491.23
545.22	2499.80
545.58	2507.60
545.94	2514.30
546.29	2520.83
546.65	2527.03
547.01	2532.52
547.36	2537.86
547.72	2543.24
548.07	2546.81
548.43	2551.64
548.79	2556.51
549.14	2560.12
549.50	2563.75
549.86	2567.60
550.21	2571.31
550.57	2574.36
550.92	2575.56
551.28	2576.95
551.64	2578.93
551.99	2580.57
552.35	2582.10
552.70	2583.93
553.06	2585.58
553.41	2586.65
553.77	2588.34
554.13	2589.72
554.48	2591.09
554.84	2592.39
555.19	2593.39
555.55	2595.29
555.90	2594.63
556.26	2593.25
556.61	2591.60
556.97	2589.37
557.32	2588.71
557.68	2587.41
558.03	2585.93
558.39	2584.30
558.74	2583.11
559.10	2579.58
559.45	2575.55
559.81	2570.86
560.16	2565.67
560.52	2560.39
560.87	2556.06
561.23	2550.60
561.58	2544.82
561.94	2537.87
562.29	2530.15
562.64	2523.06
563.00	2514.52
563.35	2508.03
563.71	2501.55
564.06	2494.95
564.42	2488.62
564.77	2481.10
565.12	2473.39
565.48	2465.61
565.83	2457.83
566.19	2449.64
566.54	2441.84
566.89	2433.91
567.25	2426.04
567.60	2419.15
567.96	2412.09
568.31	2404.22
568.66	2395.36
569.02	2386.51
569.37	2378.50
569.72	2371.22
570.08	2362.24
570.43	2352.96
570.78	2343.87
571.14	2334.31
571.49	2324.50
571.84	2314.55
572.20	2304.55
572.55	2294.45
572.90	2283.50
573.26	2273.32
573.61	2262.21
573.96	2250.96
574.31	2239.19
574.67	2227.64
575.02	2214.77
575.37	2201.94
575.72	2188.68
576.08	2177.00
576.43	2164.40
576.78	2151.32
577.13	2137.85
577.49	2125.18
577.84	2113.31
578.19	2101.27
578.54	2089.04
578.90	2077.16
579.25	2065.11
579.60	2052.19
579.95	2039.35
580.30	2026.60
580.66	2013.05
581.01	1999.75
581.36	1986.16
581.71	1973.52
582.06	1960.84
582.42	1948.37
582.77	1935.86
583.12	1923.92
583.47	1911.55
583.82	1899.65
584.17	1887.73
584.53	1875.87
584.88	1862.75
585.23	1849.86
585.58	1835.91
585.93	1822.54
586.28	1809.35
586.63	1795.61
586.98	1781.58
587.34	1768.65
587.69	1755.38
588.04	1743.02
588.39	1731.15
588.74	1718.99
589.09	1706.72
589.44	1693.83
589.79	1681.93
590.14	1670.12
590.49	1658.31
590.84	1646.21
591.19	1634.30
591.54	1621.94
591.89	1609.68
592.25	1599.77
592.60	1588.19
592.95	1576.95
593.30	1565.14
593.65	1553.01
594.00	1541.14
594.35	1531.55
594.70	1519.62
595.05	1508.38
595.40	1496.47
595.75	1484.44
596.10	1473.23
596.45	1461.86
596.80	1450.93
597.15	1439.67
597.50	1428.00
597.85	1416.75
598.19	1405.20
598.54	1393.53
598.89	1382.57
599.24	1372.13
599.59	1360.73
599.94	1349.89
600.29	1339.66
600.64	1329.39
600.99	1319.02
601.34	1309.59
601.69	1298.46
602.04	1288.77
602.39	1279.18
602.74	1270.06
603.08	1260.83
603.43	1251.72
603.78	1242.23
604.13	1232.94
604.48	1223.31
604.83	1213.47
605.18	1203.71
605.53	1194.52
605.87	1185.68
606.22	1177.29
606.57	1168.07
606.92	1158.57
607.27	1149.65
607.62	1140.70
607.96	1132.43
608.31	1124.70
608.66	1116.19
609.01	1107.58
609.36	1099.17
609.70	1090.44
610.05	1081.93
610.40	1073.58
610.75	1064.89
611.10	1056.84
611.44	1048.18
611.79	1040.02
612.14	1032.38
612.49	1024.65
612.83	1017.08
613.18	1009.22
613.53	1001.20
613.88	993.25
614.22	985.52
614.57	977.86
614.92	970.38
615.27	962.76
615.61	954.90
615.96	947.41
616.31	939.93
616.65	932.91
617.00	925.95
617.35	918.67
617.70	911.70
618.04	904.65
618.39	897.38
618.74	891.10
619.08	884.40
619.43	877.44
619.78	870.35
620.12	863.28
620.47	856.24
620.82	849.30
621.16	842.50
621.51	836.25
621.85	830.00
622.20	823.26
622.55	816.77
622.89	810.40
623.24	804.13
623.59	797.92
623.93	791.56
624.28	785.51
624.62	779.90
624.97	774.14
625.32	768.32
625.66	762.59
626.01	756.52
626.35	750.97
626.70	745.48
627.04	740.15
627.39	734.68
627.73	729.66
628.08	724.62
628.43	719.40
628.77	714.01
629.12	708.72
629.46	704.05
629.81	699.54
630.15	694.81
630.50	689.81
630.84	685.07
631.19	680.34
631.53	675.73
631.88	670.59
632.22	665.55
632.57	661.18
632.91	656.65
633.26	652.30
633.60	647.57
633.95	642.98
634.29	638.46
634.64	634.04
634.98	629.35
635.32	625.02
635.67	621.15
636.01	617.12
636.36	612.93
636.70	608.59
637.05	604.26
637.39	600.33
637.73	596.40
638.08	592.48
638.42	588.42
638.77	584.16
639.11	579.95
639.45	575.72
639.80	571.38
640.14	567.29
640.49	563.20
640.83	559.42
641.17	555.82
641.52	552.11
641.86	548.64
642.20	545.45
642.55	541.88
642.89	538.25
643.23	534.68
643.58	531.59
643.92	528.13
644.26	524.82
644.61	521.48
644.95	518.28
645.29	514.90
645.64	511.69
645.98	508.63
646.32	505.76
646.66	502.79
647.01	499.95
647.35	497.34
647.69	494.56
648.04	491.82
648.38	488.98
648.72	486.10
649.06	483.08
649.41	480.05
649.75	477.01
650.09	474.22
650.43	471.43
650.78	468.43
651.12	465.73
651.46	462.89
651.80	460.01
652.14	457.16
652.49	454.63
652.83	452.15
653.17	449.65
653.51	446.93
653.85	444.55
654.20	442.09
654.54	439.53
654.88	437.00
655.22	434.75
655.56	432.39
655.90	430.08
656.25	427.91
656.59	425.72
656.93	423.51
657.27	421.45
657.61	419.02
657.95	416.81
658.29	414.66
658.64	412.64
658.98	410.55
659.32	408.35
659.66	406.09
660.00	403.93
660.34	401.82
660.68	399.90
661.02	397.71
661.36	395.62
661.70	393.54
662.05	391.61
662.39	389.70
662.73	387.90
663.07	386.27
663.41	384.31
663.75	382.38
664.09	380.62
664.43	378.46
664.77	376.84
665.11	375.16
665.45	373.50
665.79	371.77
666.13	370.12
666.47	368.41
666.81	366.85
667.15	365.13
667.49	363.68
667.83	362.30
668.17	361.00
668.51	359.61
668.85	358.26
669.19	357.10
669.53	355.57
669.87	354.01
670.21	352.42
670.55	351.18
670.89	350.00
671.23	348.66
671.57	347.45
671.91	346.08
672.25	344.77
672.58	343.61
672.92	342.21
673.26	340.95
673.60	339.86
673.94	338.63
674.28	337.56
674.62	336.27
674.96	334.80
675.30	333.53
675.64	332.28
675.97	331.14
676.31	329.75
676.65	328.60
676.99	327.64
677.33	326.55
677.67	325.37
678.01	324.13
678.34	322.97
678.68	322.06
679.02	321.03
679.36	319.97
679.70	318.79
680.04	317.90
680.37	316.84
680.71	315.90
681.05	315.06
681.39	314.25
681.73	313.29
682.06	312.49
682.40	311.66
682.74	310.86
683.08	310.16
683.42	309.25
683.75	308.43
684.09	307.51
684.43	306.63
684.77	305.93
685.10	305.14
685.44	304.46
685.78	303.53
686.12	302.78
686.45	301.99
686.79	301.24
687.13	300.60
687.46	299.98
687.80	299.31
688.14	298.48
688.48	297.65
688.81	297.01
689.15	296.38
689.49	295.64
689.82	295.01
690.16	294.09
690.50	293.46
690.83	292.68
691.17	291.85
691.51	291.26
691.84	290.59
692.18	289.90
692.52	289.16
692.85	288.60
693.19	288.20
693.52	287.52
693.86	286.83
694.20	286.15
694.53	285.53
694.87	284.88
695.21	284.18
695.54	283.60
695.88	282.92
696.21	282.26
696.55	281.65
696.88	281.06
697.22	280.44
697.56	279.96
697.89	279.38
698.23	279.01
698.56	278.46
698.90	277.95
699.23	277.39
699.57	276.88
699.90	276.25
700.24	275.56
700.58	275.10
700.91	274.76
701.25	274.65
701.58	274.50
701.92	274.09
702.25	273.69
702.59	273.16
702.92	272.85
703.26	272.44
703.59	272.06
703.93	272.01
704.26	271.71
704.60	271.25
704.93	270.79
705.26	270.25
705.60	269.87
705.93	269.36
706.27	269.15
706.60	268.92
706.94	268.79
707.27	268.37
707.61	268.04
707.94	267.59
708.27	266.83
708.61	266.06
708.94	265.65
709.28	265.33
709.61	264.96
709.94	264.51
710.28	264.16
710.61	263.75
710.95	262.97
711.28	262.89
711.61	262.46
711.95	262.31
712.28	261.96
712.61	261.53
712.95	261.47
713.28	261.27
713.61	260.85
713.95	260.32
714.28	259.99
714.61	259.50
714.95	259.13
715.28	258.76
715.61	258.40
715.95	258.13
716.28	257.83
716.61	257.56
716.95	257.22
717.28	256.87
717.61	256.55
717.94	256.27
718.28	255.60
718.61	255.37
718.94	254.94
719.27	254.66
719.61	254.45
719.94	254.00
720.27	253.49
720.60	253.17
720.94	252.94
721.27	252.70
721.60	252.62
721.93	252.34
722.27	252.25
722.60	252.13
722.93	251.82
723.26	251.60
723.59	251.27
723.93	251.09
724.26	250.88
724.59	250.68
724.92	250.48
725.25	250.41
725.59	250.09
725.92	249.97
726.25	249.77
726.58	249.61
726.91	249.40
727.24	249.31
727.57	249.11
727.91	248.82
728.24	248.77
728.57	248.51
728.90	248.38
729.23	248.07
729.56	248.11
729.89	247.91
730.22	247.68
730.55	247.51
730.89	247.35
731.22	247.17
731.55	247.03
731.88	246.89
732.21	246.66
732.54	246.60
732.87	246.41
733.20	246.26
733.53	246.06
733.86	245.97
734.19	245.74
734.52	245.63
734.85	245.80
735.18	245.53
735.51	245.51
735.84	245.38
736.17	245.41
736.50	244.94
736.83	245.41
737.16	245.22
737.49	245.10
737.82	244.96
738.15	244.90
738.48	244.77
738.81	244.56
739.14	244.32
739.47	244.13
739.80	243.95
740.13	243.87
740.46	243.64
740.79	243.43
741.12	243.24
741.45	243.08
741.78	242.73
742.11	242.67
742.44	242.37
742.77	242.29
743.10	242.03
743.43	241.92
743.75	241.21
744.08	241.71
744.41	241.52
744.74	241.32
745.07	241.02
745.40	240.90
745.73	241.00
746.06	240.86
746.39	240.82
746.71	240.68
747.04	240.43
747.37	240.36
747.70	240.30
748.03	240.27
748.36	240.17
748.68	240.03
749.01	239.81
749.34	239.76
749.67	239.67
750.00	239.57
750.33	239.81
750.65	239.81
750.98	239.14
751.31	239.06
751.64	239.04
751.97	239.20
752.29	239.04
752.62	238.70
752.95	238.56
753.28	238.33
753.60	238.24
753.93	238.30
754.26	238.26
754.59	238.00
754.91	237.78
755.24	237.70
755.57	237.63
755.90	237.48
756.22	237.30
756.55	237.10
756.88	236.92
757.20	236.51
757.53	236.21
757.86	236.06
758.19	236.06
758.51	235.96
758.84	235.72
759.17	235.65
759.49	235.62
759.82	235.86
760.15	235.89
760.47	235.76
760.80	235.56
761.13	235.48
761.45	235.46
761.78	235.41
762.11	235.26
762.43	235.16
762.76	235.06
763.08	235.10
763.41	235.08
763.74	235.05
764.06	234.98
764.39	234.98
764.71	234.96
765.04	234.79
765.37	234.75
765.69	234.55
766.02	234.41
766.34	234.25
766.67	233.85
767.00	233.80
767.32	234.01
767.65	234.19
767.97	234.05
768.30	233.94
768.62	233.85
768.95	233.77
769.27	233.63
769.60	233.65
769.92	233.46
770.25	233.25
770.57	233.03
770.90	232.93
771.22	232.71
771.55	232.64
771.87	232.56
772.20	232.36
772.52	232.72
772.85	233.22
773.17	233.17
773.50	233.16
773.82	232.98
774.15	232.60
774.47	232.22
774.80	232.11
775.12	231.99
775.45	231.93
775.77	231.87
776.09	231.84
776.42	231.73
776.74	231.84
777.07	231.82
777.39	231.82
777.72	231.68
778.04	231.75
778.36	231.64
778.69	231.63
779.01	231.60
779.33	231.15
779.66	230.56
779.98	230.52
780.31	230.48
780.63	230.61
780.95	230.66
781.28	230.66
781.60	230.50
781.92	230.49
782.25	230.44
782.57	230.39
782.89	230.27
783.22	230.19
783.54	229.95
783.86	229.87
784.19	229.79
784.51	229.89
784.83	229.70
785.16	229.69
785.48	229.63
785.80	229.64
786.12	229.66
786.45	229.61
786.77	229.60
787.09	229.51
787.42	229.34
787.74	229.40
788.06	229.41
788.38	229.36
788.71	229.35
789.03	229.36
789.35	229.45
789.67	229.40
789.99	229.42
790.32	229.44
790.64	229.56
790.96	229.93
791.28	229.77
791.61	229.76
791.93	229.77
792.25	229.76
792.57	230.09
792.89	229.98
793.21	230.02
793.54	229.96
793.86	229.89
794.18	229.90
794.50	229.77
794.82	229.75
795.14	229.84
795.47	229.85
795.79	229.82
796.11	229.60
796.43	229.55
796.75	229.54
797.07	229.44
797.39	229.31
797.71	228.99
798.04	229.05
798.36	229.05
798.68	229.04
799.00	229.05
799.32	228.74
799.64	228.85
799.96	228.85
800.28	228.92
800.60	228.92
800.92	228.94
801.24	228.84
801.56	228.81
801.89	228.81
802.21	228.87
802.53	228.78
802.85	228.95
803.17	229.21
803.49	229.15
803.81	229.18
804.13	229.17
804.45	229.14
804.77	229.13
805.09	229.16
805.41	229.10
805.73	229.04
806.05	228.95
806.37	228.87
806.69	228.82
807.01	228.81
807.33	228.91
807.65	228.72
807.97	229.02
808.28	229.02
808.60	229.02
808.92	228.97
809.24	229.31
809.56	229.23
809.88	229.04
810.20	229.04
810.52	229.13
810.84	229.10
811.16	229.08
811.48	229.01
811.80	229.19
812.12	229.17
812.43	229.15
812.75	229.23
813.07	229.19
813.39	229.21
813.71	229.08
814.03	229.02
814.35	229.04
814.67	228.86
814.98	228.77
815.30	228.73
815.62	228.60
815.94	228.26
816.26	228.45
816.58	228.35
816.89	228.39
817.21	228.33
817.53	228.31
817.85	228.30
