SpectraSuite Data File
++++++++++++++++++++++++++++++++++++
Date: Wed Sep 04 17:44:41 EDT 2013
User: lab3
Dark Spectrum Present: Yes
Reference Spectrum Present: No
Number of Sampled Component Spectra: 1
Spectrometers: USB2E7196
Integration Time (usec): 170000 (USB2E7196)
Spectra Averaged: 20 (USB2E7196)
Boxcar Smoothing: 10 (USB2E7196)
Correct for Electrical Dark: No (USB2E7196)
Strobe/Lamp Enabled: No (USB2E7196)
Correct for Detector Non-linearity: No (USB2E7196)
Correct for Stray Light: No (USB2E7196)
Number of Pixels in Processed Spectrum: 2048
>>>>>Begin Processed Spectral Data<<<<<
339.09	0.00
339.48	211.50
339.86	213.65
340.24	215.20
340.63	217.15
341.01	225.35
341.39	219.95
341.78	221.65
342.16	223.05
342.54	223.25
342.93	211.91
343.31	222.58
343.69	223.15
344.07	223.65
344.46	224.09
344.84	224.47
345.22	224.48
345.60	224.79
345.99	224.91
346.37	225.04
346.75	225.12
347.13	225.17
347.52	225.30
347.90	225.52
348.28	225.51
348.66	225.60
349.05	225.51
349.43	225.65
349.81	225.66
350.19	225.75
350.57	225.77
350.96	225.92
351.34	226.04
351.72	226.17
352.10	226.22
352.48	226.29
352.87	226.33
353.25	226.37
353.63	226.28
354.01	226.38
354.39	226.48
354.77	226.56
355.15	226.66
355.54	226.60
355.92	226.45
356.30	226.50
356.68	226.90
357.06	227.00
357.44	226.97
357.82	227.06
358.20	227.49
358.58	227.55
358.97	227.60
359.35	227.79
359.73	228.00
360.11	228.07
360.49	228.22
360.87	228.30
361.25	228.37
361.63	228.64
362.01	228.69
362.39	228.66
362.77	228.70
363.15	228.76
363.53	228.86
363.91	229.00
364.29	228.99
364.67	228.54
365.05	228.59
365.43	228.69
365.81	228.82
366.19	228.62
366.57	228.79
366.95	228.83
367.33	228.72
367.71	228.66
368.09	228.81
368.47	228.80
368.85	228.83
369.23	228.94
369.61	228.83
369.99	228.96
370.37	229.00
370.75	229.35
371.13	229.26
371.51	229.21
371.89	229.22
372.27	229.33
372.65	229.34
373.03	229.30
373.41	229.22
373.78	229.12
374.16	228.85
374.54	228.68
374.92	228.68
375.30	228.61
375.68	228.51
376.06	228.47
376.44	228.34
376.82	228.28
377.19	228.21
377.57	228.16
377.95	228.00
378.33	228.02
378.71	227.59
379.09	227.60
379.47	227.57
379.84	227.51
380.22	227.32
380.60	227.25
380.98	227.20
381.36	227.11
381.73	227.01
382.11	227.07
382.49	227.00
382.87	226.79
383.25	226.71
383.62	227.16
384.00	226.99
384.38	226.96
384.76	227.05
385.13	227.17
385.51	227.12
385.89	227.00
386.27	226.98
386.64	227.05
387.02	226.89
387.40	226.84
387.78	226.75
388.15	226.73
388.53	226.60
388.91	226.54
389.29	226.52
389.66	226.54
390.04	226.44
390.42	226.46
390.79	226.52
391.17	226.57
391.55	226.03
391.92	226.01
392.30	226.10
392.68	225.96
393.05	225.85
393.43	225.92
393.81	225.95
394.18	225.82
394.56	225.77
394.94	225.93
395.31	225.89
395.69	226.03
396.06	226.21
396.44	226.40
396.82	226.40
397.19	226.72
397.57	226.72
397.95	226.90
398.32	226.89
398.70	227.00
399.07	227.09
399.45	227.20
399.82	227.27
400.20	227.28
400.58	227.36
400.95	227.37
401.33	227.51
401.70	228.00
402.08	228.19
402.45	228.29
402.83	228.55
403.20	228.77
403.58	228.89
403.95	229.08
404.33	229.32
404.71	229.54
405.08	229.95
405.46	230.15
405.83	230.44
406.21	230.75
406.58	231.02
406.96	231.35
407.33	231.70
407.70	232.10
408.08	232.76
408.45	233.22
408.83	233.71
409.20	234.07
409.58	234.24
409.95	234.75
410.33	235.30
410.70	235.63
411.08	236.22
411.45	236.79
411.82	237.28
412.20	237.97
412.57	238.90
412.95	239.21
413.32	240.15
413.69	240.87
414.07	241.74
414.44	242.63
414.82	243.60
415.19	244.77
415.56	245.86
415.94	246.84
416.31	248.18
416.68	249.51
417.06	251.03
417.43	252.57
417.81	254.26
418.18	256.00
418.55	257.86
418.93	259.85
419.30	261.94
419.67	264.20
420.04	266.36
420.42	268.60
420.79	271.58
421.16	274.27
421.54	277.30
421.91	280.20
422.28	283.22
422.66	286.40
423.03	289.73
423.40	293.02
423.77	296.53
424.15	300.11
424.52	303.81
424.89	307.88
425.26	311.63
425.64	315.23
426.01	319.27
426.38	323.61
426.75	327.93
427.13	332.35
427.50	336.90
427.87	341.70
428.24	346.52
428.61	350.86
428.99	355.95
429.36	361.19
429.73	366.40
430.10	371.82
430.47	377.32
430.85	382.60
431.22	388.57
431.59	395.07
431.96	401.02
432.33	407.53
432.70	413.95
433.08	421.69
433.45	428.98
433.82	436.14
434.19	444.08
434.56	452.03
434.93	459.50
435.30	467.05
435.68	475.33
436.05	483.53
436.42	491.59
436.79	499.03
437.16	507.16
437.53	515.77
437.90	524.26
438.27	532.64
438.64	541.37
439.01	549.42
439.38	556.41
439.75	563.46
440.13	571.43
440.50	578.86
440.87	584.81
441.24	591.15
441.61	598.11
441.98	602.93
442.35	608.55
442.72	614.39
443.09	620.06
443.46	623.50
443.83	625.76
444.20	627.77
444.57	630.53
444.94	631.70
445.31	632.78
445.68	634.07
446.05	634.17
446.42	633.04
446.79	631.71
447.16	630.14
447.53	628.94
447.90	625.24
448.27	621.62
448.64	616.77
449.01	613.11
449.37	606.99
449.74	601.18
450.11	594.53
450.48	587.05
450.85	579.40
451.22	572.74
451.59	566.32
451.96	560.33
452.33	552.41
452.70	545.12
453.07	536.77
453.43	527.83
453.80	519.67
454.17	511.87
454.54	504.39
454.91	496.51
455.28	488.66
455.65	481.51
456.02	474.92
456.38	468.85
456.75	461.28
457.12	454.92
457.49	448.88
457.86	442.65
458.23	437.72
458.59	432.03
458.96	426.33
459.33	421.35
459.70	416.22
460.07	412.19
460.43	407.64
460.80	403.51
461.17	399.95
461.54	396.16
461.91	392.41
462.27	388.70
462.64	385.49
463.01	382.02
463.38	378.87
463.74	374.93
464.11	372.04
464.48	369.47
464.85	366.73
465.21	364.56
465.58	362.36
465.95	359.55
466.32	357.39
466.68	355.23
467.05	353.02
467.42	350.94
467.78	348.69
468.15	346.69
468.52	345.11
468.88	342.86
469.25	341.02
469.62	339.63
469.98	338.01
470.35	336.59
470.72	335.15
471.08	333.55
471.45	332.29
471.82	331.02
472.18	329.59
472.55	328.62
472.92	327.35
473.28	326.19
473.65	325.03
474.02	324.03
474.38	323.20
474.75	322.53
475.11	321.73
475.48	321.13
475.85	320.44
476.21	319.80
476.58	319.41
476.94	319.04
477.31	318.50
477.67	318.12
478.04	317.78
478.41	317.65
478.77	317.95
479.14	317.73
479.50	317.67
479.87	317.80
480.23	317.85
480.60	317.91
480.96	317.98
481.33	318.44
481.69	318.64
482.06	318.94
482.42	319.26
482.79	319.66
483.15	320.12
483.52	320.79
483.88	321.27
484.25	321.84
484.61	322.49
484.98	323.22
485.34	324.19
485.71	325.13
486.07	326.11
486.44	326.64
486.80	327.72
487.17	328.84
487.53	330.16
487.90	331.57
488.26	333.20
488.62	334.88
488.99	336.36
489.35	338.19
489.72	340.08
490.08	342.00
490.44	343.87
490.81	346.07
491.17	348.21
491.54	350.72
491.90	353.34
492.26	356.07
492.63	358.88
492.99	361.65
493.36	364.77
493.72	368.08
494.08	371.55
494.45	375.21
494.81	378.96
495.17	382.75
495.54	386.80
495.90	391.01
496.26	395.39
496.63	399.94
496.99	404.61
497.35	409.50
497.72	414.77
498.08	420.22
498.44	425.81
498.80	431.76
499.17	437.69
499.53	443.76
499.89	450.28
500.26	456.96
500.62	464.01
500.98	471.20
501.34	478.45
501.71	486.01
502.07	493.69
502.43	501.60
502.79	509.97
503.16	518.57
503.52	527.45
503.88	536.58
504.24	546.13
504.60	556.04
504.97	566.10
505.33	576.30
505.69	587.16
506.05	598.01
506.41	609.10
506.78	620.58
507.14	632.53
507.50	644.50
507.86	656.68
508.22	669.31
508.59	682.17
508.95	695.70
509.31	709.53
509.67	723.50
510.03	737.71
510.39	752.14
510.75	766.81
511.12	781.61
511.48	797.00
511.84	812.40
512.20	827.88
512.56	844.01
512.92	860.44
513.28	876.99
513.64	893.95
514.00	911.06
514.37	928.23
514.73	945.91
515.09	963.83
515.45	982.01
515.81	1000.01
516.17	1018.45
516.53	1036.53
516.89	1054.58
517.25	1073.65
517.61	1093.49
517.97	1113.19
518.33	1132.89
518.69	1152.75
519.05	1172.69
519.41	1192.76
519.77	1213.30
520.13	1233.52
520.49	1253.52
520.85	1273.94
521.21	1294.51
521.57	1315.32
521.93	1335.66
522.29	1356.21
522.65	1376.31
523.01	1396.60
523.37	1416.74
523.73	1437.11
524.09	1456.97
524.45	1477.25
524.81	1497.37
525.17	1517.35
525.53	1537.34
525.89	1557.40
526.25	1577.54
526.61	1597.06
526.97	1617.30
527.33	1637.80
527.68	1658.77
528.04	1679.48
528.40	1699.45
528.76	1719.63
529.12	1739.30
529.48	1759.56
529.84	1778.80
530.20	1799.14
530.56	1819.25
530.91	1839.49
531.27	1858.86
531.63	1878.88
531.99	1898.69
532.35	1917.82
532.71	1937.29
533.07	1956.99
533.42	1975.88
533.78	1995.09
534.14	2014.44
534.50	2033.01
534.86	2051.30
535.21	2067.97
535.57	2085.48
535.93	2102.66
536.29	2119.65
536.65	2137.08
537.00	2153.98
537.36	2170.87
537.72	2186.39
538.08	2202.68
538.44	2218.20
538.79	2233.96
539.15	2249.43
539.51	2264.67
539.87	2279.21
540.22	2292.16
540.58	2306.08
540.94	2318.93
541.29	2330.74
541.65	2342.33
542.01	2354.15
542.37	2363.92
542.72	2374.28
543.08	2384.15
543.44	2394.83
543.79	2404.21
544.15	2413.19
544.51	2422.34
544.87	2431.23
545.22	2439.15
545.58	2446.21
545.94	2453.25
546.29	2458.99
546.65	2464.40
547.01	2469.33
547.36	2474.17
547.72	2479.28
548.07	2482.05
548.43	2486.54
548.79	2490.37
549.14	2493.74
549.50	2496.63
549.86	2500.11
550.21	2503.35
550.57	2506.30
550.92	2507.09
551.28	2507.64
551.64	2509.35
551.99	2510.60
552.35	2511.42
552.70	2513.06
553.06	2514.16
553.41	2514.40
553.77	2515.68
554.13	2516.72
554.48	2517.70
554.84	2518.59
555.19	2519.17
555.55	2520.21
555.90	2519.00
556.26	2517.95
556.61	2516.33
556.97	2513.70
557.32	2512.81
557.68	2511.21
558.03	2509.12
558.39	2507.37
558.74	2506.25
559.10	2502.79
559.45	2498.87
559.81	2494.04
560.16	2488.65
560.52	2483.51
560.87	2478.90
561.23	2473.24
561.58	2467.51
561.94	2460.26
562.29	2452.87
562.64	2445.69
563.00	2437.64
563.35	2430.98
563.71	2424.26
564.06	2417.58
564.42	2410.97
564.77	2403.76
565.12	2396.03
565.48	2388.06
565.83	2380.52
566.19	2372.41
566.54	2364.49
566.89	2356.23
567.25	2348.85
567.60	2341.75
567.96	2334.12
568.31	2326.28
568.66	2317.85
569.02	2308.98
569.37	2300.96
569.72	2293.30
570.08	2284.43
570.43	2275.07
570.78	2266.21
571.14	2256.37
571.49	2246.76
571.84	2237.69
572.20	2227.12
572.55	2217.04
572.90	2206.58
573.26	2196.26
573.61	2185.62
573.96	2175.08
574.31	2163.47
574.67	2151.93
575.02	2139.67
575.37	2127.29
575.72	2114.52
576.08	2102.96
576.43	2090.89
576.78	2078.27
577.13	2065.11
577.49	2052.48
577.84	2041.22
578.19	2029.28
578.54	2017.60
578.90	2005.71
579.25	1993.84
579.60	1981.80
579.95	1969.68
580.30	1957.27
580.66	1944.22
581.01	1931.04
581.36	1917.23
581.71	1905.15
582.06	1892.91
582.42	1880.73
582.77	1868.74
583.12	1857.09
583.47	1845.10
583.82	1833.43
584.17	1821.94
584.53	1810.56
584.88	1797.93
585.23	1785.12
585.58	1771.80
585.93	1758.96
586.28	1746.66
586.63	1733.26
586.98	1719.61
587.34	1706.83
587.69	1694.22
588.04	1682.23
588.39	1670.83
588.74	1659.28
589.09	1647.74
589.44	1635.40
589.79	1623.75
590.14	1612.12
590.49	1600.62
590.84	1588.81
591.19	1577.31
591.54	1565.67
591.89	1553.92
592.25	1544.48
592.60	1533.51
592.95	1522.79
593.30	1511.40
593.65	1499.58
594.00	1487.95
594.35	1478.79
594.70	1467.53
595.05	1456.59
595.40	1445.02
595.75	1433.38
596.10	1422.33
596.45	1411.49
596.80	1400.91
597.15	1390.08
597.50	1379.04
597.85	1368.31
598.19	1357.32
598.54	1346.47
598.89	1335.60
599.24	1325.51
599.59	1314.33
599.94	1304.09
600.29	1294.20
600.64	1284.48
600.99	1274.32
601.34	1265.07
601.69	1254.30
602.04	1245.00
602.39	1235.72
602.74	1227.25
603.08	1218.34
603.43	1209.80
603.78	1200.43
604.13	1191.57
604.48	1182.51
604.83	1173.27
605.18	1163.74
605.53	1154.76
605.87	1145.90
606.22	1137.69
606.57	1128.92
606.92	1120.07
607.27	1111.48
607.62	1103.01
607.96	1094.91
608.31	1087.36
608.66	1079.58
609.01	1071.48
609.36	1063.22
609.70	1055.25
610.05	1046.94
610.40	1039.29
610.75	1030.98
611.10	1023.13
611.44	1014.79
611.79	1006.88
612.14	999.34
612.49	991.88
612.83	984.70
613.18	977.20
613.53	970.07
613.88	962.52
614.22	955.07
614.57	947.58
614.92	940.04
615.27	932.73
615.61	925.43
615.96	918.11
616.31	910.91
616.65	904.20
617.00	897.13
617.35	890.25
617.70	883.13
618.04	876.37
618.39	869.87
618.74	863.85
619.08	857.37
619.43	850.70
619.78	844.15
620.12	837.42
620.47	830.79
620.82	823.93
621.16	817.48
621.51	811.52
621.85	805.58
622.20	799.37
622.55	793.30
622.89	787.20
623.24	781.19
623.59	775.30
623.93	769.09
624.28	763.41
624.62	758.04
624.97	752.52
625.32	747.08
625.66	741.19
626.01	735.46
626.35	730.17
626.70	725.18
627.04	720.16
627.39	714.90
627.73	710.05
628.08	705.19
628.43	700.02
628.77	694.88
629.12	689.87
629.46	685.33
629.81	680.80
630.15	676.21
630.50	671.65
630.84	666.99
631.19	662.70
631.53	658.18
631.88	653.22
632.22	648.64
632.57	644.24
632.91	640.03
633.26	635.96
633.60	631.63
633.95	626.98
634.29	622.35
634.64	618.25
634.98	613.84
635.32	609.63
635.67	605.95
636.01	602.02
636.36	597.89
636.70	593.88
637.05	589.86
637.39	585.99
637.73	582.11
638.08	578.31
638.42	574.22
638.77	570.13
639.11	566.00
639.45	561.87
639.80	557.84
640.14	553.87
640.49	549.98
640.83	546.39
641.17	542.97
641.52	539.42
641.86	535.86
642.20	532.76
642.55	529.33
642.89	525.91
643.23	522.48
643.58	519.52
643.92	516.13
644.26	512.94
644.61	509.84
644.95	506.66
645.29	503.48
645.64	500.54
645.98	497.64
646.32	494.90
646.66	492.09
647.01	489.29
647.35	486.64
647.69	483.72
648.04	481.01
648.38	478.28
648.72	475.70
649.06	472.93
649.41	470.03
649.75	467.14
650.09	464.34
650.43	461.73
650.78	458.94
651.12	456.28
651.46	453.61
651.80	450.90
652.14	448.37
652.49	445.97
652.83	443.51
653.17	441.11
653.51	438.49
653.85	436.16
654.20	433.80
654.54	431.34
654.88	428.98
655.22	426.85
655.56	424.57
655.90	422.30
656.25	420.06
656.59	417.84
656.93	415.78
657.27	413.87
657.61	411.49
657.95	409.47
658.29	407.34
658.64	405.40
658.98	403.36
659.32	401.19
659.66	399.10
660.00	397.23
660.34	395.23
660.68	393.41
661.02	391.50
661.36	389.64
661.70	387.79
662.05	386.07
662.39	384.10
662.73	382.42
663.07	380.99
663.41	379.24
663.75	377.47
664.09	375.81
664.43	373.93
664.77	372.46
665.11	370.72
665.45	369.24
665.79	367.71
666.13	366.05
666.47	364.51
666.81	362.96
667.15	361.15
667.49	359.80
667.83	358.55
668.17	357.15
668.51	355.80
668.85	354.57
669.19	353.40
669.53	352.00
669.87	350.61
670.21	349.08
670.55	347.86
670.89	346.82
671.23	345.47
671.57	344.22
671.91	342.93
672.25	341.63
672.58	340.42
672.92	338.95
673.26	337.76
673.60	336.59
673.94	335.46
674.28	334.51
674.62	333.33
674.96	332.00
675.30	330.84
675.64	329.66
675.97	328.45
676.31	327.06
676.65	325.85
676.99	324.87
677.33	323.69
677.67	322.63
678.01	321.34
678.34	320.37
678.68	319.44
679.02	318.38
679.36	317.44
679.70	316.42
680.04	315.58
680.37	314.69
680.71	313.79
681.05	312.97
681.39	312.06
681.73	311.08
682.06	310.23
682.40	309.39
682.74	308.59
683.08	307.93
683.42	307.10
683.75	306.39
684.09	305.43
684.43	304.71
684.77	303.90
685.10	303.18
685.44	302.36
685.78	301.53
686.12	300.78
686.45	300.03
686.79	299.23
687.13	298.49
687.46	297.74
687.80	297.08
688.14	296.19
688.48	295.44
688.81	294.83
689.15	294.23
689.49	293.55
689.82	292.89
690.16	291.99
690.50	291.37
690.83	290.70
691.17	290.03
691.51	289.36
691.84	288.72
692.18	288.01
692.52	287.41
692.85	286.89
693.19	286.47
693.52	285.88
693.86	285.26
694.20	284.61
694.53	284.07
694.87	283.40
695.21	282.82
695.54	282.29
695.88	281.54
696.21	280.86
696.55	280.19
696.88	279.53
697.22	279.00
697.56	278.54
697.89	277.81
698.23	277.37
698.56	276.84
698.90	276.46
699.23	275.99
699.57	275.49
699.90	274.93
700.24	274.28
700.58	273.79
700.91	273.47
701.25	273.40
701.58	273.26
701.92	272.98
702.25	272.54
702.59	271.98
702.92	271.68
703.26	271.29
703.59	270.96
703.93	270.98
704.26	270.61
704.60	270.11
704.93	269.76
705.26	269.23
705.60	268.85
705.93	268.28
706.27	268.00
706.60	267.70
706.94	267.53
707.27	267.15
707.61	266.84
707.94	266.39
708.27	265.70
708.61	264.97
708.94	264.50
709.28	264.14
709.61	263.84
709.94	263.42
710.28	263.04
710.61	262.63
710.95	261.84
711.28	261.75
711.61	261.39
711.95	261.20
712.28	260.80
712.61	260.52
712.95	260.45
713.28	260.36
713.61	260.03
713.95	259.57
714.28	259.27
714.61	258.93
714.95	258.51
715.28	258.07
715.61	257.73
715.95	257.44
716.28	257.14
716.61	256.88
716.95	256.58
717.28	256.37
717.61	256.11
717.94	255.79
718.28	255.21
718.61	255.03
718.94	254.66
719.27	254.44
719.61	254.16
719.94	253.79
720.27	253.21
720.60	252.87
720.94	252.60
721.27	252.32
721.60	252.07
721.93	251.87
722.27	251.85
722.60	251.74
722.93	251.48
723.26	251.32
723.59	251.06
723.93	250.94
724.26	250.70
724.59	250.49
724.92	250.33
725.25	250.22
725.59	249.98
725.92	249.83
726.25	249.66
726.58	249.48
726.91	249.31
727.24	249.16
727.57	248.95
727.91	248.64
728.24	248.56
728.57	248.36
728.90	248.19
729.23	247.82
729.56	247.84
729.89	247.69
730.22	247.49
730.55	247.30
730.89	247.11
731.22	246.88
731.55	246.66
731.88	246.50
732.21	246.26
732.54	245.98
732.87	245.84
733.20	245.69
733.53	245.52
733.86	245.36
734.19	245.14
734.52	245.08
734.85	245.25
735.18	244.98
735.51	244.95
735.84	244.88
736.17	244.91
736.50	244.47
736.83	244.90
737.16	244.74
737.49	244.59
737.82	244.40
738.15	244.30
738.48	244.17
738.81	244.03
739.14	243.79
739.47	243.65
739.80	243.45
740.13	243.31
740.46	243.10
740.79	242.83
741.12	242.71
741.45	242.49
741.78	242.08
742.11	242.10
742.44	241.81
742.77	241.71
743.10	241.41
743.43	241.23
743.75	240.48
744.08	240.94
744.41	240.79
744.74	240.64
745.07	240.43
745.40	240.40
745.73	240.45
746.06	240.43
746.39	240.35
746.71	240.16
747.04	239.96
747.37	239.79
747.70	239.75
748.03	239.69
748.36	239.64
748.68	239.45
749.01	239.14
749.34	238.97
749.67	238.80
750.00	238.80
750.33	239.09
750.65	239.05
750.98	238.35
751.31	238.28
751.64	238.20
751.97	238.38
752.29	238.18
752.62	237.91
752.95	237.73
753.28	237.58
753.60	237.52
753.93	237.57
754.26	237.56
754.59	237.35
754.91	237.08
755.24	236.93
755.57	236.99
755.90	236.87
756.22	236.77
756.55	236.66
756.88	236.45
757.20	236.03
757.53	235.75
757.86	235.62
758.19	235.52
758.51	235.38
758.84	235.00
759.17	234.88
759.49	234.83
759.82	234.95
760.15	234.90
760.47	234.78
760.80	234.53
761.13	234.56
761.45	234.51
761.78	234.48
762.11	234.41
762.43	234.10
762.76	234.02
763.08	234.00
763.41	233.92
763.74	233.86
764.06	233.75
764.39	233.75
764.71	233.68
765.04	233.55
765.37	233.37
765.69	233.27
766.02	233.23
766.34	233.11
766.67	232.85
767.00	232.94
767.32	233.14
767.65	233.45
767.97	233.22
768.30	233.12
768.62	233.06
768.95	232.96
769.27	233.00
769.60	233.07
769.92	232.90
770.25	232.78
770.57	232.72
770.90	232.67
771.22	232.56
771.55	232.54
771.87	232.49
772.20	232.50
772.52	232.89
772.85	233.37
773.17	233.35
773.50	233.22
773.82	233.09
774.15	232.78
774.47	232.32
774.80	232.24
775.12	232.25
775.45	232.15
775.77	232.14
776.09	232.14
776.42	232.09
776.74	232.21
777.07	232.15
777.39	232.02
777.72	231.92
778.04	231.98
778.36	231.93
778.69	231.95
779.01	231.90
779.33	231.45
779.66	230.88
779.98	230.77
780.31	230.85
780.63	230.98
780.95	231.01
781.28	231.05
781.60	231.06
781.92	230.99
782.25	230.99
782.57	230.93
782.89	230.88
783.22	230.79
783.54	230.69
783.86	230.72
784.19	230.72
784.51	230.83
784.83	230.70
785.16	230.65
785.48	230.55
785.80	230.57
786.12	230.55
786.45	230.52
786.77	230.52
787.09	230.52
787.42	230.25
787.74	230.36
788.06	230.30
788.38	230.23
788.71	230.18
789.03	230.18
789.35	230.21
789.67	230.10
789.99	230.14
790.32	230.06
790.64	230.05
790.96	230.43
791.28	230.29
791.61	230.28
791.93	230.25
792.25	230.21
792.57	230.54
792.89	230.48
793.21	230.45
793.54	230.39
793.86	230.18
794.18	230.24
794.50	230.02
794.82	230.02
795.14	230.02
795.47	230.10
795.79	230.12
796.11	230.00
796.43	229.94
796.75	229.93
797.07	229.98
797.39	229.94
797.71	229.56
798.04	229.57
798.36	229.57
798.68	229.57
799.00	229.56
799.32	229.29
799.64	229.34
799.96	229.41
800.28	229.48
800.60	229.50
800.92	229.49
801.24	229.47
801.56	229.46
801.89	229.43
802.21	229.43
802.53	229.31
802.85	229.41
803.17	229.65
803.49	229.48
803.81	229.37
804.13	229.25
804.45	229.13
804.77	229.15
805.09	229.10
805.41	229.05
805.73	228.91
806.05	228.77
806.37	228.70
806.69	228.56
807.01	228.45
807.33	228.50
807.65	228.23
807.97	228.45
808.28	228.43
808.60	228.38
808.92	228.23
809.24	228.50
809.56	228.36
809.88	228.13
810.20	228.12
810.52	228.23
810.84	228.22
811.16	228.20
811.48	228.14
811.80	228.32
812.12	228.25
812.43	228.40
812.75	228.41
813.07	228.35
813.39	228.37
813.71	228.35
814.03	228.31
814.35	228.39
814.67	228.19
814.98	228.06
815.30	228.07
815.62	227.98
815.94	227.60
816.26	227.80
816.58	227.69
816.89	227.71
817.21	227.53
817.53	227.54
817.85	227.59
