SpectraSuite Data File
++++++++++++++++++++++++++++++++++++
Date: Wed Sep 04 17:44:03 EDT 2013
User: lab3
Dark Spectrum Present: Yes
Reference Spectrum Present: No
Number of Sampled Component Spectra: 1
Spectrometers: USB2E7196
Integration Time (usec): 170000 (USB2E7196)
Spectra Averaged: 20 (USB2E7196)
Boxcar Smoothing: 10 (USB2E7196)
Correct for Electrical Dark: No (USB2E7196)
Strobe/Lamp Enabled: No (USB2E7196)
Correct for Detector Non-linearity: No (USB2E7196)
Correct for Stray Light: No (USB2E7196)
Number of Pixels in Processed Spectrum: 2048
>>>>>Begin Processed Spectral Data<<<<<
339.09	0.00
339.48	212.00
339.86	214.25
340.24	215.90
340.63	217.75
341.01	226.30
341.39	219.30
341.78	222.00
342.16	224.95
342.54	222.65
342.93	212.17
343.31	222.89
343.69	223.44
344.07	223.88
344.46	224.41
344.84	224.75
345.22	224.70
345.60	225.01
345.99	225.21
346.37	225.23
346.75	225.29
347.13	225.41
347.52	225.41
347.90	225.64
348.28	225.70
348.66	225.73
349.05	225.61
349.43	225.73
349.81	225.75
350.19	225.78
350.57	225.84
350.96	225.95
351.34	226.04
351.72	226.14
352.10	226.27
352.48	226.17
352.87	226.28
353.25	226.30
353.63	226.32
354.01	226.38
354.39	226.47
354.77	226.57
355.15	226.76
355.54	226.85
355.92	226.65
356.30	226.80
356.68	227.20
357.06	227.30
357.44	227.20
357.82	227.34
358.20	227.81
358.58	227.86
358.97	227.93
359.35	228.06
359.73	228.20
360.11	228.25
360.49	228.35
360.87	228.34
361.25	228.49
361.63	228.69
362.01	228.72
362.39	228.74
362.77	228.82
363.15	228.81
363.53	228.83
363.91	229.02
364.29	229.02
364.67	228.55
365.05	228.56
365.43	228.73
365.81	228.76
366.19	228.61
366.57	228.83
366.95	228.83
367.33	228.70
367.71	228.75
368.09	228.75
368.47	228.87
368.85	228.89
369.23	229.00
369.61	228.89
369.99	229.05
370.37	229.17
370.75	229.41
371.13	229.27
371.51	229.26
371.89	229.15
372.27	229.17
372.65	229.23
373.03	229.24
373.41	229.16
373.78	229.10
374.16	228.85
374.54	228.64
374.92	228.55
375.30	228.56
375.68	228.36
376.06	228.43
376.44	228.29
376.82	228.28
377.19	228.14
377.57	228.01
377.95	227.80
378.33	227.66
378.71	227.31
379.09	227.28
379.47	227.28
379.84	227.20
380.22	227.03
380.60	226.93
380.98	226.79
381.36	226.75
381.73	226.64
382.11	226.67
382.49	226.69
382.87	226.57
383.25	226.49
383.62	227.04
384.00	226.87
384.38	226.80
384.76	226.89
385.13	227.00
385.51	226.94
385.89	226.83
386.27	226.78
386.64	226.84
387.02	226.80
387.40	226.69
387.78	226.72
388.15	226.69
388.53	226.61
388.91	226.64
389.29	226.63
389.66	226.67
390.04	226.63
390.42	226.68
390.79	226.63
391.17	226.64
391.55	226.13
391.92	226.17
392.30	226.22
392.68	226.11
393.05	226.11
393.43	226.19
393.81	226.23
394.18	226.23
394.56	226.23
394.94	226.42
395.31	226.41
395.69	226.53
396.06	226.75
396.44	226.81
396.82	226.85
397.19	227.01
397.57	227.01
397.95	227.14
398.32	227.07
398.70	227.32
399.07	227.42
399.45	227.45
399.82	227.45
400.20	227.49
400.58	227.50
400.95	227.35
401.33	227.60
401.70	228.07
402.08	228.25
402.45	228.41
402.83	228.57
403.20	228.78
403.58	228.85
403.95	229.05
404.33	229.26
404.71	229.47
405.08	229.85
405.46	230.04
405.83	230.21
406.21	230.50
406.58	230.74
406.96	231.01
407.33	231.33
407.70	231.71
408.08	232.46
408.45	232.90
408.83	233.45
409.20	233.70
409.58	233.82
409.95	234.22
410.33	234.74
410.70	235.07
411.08	235.70
411.45	236.30
411.82	236.79
412.20	237.60
412.57	238.51
412.95	238.95
413.32	239.82
413.69	240.62
414.07	241.46
414.44	242.40
414.82	243.46
415.19	244.62
415.56	245.77
415.94	246.70
416.31	248.13
416.68	249.55
417.06	251.15
417.43	252.70
417.81	254.46
418.18	256.12
418.55	258.02
418.93	259.96
419.30	261.96
419.67	264.12
420.04	266.26
420.42	268.50
420.79	271.52
421.16	274.15
421.54	277.13
421.91	280.05
422.28	283.06
422.66	286.10
423.03	289.50
423.40	292.74
423.77	296.18
424.15	299.62
424.52	303.15
424.89	307.18
425.26	311.00
425.64	314.62
426.01	318.63
426.38	322.82
426.75	327.11
427.13	331.63
427.50	336.17
427.87	340.93
428.24	345.68
428.61	349.86
428.99	354.92
429.36	360.15
429.73	365.46
430.10	370.72
430.47	376.27
430.85	381.65
431.22	387.59
431.59	394.16
431.96	400.20
432.33	406.95
432.70	413.34
433.08	420.98
433.45	428.07
433.82	435.28
434.19	443.21
434.56	451.10
434.93	458.40
435.30	465.90
435.68	474.15
436.05	482.16
436.42	490.32
436.79	497.70
437.16	505.74
437.53	514.30
437.90	522.77
438.27	531.22
438.64	539.76
439.01	547.72
439.38	554.65
439.75	561.66
440.13	569.40
440.50	576.70
440.87	582.70
441.24	589.04
441.61	595.72
441.98	600.65
442.35	606.19
442.72	612.04
443.09	617.74
443.46	621.10
443.83	623.34
444.20	625.23
444.57	627.98
444.94	629.06
445.31	630.00
445.68	631.25
446.05	631.20
446.42	630.03
446.79	628.79
447.16	627.25
447.53	625.94
447.90	622.30
448.27	618.77
448.64	613.97
449.01	610.25
449.37	604.31
449.74	598.46
450.11	591.99
450.48	584.61
450.85	576.81
451.22	570.11
451.59	563.91
451.96	557.83
452.33	549.95
452.70	542.84
453.07	534.51
453.43	525.80
453.80	517.80
454.17	510.02
454.54	502.56
454.91	494.61
455.28	486.90
455.65	479.78
456.02	473.24
456.38	467.08
456.75	459.77
457.12	453.61
457.49	447.61
457.86	441.36
458.23	436.36
458.59	430.90
458.96	425.33
459.33	420.43
459.70	415.47
460.07	411.56
460.43	407.10
460.80	403.01
461.17	399.42
461.54	395.55
461.91	391.86
462.27	388.17
462.64	385.06
463.01	381.68
463.38	378.47
463.74	374.55
464.11	371.66
464.48	369.02
464.85	366.19
465.21	364.17
465.58	361.96
465.95	359.23
466.32	357.09
466.68	355.00
467.05	352.82
467.42	350.75
467.78	348.50
468.15	346.43
468.52	344.95
468.88	342.71
469.25	340.82
469.62	339.44
469.98	337.87
470.35	336.40
470.72	334.89
471.08	333.28
471.45	332.01
471.82	330.75
472.18	329.34
472.55	328.37
472.92	326.93
473.28	325.82
473.65	324.73
474.02	323.68
474.38	322.80
474.75	321.93
475.11	321.01
475.48	320.41
475.85	319.74
476.21	319.04
476.58	318.63
476.94	318.30
477.31	317.85
477.67	317.40
478.04	317.05
478.41	316.90
478.77	317.19
479.14	317.00
479.50	316.93
479.87	316.99
480.23	317.03
480.60	317.07
480.96	317.12
481.33	317.49
481.69	317.65
482.06	317.87
482.42	318.23
482.79	318.62
483.15	319.05
483.52	319.74
483.88	320.15
484.25	320.67
484.61	321.28
484.98	321.83
485.34	322.78
485.71	323.73
486.07	324.67
486.44	325.16
486.80	326.25
487.17	327.40
487.53	328.70
487.90	329.98
488.26	331.61
488.62	333.32
488.99	334.80
489.35	336.64
489.72	338.46
490.08	340.37
490.44	342.31
490.81	344.49
491.17	346.63
491.54	349.21
491.90	351.76
492.26	354.37
492.63	357.27
492.99	360.03
493.36	363.15
493.72	366.52
494.08	369.99
494.45	373.61
494.81	377.32
495.17	381.33
495.54	385.50
495.90	389.65
496.26	393.91
496.63	398.46
496.99	403.10
497.35	408.10
497.72	413.30
498.08	418.71
498.44	424.35
498.80	430.25
499.17	436.17
499.53	442.35
499.89	449.01
500.26	455.66
500.62	462.56
500.98	469.94
501.34	477.26
501.71	484.84
502.07	492.36
502.43	500.38
502.79	508.59
503.16	517.17
503.52	526.03
503.88	535.10
504.24	544.60
504.60	554.38
504.97	564.43
505.33	574.69
505.69	585.63
506.05	596.53
506.41	607.51
506.78	618.95
507.14	630.79
507.50	642.67
507.86	655.02
508.22	667.67
508.59	680.29
508.95	693.52
509.31	707.41
509.67	721.63
510.03	735.37
510.39	749.70
510.75	764.31
511.12	779.18
511.48	794.46
511.84	809.84
512.20	825.29
512.56	841.35
512.92	857.77
513.28	873.97
513.64	890.63
514.00	907.82
514.37	925.24
514.73	942.83
515.09	960.75
515.45	978.57
515.81	996.55
516.17	1014.81
516.53	1032.85
516.89	1051.04
517.25	1069.70
517.61	1089.87
517.97	1109.28
518.33	1128.89
518.69	1148.45
519.05	1168.30
519.41	1188.21
519.77	1208.69
520.13	1228.80
520.49	1248.75
520.85	1269.21
521.21	1289.66
521.57	1309.99
521.93	1329.75
522.29	1350.21
522.65	1369.98
523.01	1390.40
523.37	1410.20
523.73	1430.51
524.09	1450.49
524.45	1470.43
524.81	1490.55
525.17	1510.18
525.53	1530.05
525.89	1549.97
526.25	1570.03
526.61	1589.65
526.97	1610.03
527.33	1630.40
527.68	1651.16
528.04	1671.33
528.40	1691.51
528.76	1711.50
529.12	1731.07
529.48	1751.06
529.84	1770.35
530.20	1790.52
530.56	1810.22
530.91	1830.30
531.27	1849.60
531.63	1869.30
531.99	1888.79
532.35	1907.61
532.71	1926.70
533.07	1946.38
533.42	1965.16
533.78	1984.02
534.14	2003.02
534.50	2020.96
534.86	2039.25
535.21	2055.47
535.57	2073.06
535.93	2089.46
536.29	2106.25
536.65	2123.43
537.00	2139.99
537.36	2156.26
537.72	2171.77
538.08	2187.70
538.44	2203.28
538.79	2218.70
539.15	2234.03
539.51	2248.65
539.87	2262.91
540.22	2275.89
540.58	2289.34
540.94	2301.74
541.29	2313.45
541.65	2325.09
542.01	2336.70
542.37	2346.05
542.72	2356.21
543.08	2365.77
543.44	2376.52
543.79	2385.58
544.15	2394.53
544.51	2403.68
544.87	2412.56
545.22	2420.23
545.58	2427.22
545.94	2433.44
546.29	2439.18
546.65	2444.54
547.01	2449.75
547.36	2454.53
547.72	2459.32
548.07	2462.27
548.43	2466.34
548.79	2470.46
549.14	2473.64
549.50	2476.49
549.86	2479.91
550.21	2483.25
550.57	2485.98
550.92	2486.53
551.28	2487.48
551.64	2488.79
551.99	2489.95
552.35	2490.55
552.70	2492.39
553.06	2493.43
553.41	2494.23
553.77	2495.21
554.13	2496.08
554.48	2496.92
554.84	2497.59
555.19	2498.30
555.55	2499.67
555.90	2498.85
556.26	2497.30
556.61	2495.21
556.97	2492.54
557.32	2491.34
557.68	2489.55
558.03	2487.63
558.39	2485.73
558.74	2484.20
559.10	2480.80
559.45	2476.71
559.81	2471.90
560.16	2466.10
560.52	2460.74
560.87	2455.95
561.23	2450.12
561.58	2444.09
561.94	2436.98
562.29	2429.41
562.64	2421.99
563.00	2413.19
563.35	2406.00
563.71	2399.13
564.06	2392.92
564.42	2386.62
564.77	2379.34
565.12	2371.92
565.48	2364.13
565.83	2356.37
566.19	2348.45
566.54	2340.64
566.89	2332.74
567.25	2325.29
567.60	2318.32
567.96	2310.57
568.31	2302.62
568.66	2293.81
569.02	2285.17
569.37	2277.28
569.72	2270.02
570.08	2260.82
570.43	2251.53
570.78	2242.96
571.14	2233.71
571.49	2223.40
571.84	2214.02
572.20	2203.62
572.55	2193.50
572.90	2182.93
573.26	2173.22
573.61	2162.20
573.96	2151.17
574.31	2139.46
574.67	2127.93
575.02	2115.43
575.37	2103.49
575.72	2090.77
576.08	2079.68
576.43	2067.19
576.78	2054.35
577.13	2041.21
577.49	2029.28
577.84	2017.79
578.19	2006.16
578.54	1994.16
578.90	1982.85
579.25	1970.93
579.60	1959.05
579.95	1946.62
580.30	1934.08
580.66	1921.04
581.01	1908.21
581.36	1895.08
581.71	1883.24
582.06	1871.10
582.42	1859.31
582.77	1847.20
583.12	1835.72
583.47	1824.05
583.82	1812.73
584.17	1801.35
584.53	1789.85
584.88	1777.33
585.23	1765.44
585.58	1751.89
585.93	1739.14
586.28	1726.45
586.63	1712.93
586.98	1699.47
587.34	1686.91
587.69	1674.26
588.04	1662.24
588.39	1650.95
588.74	1639.51
589.09	1628.00
589.44	1615.90
589.79	1604.26
590.14	1592.81
590.49	1581.35
590.84	1569.73
591.19	1558.35
591.54	1546.65
591.89	1535.17
592.25	1525.79
592.60	1514.65
592.95	1503.87
593.30	1492.89
593.65	1481.57
594.00	1470.61
594.35	1461.45
594.70	1450.48
595.05	1439.88
595.40	1428.55
595.75	1417.10
596.10	1406.35
596.45	1395.37
596.80	1385.20
597.15	1374.59
597.50	1363.71
597.85	1353.11
598.19	1342.32
598.54	1331.34
598.89	1320.93
599.24	1311.21
599.59	1300.04
599.94	1289.74
600.29	1280.07
600.64	1270.46
600.99	1260.52
601.34	1251.48
601.69	1240.77
602.04	1231.66
602.39	1222.43
602.74	1213.89
603.08	1205.14
603.43	1196.54
603.78	1187.60
604.13	1178.62
604.48	1169.27
604.83	1160.17
605.18	1150.80
605.53	1141.83
605.87	1133.47
606.22	1125.41
606.57	1116.56
606.92	1107.80
607.27	1099.50
607.62	1091.48
607.96	1083.28
608.31	1075.88
608.66	1067.75
609.01	1059.80
609.36	1051.61
609.70	1043.83
610.05	1035.64
610.40	1027.77
610.75	1019.58
611.10	1011.74
611.44	1003.68
611.79	996.36
612.14	988.99
612.49	981.87
612.83	974.78
613.18	967.31
613.53	960.00
613.88	952.63
614.22	945.28
614.57	937.90
614.92	930.44
615.27	923.49
615.61	916.08
615.96	909.08
616.31	902.23
616.65	895.67
617.00	888.90
617.35	882.21
617.70	875.54
618.04	869.03
618.39	862.41
618.74	856.20
619.08	849.65
619.43	843.06
619.78	836.47
620.12	829.65
620.47	823.39
620.82	816.60
621.16	810.30
621.51	804.60
621.85	798.81
622.20	792.54
622.55	786.30
622.89	780.47
623.24	774.53
623.59	768.42
623.93	762.51
624.28	756.75
624.62	751.44
624.97	745.93
625.32	740.49
625.66	735.04
626.01	729.58
626.35	724.54
626.70	719.50
627.04	714.61
627.39	709.59
627.73	704.60
628.08	699.96
628.43	694.84
628.77	689.63
629.12	684.68
629.46	680.44
629.81	676.09
630.15	671.45
630.50	667.00
630.84	662.46
631.19	657.92
631.53	653.40
631.88	648.48
632.22	643.96
632.57	639.77
632.91	635.34
633.26	631.15
633.60	626.75
633.95	622.38
634.29	617.91
634.64	613.71
634.98	609.19
635.32	605.00
635.67	601.36
636.01	597.48
636.36	593.37
636.70	589.32
637.05	585.31
637.39	581.54
637.73	577.68
638.08	574.17
638.42	570.42
638.77	566.59
639.11	562.56
639.45	558.58
639.80	554.40
640.14	550.79
640.49	546.89
640.83	543.31
641.17	539.85
641.52	536.33
641.86	533.00
642.20	530.14
642.55	526.75
642.89	523.31
643.23	519.99
643.58	517.12
643.92	513.63
644.26	510.38
644.61	507.29
644.95	504.08
645.29	500.85
645.64	497.83
645.98	494.88
646.32	492.28
646.66	489.41
647.01	486.70
647.35	484.01
647.69	481.27
648.04	478.62
648.38	476.00
648.72	473.37
649.06	470.59
649.41	467.55
649.75	464.78
650.09	461.97
650.43	459.25
650.78	456.40
651.12	453.86
651.46	451.30
651.80	448.77
652.14	446.25
652.49	443.85
652.83	441.39
653.17	438.91
653.51	436.34
653.85	434.15
654.20	431.79
654.54	429.26
654.88	426.99
655.22	424.84
655.56	422.57
655.90	420.36
656.25	418.17
656.59	416.07
656.93	414.05
657.27	412.14
657.61	410.00
657.95	407.86
658.29	405.79
658.64	403.86
658.98	401.68
659.32	399.60
659.66	397.47
660.00	395.51
660.34	393.60
660.68	391.66
661.02	389.64
661.36	387.67
661.70	385.79
662.05	383.92
662.39	382.08
662.73	380.37
663.07	378.80
663.41	377.15
663.75	375.44
664.09	373.60
664.43	371.75
664.77	370.18
665.11	368.61
665.45	367.06
665.79	365.39
666.13	363.85
666.47	362.37
666.81	360.90
667.15	359.29
667.49	357.85
667.83	356.67
668.17	355.36
668.51	354.10
668.85	352.91
669.19	351.87
669.53	350.32
669.87	348.78
670.21	347.38
670.55	346.05
670.89	345.05
671.23	343.94
671.57	342.61
671.91	341.42
672.25	340.10
672.58	338.97
672.92	337.61
673.26	336.42
673.60	335.23
673.94	334.02
674.28	332.96
674.62	331.93
674.96	330.68
675.30	329.48
675.64	328.35
675.97	327.17
676.31	325.79
676.65	324.66
676.99	323.84
677.33	322.64
677.67	321.59
678.01	320.24
678.34	319.10
678.68	318.29
679.02	317.26
679.36	316.40
679.70	315.42
680.04	314.51
680.37	313.64
680.71	312.73
681.05	311.93
681.39	311.00
681.73	310.00
682.06	309.10
682.40	308.31
682.74	307.60
683.08	306.93
683.42	306.06
683.75	305.47
684.09	304.51
684.43	303.80
684.77	303.03
685.10	302.31
685.44	301.69
685.78	300.77
686.12	300.00
686.45	299.17
686.79	298.29
687.13	297.70
687.46	296.89
687.80	296.26
688.14	295.42
688.48	294.74
688.81	294.05
689.15	293.45
689.49	292.71
689.82	291.90
690.16	291.06
690.50	290.48
690.83	289.77
691.17	289.05
691.51	288.38
691.84	287.79
692.18	287.11
692.52	286.35
692.85	285.78
693.19	285.33
693.52	284.74
693.86	284.26
694.20	283.58
694.53	283.10
694.87	282.44
695.21	281.89
695.54	281.36
695.88	280.67
696.21	279.93
696.55	279.31
696.88	278.75
697.22	278.09
697.56	277.61
697.89	276.99
698.23	276.53
698.56	275.95
698.90	275.49
699.23	274.98
699.57	274.54
699.90	274.01
700.24	273.39
700.58	272.96
700.91	272.53
701.25	272.47
701.58	272.26
701.92	271.95
702.25	271.57
702.59	271.00
702.92	270.67
703.26	270.30
703.59	270.00
703.93	270.00
704.26	269.79
704.60	269.39
704.93	268.98
705.26	268.67
705.60	268.41
705.93	267.78
706.27	267.55
706.60	267.31
706.94	267.19
707.27	266.73
707.61	266.41
707.94	266.01
708.27	265.31
708.61	264.65
708.94	264.16
709.28	263.77
709.61	263.49
709.94	263.18
710.28	262.91
710.61	262.58
710.95	261.83
711.28	261.72
711.61	261.40
711.95	261.20
712.28	260.73
712.61	260.32
712.95	260.36
713.28	260.27
713.61	259.91
713.95	259.38
714.28	259.20
714.61	258.84
714.95	258.51
715.28	258.06
715.61	257.77
715.95	257.50
716.28	257.10
716.61	256.81
716.95	256.40
717.28	255.99
717.61	255.65
717.94	255.41
718.28	254.79
718.61	254.40
718.94	254.06
719.27	253.84
719.61	253.58
719.94	253.19
720.27	252.65
720.60	252.29
720.94	252.06
721.27	251.83
721.60	251.70
721.93	251.47
722.27	251.43
722.60	251.20
722.93	250.95
723.26	250.90
723.59	250.59
723.93	250.50
724.26	250.39
724.59	250.19
724.92	250.03
725.25	249.98
725.59	249.77
725.92	249.60
726.25	249.33
726.58	249.18
726.91	249.04
727.24	248.87
727.57	248.66
727.91	248.43
728.24	248.31
728.57	248.02
728.90	247.92
729.23	247.60
729.56	247.73
729.89	247.57
730.22	247.28
730.55	247.15
730.89	246.99
731.22	246.78
731.55	246.53
731.88	246.24
732.21	245.97
732.54	245.83
732.87	245.68
733.20	245.47
733.53	245.30
733.86	245.14
734.19	244.92
734.52	244.83
734.85	245.02
735.18	244.80
735.51	244.83
735.84	244.71
736.17	244.68
736.50	244.28
736.83	244.69
737.16	244.54
737.49	244.40
737.82	244.17
738.15	244.04
738.48	243.97
738.81	243.89
739.14	243.71
739.47	243.55
739.80	243.33
740.13	243.36
740.46	243.23
740.79	242.94
741.12	242.72
741.45	242.59
741.78	242.19
742.11	242.07
742.44	241.70
742.77	241.58
743.10	241.41
743.43	241.20
743.75	240.54
744.08	241.05
744.41	240.88
744.74	240.73
745.07	240.52
745.40	240.45
745.73	240.57
746.06	240.49
746.39	240.39
746.71	240.26
747.04	240.06
747.37	239.86
747.70	239.89
748.03	239.87
748.36	239.76
748.68	239.58
749.01	239.36
749.34	239.29
749.67	239.18
750.00	239.15
750.33	239.40
750.65	239.31
750.98	238.60
751.31	238.48
751.64	238.40
751.97	238.64
752.29	238.41
752.62	238.02
752.95	237.88
753.28	237.66
753.60	237.53
753.93	237.52
754.26	237.49
754.59	237.23
754.91	237.11
755.24	237.01
755.57	236.91
755.90	236.76
756.22	236.62
756.55	236.35
756.88	236.08
757.20	235.63
757.53	235.43
757.86	235.34
758.19	235.30
758.51	235.25
758.84	234.81
759.17	234.72
759.49	234.65
759.82	234.79
760.15	234.81
760.47	234.74
760.80	234.53
761.13	234.48
761.45	234.38
761.78	234.29
762.11	234.14
762.43	234.10
762.76	234.05
763.08	234.07
763.41	234.10
763.74	234.12
764.06	234.06
764.39	233.95
764.71	233.85
765.04	233.75
765.37	233.63
765.69	233.64
766.02	233.63
766.34	233.52
766.67	233.30
767.00	233.29
767.32	233.50
767.65	233.67
767.97	233.61
768.30	233.57
768.62	233.50
768.95	233.45
769.27	233.35
769.60	233.33
769.92	233.16
770.25	232.98
770.57	232.90
770.90	232.88
771.22	232.87
771.55	232.86
771.87	232.82
772.20	232.72
772.52	233.05
772.85	233.48
773.17	233.32
773.50	233.22
773.82	233.11
774.15	232.79
774.47	232.54
774.80	232.40
775.12	232.42
775.45	232.33
775.77	232.30
776.09	232.31
776.42	232.28
776.74	232.44
777.07	232.39
777.39	232.28
777.72	232.18
778.04	232.23
778.36	232.10
778.69	232.02
779.01	232.08
779.33	231.57
779.66	231.07
779.98	231.08
780.31	231.08
780.63	231.25
780.95	231.35
781.28	231.19
781.60	231.04
781.92	230.97
782.25	231.01
782.57	230.97
782.89	230.85
783.22	230.83
783.54	230.65
783.86	230.66
784.19	230.61
784.51	230.70
784.83	230.48
785.16	230.45
785.48	230.43
785.80	230.30
786.12	230.26
786.45	230.12
786.77	230.20
787.09	230.05
787.42	229.85
787.74	229.72
788.06	229.78
788.38	229.80
788.71	229.59
789.03	229.50
789.35	229.53
789.67	229.40
789.99	229.33
790.32	229.20
790.64	229.19
790.96	229.60
791.28	229.35
791.61	229.37
791.93	229.36
792.25	229.34
792.57	229.68
792.89	229.63
793.21	229.75
793.54	229.66
793.86	229.63
794.18	229.63
794.50	229.61
794.82	229.52
795.14	229.55
795.47	229.65
795.79	229.64
796.11	229.48
796.43	229.43
796.75	229.45
797.07	229.51
797.39	229.43
797.71	229.00
798.04	229.09
798.36	229.11
798.68	229.08
799.00	229.05
799.32	228.79
799.64	228.93
799.96	228.80
800.28	228.86
800.60	228.85
800.92	228.82
801.24	228.76
801.56	228.79
801.89	228.75
802.21	228.76
802.53	228.66
802.85	228.73
803.17	229.03
803.49	228.88
803.81	228.82
804.13	228.81
804.45	228.71
804.77	228.75
805.09	228.62
805.41	228.59
805.73	228.54
806.05	228.43
806.37	228.34
806.69	228.37
807.01	228.35
807.33	228.39
807.65	228.25
807.97	228.51
808.28	228.54
808.60	228.53
808.92	228.50
809.24	228.79
809.56	228.73
809.88	228.56
810.20	228.62
810.52	228.75
810.84	228.68
811.16	228.69
811.48	228.61
811.80	228.79
812.12	228.74
812.43	228.88
812.75	228.93
813.07	228.85
813.39	228.87
813.71	228.75
814.03	228.73
814.35	228.73
814.67	228.42
814.98	228.32
815.30	228.28
815.62	228.18
815.94	227.87
816.26	228.11
816.58	228.03
816.89	228.01
817.21	227.87
817.53	228.04
817.85	228.02
818.17	228.00
