SpectraSuite Data File
++++++++++++++++++++++++++++++++++++
Date: Wed Sep 04 17:41:19 EDT 2013
User: lab3
Dark Spectrum Present: Yes
Reference Spectrum Present: No
Number of Sampled Component Spectra: 1
Spectrometers: USB2E7196
Integration Time (usec): 170000 (USB2E7196)
Spectra Averaged: 20 (USB2E7196)
Boxcar Smoothing: 10 (USB2E7196)
Correct for Electrical Dark: No (USB2E7196)
Strobe/Lamp Enabled: No (USB2E7196)
Correct for Detector Non-linearity: No (USB2E7196)
Correct for Stray Light: No (USB2E7196)
Number of Pixels in Processed Spectrum: 2048
>>>>>Begin Processed Spectral Data<<<<<
339.09	0.00
339.48	213.10
339.86	214.85
340.24	214.75
340.63	217.90
341.01	226.15
341.39	220.30
341.78	221.05
342.16	224.20
342.54	221.75
342.93	212.00
343.31	222.72
343.69	223.30
344.07	223.67
344.46	224.20
344.84	224.60
345.22	224.47
345.60	224.74
345.99	224.95
346.37	224.97
346.75	225.11
347.13	225.21
347.52	225.35
347.90	225.56
348.28	225.57
348.66	225.67
349.05	225.57
349.43	225.61
349.81	225.67
350.19	225.65
350.57	225.71
350.96	225.74
351.34	225.84
351.72	225.89
352.10	226.03
352.48	226.04
352.87	226.03
353.25	226.16
353.63	226.19
354.01	226.21
354.39	226.33
354.77	226.40
355.15	226.59
355.54	226.44
355.92	226.31
356.30	226.41
356.68	226.85
357.06	226.96
357.44	226.97
357.82	227.04
358.20	227.53
358.58	227.54
358.97	227.70
359.35	227.80
359.73	227.92
360.11	227.98
360.49	228.05
360.87	228.13
361.25	228.20
361.63	228.43
362.01	228.49
362.39	228.48
362.77	228.54
363.15	228.52
363.53	228.63
363.91	228.69
364.29	228.75
364.67	228.25
365.05	228.23
365.43	228.26
365.81	228.30
366.19	228.10
366.57	228.33
366.95	228.24
367.33	228.15
367.71	228.13
368.09	228.19
368.47	228.20
368.85	228.11
369.23	228.20
369.61	227.95
369.99	228.05
370.37	228.08
370.75	228.35
371.13	228.20
371.51	228.20
371.89	228.26
372.27	228.24
372.65	228.34
373.03	228.26
373.41	228.29
373.78	228.22
374.16	227.98
374.54	227.76
374.92	227.68
375.30	227.65
375.68	227.56
376.06	227.53
376.44	227.47
376.82	227.51
377.19	227.46
377.57	227.34
377.95	227.11
378.33	227.02
378.71	226.65
379.09	226.65
379.47	226.58
379.84	226.44
380.22	226.27
380.60	226.10
380.98	226.07
381.36	225.97
381.73	225.86
382.11	225.87
382.49	225.84
382.87	225.72
383.25	225.62
383.62	226.05
384.00	225.89
384.38	225.80
384.76	225.76
385.13	225.88
385.51	225.90
385.89	225.86
386.27	225.83
386.64	225.90
387.02	225.76
387.40	225.63
387.78	225.60
388.15	225.64
388.53	225.58
388.91	225.55
389.29	225.43
389.66	225.52
390.04	225.43
390.42	225.48
390.79	225.52
391.17	225.49
391.55	224.99
391.92	224.96
392.30	225.00
392.68	224.93
393.05	224.81
393.43	224.85
393.81	224.93
394.18	224.91
394.56	224.87
394.94	225.11
395.31	225.25
395.69	225.44
396.06	225.51
396.44	225.55
396.82	225.55
397.19	225.89
397.57	225.83
397.95	225.99
398.32	225.88
398.70	226.00
399.07	226.20
399.45	226.23
399.82	226.36
400.20	226.40
400.58	226.47
400.95	226.40
401.33	226.55
401.70	226.91
402.08	226.98
402.45	227.17
402.83	227.25
403.20	227.34
403.58	227.40
403.95	227.64
404.33	227.92
404.71	228.10
405.08	228.54
405.46	228.78
405.83	228.96
406.21	229.21
406.58	229.45
406.96	229.69
407.33	230.02
407.70	230.33
408.08	231.01
408.45	231.48
408.83	231.99
409.20	232.32
409.58	232.41
409.95	232.91
410.33	233.33
410.70	233.67
411.08	234.22
411.45	234.78
411.82	235.15
412.20	235.81
412.57	236.64
412.95	236.85
413.32	237.56
413.69	238.30
414.07	239.11
414.44	239.96
414.82	240.82
415.19	241.84
415.56	242.93
415.94	243.77
416.31	244.92
416.68	246.10
417.06	247.44
417.43	248.80
417.81	250.29
418.18	251.80
418.55	253.54
418.93	255.19
419.30	256.83
419.67	258.67
420.04	260.53
420.42	262.55
420.79	265.13
421.16	267.48
421.54	270.08
421.91	272.59
422.28	275.12
422.66	277.79
423.03	280.61
423.40	283.23
423.77	286.16
424.15	288.99
424.52	292.07
424.89	295.52
425.26	298.81
425.64	301.90
426.01	305.30
426.38	308.77
426.75	312.59
427.13	316.44
427.50	320.40
427.87	324.42
428.24	328.37
428.61	332.06
428.99	336.48
429.36	340.90
429.73	345.35
430.10	349.88
430.47	354.63
430.85	359.32
431.22	364.51
431.59	370.17
431.96	375.47
432.33	381.14
432.70	386.64
433.08	393.20
433.45	399.41
433.82	405.54
434.19	412.44
434.56	419.11
434.93	425.44
435.30	431.81
435.68	439.07
436.05	446.13
436.42	453.02
436.79	459.52
437.16	466.42
437.53	473.81
437.90	481.05
438.27	488.16
438.64	495.50
439.01	502.39
439.38	508.30
439.75	514.48
440.13	521.29
440.50	527.61
440.87	532.64
441.24	538.00
441.61	543.92
441.98	548.20
442.35	552.94
442.72	557.93
443.09	563.09
443.46	565.77
443.83	567.77
444.20	569.44
444.57	571.61
444.94	572.70
445.31	573.62
445.68	575.00
446.05	575.24
446.42	574.31
446.79	573.20
447.16	571.87
447.53	570.65
447.90	567.69
448.27	564.73
448.64	560.75
449.01	557.71
449.37	552.62
449.74	547.70
450.11	542.42
450.48	536.21
450.85	529.40
451.22	523.86
451.59	518.42
451.96	513.31
452.33	506.65
452.70	500.46
453.07	493.37
453.43	485.75
453.80	478.90
454.17	472.17
454.54	465.77
454.91	459.06
455.28	452.46
455.65	446.25
456.02	440.63
456.38	435.43
456.75	429.00
457.12	423.64
457.49	418.32
457.86	412.87
458.23	408.47
458.59	403.82
458.96	399.00
459.33	394.75
459.70	390.50
460.07	387.13
460.43	383.27
460.80	379.77
461.17	376.69
461.54	373.30
461.91	370.24
462.27	367.14
462.64	364.47
463.01	361.56
463.38	358.87
463.74	355.45
464.11	352.97
464.48	350.81
464.85	348.38
465.21	346.64
465.58	344.76
465.95	342.49
466.32	340.56
466.68	338.74
467.05	336.96
467.42	335.18
467.78	333.17
468.15	331.36
468.52	330.01
468.88	328.15
469.25	326.54
469.62	325.30
469.98	323.94
470.35	322.67
470.72	321.51
471.08	320.08
471.45	319.22
471.82	318.28
472.18	317.04
472.55	316.22
472.92	315.17
473.28	314.25
473.65	313.42
474.02	312.70
474.38	312.06
474.75	311.49
475.11	310.84
475.48	310.40
475.85	309.99
476.21	309.43
476.58	309.12
476.94	308.90
477.31	308.54
477.67	308.25
478.04	308.07
478.41	307.93
478.77	308.29
479.14	308.02
479.50	307.92
479.87	308.12
480.23	308.21
480.60	308.19
480.96	308.30
481.33	308.67
481.69	308.84
482.06	309.08
482.42	309.39
482.79	309.76
483.15	310.24
483.52	310.82
483.88	311.25
484.25	311.86
484.61	312.47
484.98	313.05
485.34	313.99
485.71	314.89
486.07	315.75
486.44	316.24
486.80	317.24
487.17	318.32
487.53	319.63
487.90	320.97
488.26	322.61
488.62	324.16
488.99	325.58
489.35	327.25
489.72	328.99
490.08	330.86
490.44	332.69
490.81	334.79
491.17	336.84
491.54	339.14
491.90	341.54
492.26	343.90
492.63	346.52
492.99	349.15
493.36	351.97
493.72	355.08
494.08	358.25
494.45	361.70
494.81	365.21
495.17	368.74
495.54	372.51
495.90	376.17
496.26	380.09
496.63	384.24
496.99	388.59
497.35	393.16
497.72	397.93
498.08	402.75
498.44	407.76
498.80	413.17
499.17	418.60
499.53	424.06
499.89	430.04
500.26	436.19
500.62	442.28
500.98	448.94
501.34	455.50
501.71	462.37
502.07	469.21
502.43	476.30
502.79	483.75
503.16	491.44
503.52	499.60
503.88	507.92
504.24	516.32
504.60	524.96
504.97	533.93
505.33	543.04
505.69	552.85
506.05	562.48
506.41	572.22
506.78	582.41
507.14	592.91
507.50	603.57
507.86	614.61
508.22	625.87
508.59	637.02
508.95	648.79
509.31	660.95
509.67	673.29
510.03	685.52
510.39	697.95
510.75	710.73
511.12	723.52
511.48	736.47
511.84	749.75
512.20	763.25
512.56	777.03
512.92	791.01
513.28	805.07
513.64	819.43
514.00	833.95
514.37	848.70
514.73	863.69
515.09	878.72
515.45	893.63
515.81	908.90
516.17	924.15
516.53	939.46
516.89	954.64
517.25	970.36
517.61	986.67
517.97	1002.90
518.33	1018.98
518.69	1035.42
519.05	1052.32
519.41	1068.86
519.77	1085.76
520.13	1102.32
520.49	1118.61
520.85	1136.50
521.21	1153.08
521.57	1169.87
521.93	1186.10
522.29	1202.76
522.65	1218.72
523.01	1235.24
523.37	1251.27
523.73	1267.46
524.09	1283.35
524.45	1299.05
524.81	1315.26
525.17	1330.95
525.53	1346.63
525.89	1362.67
526.25	1378.31
526.61	1393.15
526.97	1409.00
527.33	1425.02
527.68	1441.20
528.04	1457.01
528.40	1471.01
528.76	1486.52
529.12	1501.70
529.48	1517.23
529.84	1531.67
530.20	1547.35
530.56	1562.20
530.91	1577.35
531.27	1592.31
531.63	1606.81
531.99	1621.61
532.35	1635.43
532.71	1649.79
533.07	1664.40
533.42	1678.29
533.78	1692.16
534.14	1706.05
534.50	1719.34
534.86	1732.48
535.21	1744.35
535.57	1756.99
535.93	1769.05
536.29	1781.29
536.65	1793.53
537.00	1805.15
537.36	1817.00
537.72	1827.70
538.08	1838.88
538.44	1849.72
538.79	1860.36
539.15	1871.22
539.51	1881.48
539.87	1891.23
540.22	1899.78
540.58	1908.90
540.94	1916.71
541.29	1924.25
541.65	1931.91
542.01	1939.09
542.37	1944.51
542.72	1950.46
543.08	1956.24
543.44	1962.88
543.79	1967.94
544.15	1972.94
544.51	1977.87
544.87	1982.60
545.22	1986.77
545.58	1990.08
545.94	1993.25
546.29	1995.42
546.65	1997.37
547.01	1999.22
547.36	2000.70
547.72	2002.56
548.07	2002.63
548.43	2004.13
548.79	2005.08
549.14	2005.62
549.50	2005.88
549.86	2006.56
550.21	2007.04
550.57	2007.19
550.92	2005.61
551.28	2004.17
551.64	2003.39
551.99	2002.66
552.35	2000.99
552.70	2000.07
553.06	1998.90
553.41	1997.07
553.77	1996.06
554.13	1995.14
554.48	1993.85
554.84	1992.65
555.19	1991.11
555.55	1990.24
555.90	1987.47
556.26	1984.49
556.61	1980.93
556.97	1977.10
557.32	1974.24
557.68	1971.15
558.03	1967.75
558.39	1964.50
558.74	1961.74
559.10	1957.10
559.45	1952.24
559.81	1947.20
560.16	1941.62
560.52	1936.23
560.87	1931.06
561.23	1925.33
561.58	1919.39
561.94	1912.47
562.29	1905.39
562.64	1898.55
563.00	1890.97
563.35	1884.64
563.71	1878.20
564.06	1872.05
564.42	1865.96
564.77	1859.26
565.12	1852.51
565.48	1845.56
565.83	1838.56
566.19	1831.18
566.54	1824.27
566.89	1817.08
567.25	1810.23
567.60	1803.60
567.96	1797.24
568.31	1790.13
568.66	1782.62
569.02	1774.73
569.37	1767.95
569.72	1761.46
570.08	1753.67
570.43	1745.66
570.78	1738.09
571.14	1730.31
571.49	1722.06
571.84	1714.34
572.20	1705.98
572.55	1697.60
572.90	1688.89
573.26	1680.56
573.61	1672.07
573.96	1663.16
574.31	1653.66
574.67	1644.74
575.02	1635.02
575.37	1624.63
575.72	1614.56
576.08	1605.46
576.43	1595.79
576.78	1585.67
577.13	1575.05
577.49	1565.63
577.84	1556.54
578.19	1547.21
578.54	1537.95
578.90	1528.98
579.25	1519.61
579.60	1510.29
579.95	1500.64
580.30	1490.89
580.66	1480.75
581.01	1470.62
581.36	1460.37
581.71	1451.24
582.06	1441.73
582.42	1432.76
582.77	1423.79
583.12	1415.04
583.47	1405.87
583.82	1397.35
584.17	1388.65
584.53	1380.38
584.88	1370.69
585.23	1361.05
585.58	1350.95
585.93	1341.15
586.28	1331.59
586.63	1321.71
586.98	1311.47
587.34	1301.93
587.69	1292.39
588.04	1283.62
588.39	1275.18
588.74	1266.57
589.09	1257.95
589.44	1248.69
589.79	1239.78
590.14	1231.39
590.49	1222.93
590.84	1214.26
591.19	1205.49
591.54	1196.85
591.89	1188.16
592.25	1181.38
592.60	1173.35
592.95	1165.38
593.30	1157.14
593.65	1148.72
594.00	1140.16
594.35	1133.79
594.70	1125.79
595.05	1117.85
595.40	1109.55
595.75	1101.20
596.10	1093.54
596.45	1085.59
596.80	1078.06
597.15	1070.20
597.50	1062.02
597.85	1054.31
598.19	1046.42
598.54	1038.39
598.89	1030.56
599.24	1023.27
599.59	1014.95
599.94	1007.77
600.29	1000.65
600.64	993.69
600.99	986.26
601.34	979.78
601.69	971.76
602.04	964.94
602.39	958.32
602.74	952.21
603.08	945.66
603.43	939.35
603.78	932.76
604.13	926.22
604.48	919.85
604.83	913.29
605.18	906.52
605.53	900.10
605.87	894.03
606.22	888.21
606.57	881.76
606.92	875.72
607.27	869.64
607.62	863.72
607.96	858.07
608.31	853.05
608.66	847.41
609.01	841.60
609.36	835.99
609.70	830.27
610.05	824.33
610.40	818.73
610.75	812.83
611.10	807.39
611.44	801.72
611.79	796.09
612.14	790.80
612.49	785.65
612.83	780.60
613.18	775.37
613.53	770.20
613.88	764.95
614.22	759.62
614.57	754.30
614.92	748.82
615.27	743.59
615.61	738.17
615.96	732.99
616.31	727.88
616.65	723.03
617.00	718.06
617.35	713.12
617.70	708.20
618.04	703.26
618.39	698.30
618.74	693.94
619.08	689.08
619.43	684.34
619.78	679.50
620.12	674.55
620.47	669.76
620.82	664.89
621.16	660.34
621.51	656.04
621.85	651.78
622.20	647.34
622.55	642.73
622.89	638.45
623.24	634.13
623.59	629.76
623.93	625.39
624.28	621.37
624.62	617.79
624.97	613.97
625.32	610.10
625.66	606.28
626.01	602.27
626.35	598.64
626.70	594.82
627.04	591.04
627.39	587.41
627.73	583.86
628.08	580.37
628.43	576.59
628.77	572.89
629.12	569.20
629.46	566.12
629.81	563.11
630.15	559.75
630.50	556.34
630.84	553.13
631.19	549.89
631.53	546.68
631.88	542.87
632.22	539.41
632.57	536.54
632.91	533.33
633.26	530.28
633.60	527.06
633.95	523.92
634.29	520.81
634.64	517.68
634.98	514.49
635.32	511.52
635.67	508.84
636.01	505.97
636.36	503.09
636.70	500.26
637.05	497.25
637.39	494.45
637.73	491.70
638.08	489.04
638.42	486.22
638.77	483.40
639.11	480.40
639.45	477.59
639.80	474.38
640.14	471.58
640.49	468.72
640.83	466.09
641.17	463.61
641.52	461.06
641.86	458.57
642.20	456.50
642.55	454.02
642.89	451.55
643.23	449.07
643.58	446.90
643.92	444.32
644.26	441.92
644.61	439.71
644.95	437.50
645.29	435.17
645.64	432.95
645.98	430.69
646.32	428.82
646.66	426.58
647.01	424.58
647.35	422.75
647.69	420.82
648.04	418.99
648.38	417.00
648.72	414.99
649.06	412.96
649.41	410.72
649.75	408.71
650.09	406.78
650.43	404.82
650.78	402.79
651.12	400.88
651.46	399.03
651.80	397.11
652.14	395.24
652.49	393.42
652.83	391.68
653.17	390.00
653.51	388.12
653.85	386.58
654.20	384.93
654.54	383.02
654.88	381.30
655.22	379.84
655.56	378.20
655.90	376.67
656.25	375.13
656.59	373.59
656.93	372.15
657.27	370.59
657.61	368.94
657.95	367.31
658.29	365.77
658.64	364.30
658.98	362.79
659.32	361.12
659.66	359.60
660.00	358.13
660.34	356.64
660.68	355.17
661.02	353.75
661.36	352.28
661.70	350.94
662.05	349.55
662.39	348.14
662.73	346.89
663.07	345.92
663.41	344.69
663.75	343.31
664.09	342.00
664.43	340.70
664.77	339.61
665.11	338.45
665.45	337.29
665.79	336.20
666.13	335.00
666.47	333.93
666.81	332.75
667.15	331.48
667.49	330.39
667.83	329.54
668.17	328.43
668.51	327.37
668.85	326.45
669.19	325.66
669.53	324.44
669.87	323.37
670.21	322.14
670.55	321.13
670.89	320.48
671.23	319.47
671.57	318.50
671.91	317.51
672.25	316.63
672.58	315.74
672.92	314.63
673.26	313.77
673.60	312.95
673.94	312.18
674.28	311.52
674.62	310.80
674.96	309.89
675.30	309.18
675.64	308.46
675.97	307.48
676.31	306.42
676.65	305.66
676.99	304.96
677.33	304.07
677.67	303.32
678.01	302.28
678.34	301.57
678.68	300.96
679.02	300.26
679.36	299.49
679.70	298.83
680.04	298.24
680.37	297.52
680.71	296.72
681.05	296.06
681.39	295.24
681.73	294.48
682.06	293.80
682.40	293.10
682.74	292.50
683.08	292.12
683.42	291.53
683.75	291.04
684.09	290.35
684.43	289.83
684.77	289.20
685.10	288.70
685.44	288.08
685.78	287.42
686.12	286.75
686.45	286.21
686.79	285.60
687.13	285.18
687.46	284.58
687.80	284.25
688.14	283.64
688.48	283.17
688.81	282.69
689.15	282.25
689.49	281.65
689.82	281.10
690.16	280.38
690.50	279.88
690.83	279.23
691.17	278.62
691.51	278.07
691.84	277.64
692.18	277.10
692.52	276.61
692.85	276.21
693.19	275.99
693.52	275.54
693.86	274.98
694.20	274.42
694.53	274.04
694.87	273.52
695.21	273.15
695.54	272.75
695.88	272.23
696.21	271.53
696.55	271.14
696.88	270.75
697.22	270.27
697.56	269.89
697.89	269.44
698.23	269.13
698.56	268.65
698.90	268.24
699.23	267.76
699.57	267.31
699.90	266.85
700.24	266.25
700.58	265.86
700.91	265.63
701.25	265.60
701.58	265.55
701.92	265.27
702.25	264.96
702.59	264.56
702.92	264.20
703.26	264.01
703.59	263.73
703.93	263.77
704.26	263.55
704.60	263.21
704.93	262.90
705.26	262.56
705.60	262.32
705.93	261.92
706.27	261.70
706.60	261.61
706.94	261.53
707.27	261.25
707.61	260.90
707.94	260.54
708.27	259.79
708.61	259.12
708.94	258.73
709.28	258.41
709.61	258.03
709.94	257.85
710.28	257.61
710.61	257.28
710.95	256.51
711.28	256.53
711.61	256.19
711.95	256.09
712.28	255.72
712.61	255.48
712.95	255.48
713.28	255.47
713.61	255.05
713.95	254.58
714.28	254.38
714.61	254.07
714.95	253.80
715.28	253.58
715.61	253.30
715.95	253.06
716.28	252.70
716.61	252.63
716.95	252.25
717.28	252.03
717.61	251.75
717.94	251.52
718.28	250.93
718.61	250.68
718.94	250.31
719.27	250.08
719.61	249.84
719.94	249.48
720.27	249.00
720.60	248.70
720.94	248.54
721.27	248.38
721.60	248.31
721.93	248.10
722.27	248.06
722.60	247.97
722.93	247.73
723.26	247.59
723.59	247.28
723.93	247.19
724.26	247.00
724.59	246.80
724.92	246.65
725.25	246.66
725.59	246.55
725.92	246.51
726.25	246.39
726.58	246.35
726.91	246.18
727.24	246.14
727.57	246.04
727.91	245.83
728.24	245.62
728.57	245.41
728.90	245.37
729.23	245.12
729.56	245.16
729.89	245.01
730.22	244.89
730.55	244.68
730.89	244.48
731.22	244.24
731.55	244.12
731.88	243.97
732.21	243.64
732.54	243.46
732.87	243.21
733.20	243.12
733.53	242.89
733.86	242.78
734.19	242.55
734.52	242.50
734.85	242.63
735.18	242.49
735.51	242.55
735.84	242.37
736.17	242.35
736.50	241.96
736.83	242.41
737.16	242.32
737.49	242.24
737.82	242.13
738.15	242.02
738.48	241.91
738.81	241.76
739.14	241.62
739.47	241.45
739.80	241.27
740.13	241.19
740.46	240.99
740.79	240.82
741.12	240.65
741.45	240.50
741.78	240.15
742.11	240.12
742.44	239.84
742.77	239.83
743.10	239.61
743.43	239.46
743.75	238.83
744.08	239.30
744.41	239.25
744.74	239.10
745.07	238.87
745.40	238.80
745.73	239.01
746.06	238.94
746.39	238.89
746.71	238.82
747.04	238.53
747.37	238.44
747.70	238.39
748.03	238.30
748.36	238.23
748.68	238.11
749.01	237.86
749.34	237.76
749.67	237.57
750.00	237.54
750.33	237.83
750.65	237.76
750.98	236.98
751.31	236.84
751.64	236.78
751.97	237.06
752.29	236.94
752.62	236.56
752.95	236.40
753.28	236.32
753.60	236.22
753.93	236.40
754.26	236.32
754.59	236.08
754.91	236.01
755.24	235.85
755.57	235.79
755.90	235.70
756.22	235.54
756.55	235.41
756.88	235.17
757.20	234.72
757.53	234.49
757.86	234.46
758.19	234.46
758.51	234.35
758.84	233.98
759.17	233.77
759.49	233.71
759.82	233.94
760.15	233.80
760.47	233.66
760.80	233.41
761.13	233.42
761.45	233.36
761.78	233.23
762.11	233.12
762.43	232.99
762.76	232.84
763.08	232.82
763.41	232.82
763.74	232.82
764.06	232.79
764.39	232.74
764.71	232.60
765.04	232.42
765.37	232.37
765.69	232.35
766.02	232.34
766.34	232.16
766.67	231.90
767.00	232.01
767.32	232.17
767.65	232.34
767.97	232.20
768.30	232.15
768.62	232.09
768.95	232.03
769.27	231.90
769.60	232.05
769.92	232.01
770.25	231.85
770.57	231.66
770.90	231.59
771.22	231.49
771.55	231.48
771.87	231.52
772.20	231.40
772.52	231.75
772.85	232.28
773.17	232.30
773.50	232.25
773.82	232.07
774.15	231.83
774.47	231.52
774.80	231.45
775.12	231.41
775.45	231.39
775.77	231.39
776.09	231.41
776.42	231.32
776.74	231.38
777.07	231.27
777.39	231.35
777.72	231.34
778.04	231.41
778.36	231.31
778.69	231.25
779.01	231.22
779.33	230.74
779.66	230.13
779.98	230.05
780.31	230.01
780.63	230.19
780.95	230.23
781.28	230.15
781.60	230.09
781.92	230.02
782.25	230.00
782.57	229.93
782.89	229.90
783.22	229.81
783.54	229.64
783.86	229.75
784.19	229.65
784.51	229.73
784.83	229.58
785.16	229.53
785.48	229.49
785.80	229.49
786.12	229.53
786.45	229.59
786.77	229.60
787.09	229.53
787.42	229.30
787.74	229.28
788.06	229.29
788.38	229.24
788.71	229.26
789.03	229.24
789.35	229.29
789.67	229.17
789.99	229.20
790.32	229.15
790.64	229.15
790.96	229.55
791.28	229.34
791.61	229.35
791.93	229.43
792.25	229.41
792.57	229.76
792.89	229.69
793.21	229.68
793.54	229.62
793.86	229.59
794.18	229.60
794.50	229.50
794.82	229.53
795.14	229.54
795.47	229.62
795.79	229.57
796.11	229.45
796.43	229.42
796.75	229.42
797.07	229.48
797.39	229.39
797.71	229.09
798.04	229.10
798.36	229.12
798.68	229.08
799.00	229.02
799.32	228.73
799.64	228.79
799.96	228.74
800.28	228.82
800.60	228.76
800.92	228.75
801.24	228.71
801.56	228.69
801.89	228.66
802.21	228.61
802.53	228.56
802.85	228.64
803.17	228.83
803.49	228.61
803.81	228.45
804.13	228.41
804.45	228.25
804.77	228.34
805.09	228.29
805.41	228.21
805.73	228.15
806.05	228.02
806.37	227.93
806.69	227.83
807.01	227.76
807.33	227.76
807.65	227.63
807.97	227.86
808.28	227.84
808.60	227.89
808.92	227.82
809.24	228.12
809.56	228.03
809.88	227.89
810.20	227.97
810.52	228.10
810.84	228.03
811.16	228.02
811.48	227.88
811.80	228.01
812.12	227.97
812.43	228.07
812.75	228.14
813.07	228.02
813.39	228.03
813.71	228.02
814.03	227.93
814.35	227.99
814.67	227.76
814.98	227.76
815.30	227.71
815.62	227.68
815.94	227.32
816.26	227.64
816.58	227.57
816.89	227.58
817.21	227.48
817.53	227.45
817.85	227.43
818.17	227.44
818.48	227.29
818.80	227.36
