SpectraSuite Data File
++++++++++++++++++++++++++++++++++++
Date: Wed Sep 04 17:55:49 EDT 2013
User: lab3
Dark Spectrum Present: Yes
Reference Spectrum Present: No
Number of Sampled Component Spectra: 1
Spectrometers: USB2E7196
Integration Time (usec): 170000 (USB2E7196)
Spectra Averaged: 20 (USB2E7196)
Boxcar Smoothing: 10 (USB2E7196)
Correct for Electrical Dark: No (USB2E7196)
Strobe/Lamp Enabled: No (USB2E7196)
Correct for Detector Non-linearity: No (USB2E7196)
Correct for Stray Light: No (USB2E7196)
Number of Pixels in Processed Spectrum: 2048
>>>>>Begin Processed Spectral Data<<<<<
339.09	0.00
339.48	211.80
339.86	215.20
340.24	215.75
340.63	216.90
341.01	226.35
341.39	218.70
341.78	222.05
342.16	223.85
342.54	224.45
342.93	212.28
343.31	222.99
343.69	223.59
344.07	224.01
344.46	224.58
344.84	225.04
345.22	225.09
345.60	225.45
345.99	225.63
346.37	225.75
346.75	225.79
347.13	225.90
347.52	226.02
347.90	226.29
348.28	226.36
348.66	226.50
349.05	226.40
349.43	226.51
349.81	226.57
350.19	226.55
350.57	226.57
350.96	226.72
351.34	226.85
351.72	226.95
352.10	227.11
352.48	227.05
352.87	227.04
353.25	226.90
353.63	226.97
354.01	226.99
354.39	227.06
354.77	227.15
355.15	227.30
355.54	227.27
355.92	227.20
356.30	227.24
356.68	227.55
357.06	227.60
357.44	227.57
357.82	227.66
358.20	228.23
358.58	228.31
358.97	228.33
359.35	228.45
359.73	228.57
360.11	228.60
360.49	228.70
360.87	228.72
361.25	228.98
361.63	229.17
362.01	229.24
362.39	229.27
362.77	229.34
363.15	229.37
363.53	229.44
363.91	229.40
364.29	229.52
364.67	229.15
365.05	229.14
365.43	229.31
365.81	229.27
366.19	229.09
366.57	229.33
366.95	229.30
367.33	229.18
367.71	229.27
368.09	229.37
368.47	229.43
368.85	229.50
369.23	229.63
369.61	229.40
369.99	229.58
370.37	229.70
370.75	229.88
371.13	229.81
371.51	229.74
371.89	229.80
372.27	229.75
372.65	229.78
373.03	229.82
373.41	229.74
373.78	229.73
374.16	229.44
374.54	229.22
374.92	229.14
375.30	229.19
375.68	229.01
376.06	228.93
376.44	228.79
376.82	228.78
377.19	228.56
377.57	228.54
377.95	228.34
378.33	228.19
378.71	227.90
379.09	227.90
379.47	227.96
379.84	227.85
380.22	227.70
380.60	227.44
380.98	227.32
381.36	227.23
381.73	227.16
382.11	227.24
382.49	227.19
382.87	227.16
383.25	227.04
383.62	227.57
384.00	227.45
384.38	227.42
384.76	227.44
385.13	227.62
385.51	227.61
385.89	227.54
386.27	227.46
386.64	227.54
387.02	227.47
387.40	227.28
387.78	227.28
388.15	227.30
388.53	227.35
388.91	227.34
389.29	227.33
389.66	227.34
390.04	227.20
390.42	227.29
390.79	227.31
391.17	227.32
391.55	226.75
391.92	226.69
392.30	226.73
392.68	226.65
393.05	226.60
393.43	226.49
393.81	226.56
394.18	226.51
394.56	226.45
394.94	226.55
395.31	226.56
395.69	226.69
396.06	226.77
396.44	226.82
396.82	226.80
397.19	227.07
397.57	227.10
397.95	227.24
398.32	227.10
398.70	227.19
399.07	227.36
399.45	227.36
399.82	227.49
400.20	227.55
400.58	227.64
400.95	227.54
401.33	227.83
401.70	228.16
402.08	228.29
402.45	228.44
402.83	228.59
403.20	228.74
403.58	228.88
403.95	229.07
404.33	229.31
404.71	229.58
405.08	229.97
405.46	230.17
405.83	230.39
406.21	230.67
406.58	230.90
406.96	231.13
407.33	231.50
407.70	231.89
408.08	232.55
408.45	232.95
408.83	233.44
409.20	233.80
409.58	234.11
409.95	234.75
410.33	235.26
410.70	235.68
411.08	236.40
411.45	236.97
411.82	237.55
412.20	238.37
412.57	239.38
412.95	239.76
413.32	240.70
413.69	241.49
414.07	242.46
414.44	243.48
414.82	244.53
415.19	245.78
415.56	246.95
415.94	247.98
416.31	249.45
416.68	250.84
417.06	252.54
417.43	254.06
417.81	255.76
418.18	257.62
418.55	259.59
418.93	261.59
419.30	263.75
419.67	266.05
420.04	268.27
420.42	270.57
420.79	273.69
421.16	276.42
421.54	279.47
421.91	282.46
422.28	285.49
422.66	288.75
423.03	292.22
423.40	295.65
423.77	299.26
424.15	302.96
424.52	306.82
424.89	310.97
425.26	314.91
425.64	318.68
426.01	322.91
426.38	327.32
426.75	331.83
427.13	336.37
427.50	341.13
427.87	346.12
428.24	351.09
428.61	355.45
428.99	360.77
429.36	366.31
429.73	371.81
430.10	377.45
430.47	383.10
430.85	388.63
431.22	394.80
431.59	401.59
431.96	407.80
432.33	414.69
432.70	421.26
433.08	429.12
433.45	436.55
433.82	443.91
434.19	452.18
434.56	460.30
434.93	467.98
435.30	475.76
435.68	484.35
436.05	492.73
436.42	501.08
436.79	508.71
437.16	517.01
437.53	525.80
437.90	534.52
438.27	543.08
438.64	552.07
439.01	560.31
439.38	567.44
439.75	574.60
440.13	582.78
440.50	590.43
440.87	596.57
441.24	603.04
441.61	610.15
441.98	615.13
442.35	620.90
442.72	626.90
443.09	632.68
443.46	635.97
443.83	638.23
444.20	640.25
444.57	643.11
444.94	644.25
445.31	645.31
445.68	646.55
446.05	646.71
446.42	645.47
446.79	644.02
447.16	642.45
447.53	641.10
447.90	637.32
448.27	633.58
448.64	628.62
449.01	624.72
449.37	618.45
449.74	612.40
450.11	605.57
450.48	597.85
450.85	589.77
451.22	582.96
451.59	576.35
451.96	569.95
452.33	561.68
452.70	554.27
453.07	545.59
453.43	536.47
453.80	528.14
454.17	520.05
454.54	512.29
454.91	504.00
455.28	496.02
455.65	488.41
456.02	481.51
456.38	475.14
456.75	467.49
457.12	460.91
457.49	454.69
457.86	448.24
458.23	443.02
458.59	437.40
458.96	431.52
459.33	426.40
459.70	421.44
460.07	417.34
460.43	412.69
460.80	408.41
461.17	404.75
461.54	400.73
461.91	396.81
462.27	393.00
462.64	389.87
463.01	386.32
463.38	383.02
463.74	379.08
464.11	376.14
464.48	373.53
464.85	370.66
465.21	368.47
465.58	366.26
465.95	363.42
466.32	361.12
466.68	359.07
467.05	356.84
467.42	354.57
467.78	352.28
468.15	350.13
468.52	348.52
468.88	346.20
469.25	344.26
469.62	342.93
469.98	341.34
470.35	339.72
470.72	338.25
471.08	336.56
471.45	335.24
471.82	333.98
472.18	332.47
472.55	331.50
472.92	330.23
473.28	328.98
473.65	327.96
474.02	327.01
474.38	326.07
474.75	325.41
475.11	324.54
475.48	323.92
475.85	323.29
476.21	322.67
476.58	322.26
476.94	321.84
477.31	321.26
477.67	320.80
478.04	320.55
478.41	320.35
478.77	320.72
479.14	320.41
479.50	320.25
479.87	320.27
480.23	320.26
480.60	320.24
480.96	320.36
481.33	320.69
481.69	320.82
482.06	321.06
482.42	321.20
482.79	321.56
483.15	321.86
483.52	322.52
483.88	323.05
484.25	323.50
484.61	324.21
484.98	324.80
485.34	325.87
485.71	326.87
486.07	327.85
486.44	328.48
486.80	329.66
487.17	330.79
487.53	332.16
487.90	333.57
488.26	335.20
488.62	336.84
488.99	338.35
489.35	340.09
489.72	341.91
490.08	344.01
490.44	346.09
490.81	348.50
491.17	350.65
491.54	353.12
491.90	355.79
492.26	358.53
492.63	361.52
492.99	364.33
493.36	367.25
493.72	370.52
494.08	373.85
494.45	377.51
494.81	381.46
495.17	385.36
495.54	389.50
495.90	393.65
496.26	398.20
496.63	402.85
496.99	407.77
497.35	412.85
497.72	418.12
498.08	423.57
498.44	429.17
498.80	435.20
499.17	441.24
499.53	447.39
499.89	453.92
500.26	460.52
500.62	467.46
500.98	474.94
501.34	482.31
501.71	490.08
502.07	497.79
502.43	505.87
502.79	514.26
503.16	523.04
503.52	532.02
503.88	541.05
504.24	550.74
504.60	560.66
504.97	570.92
505.33	581.24
505.69	592.26
506.05	603.47
506.41	614.70
506.78	626.30
507.14	638.48
507.50	650.96
507.86	663.72
508.22	676.64
508.59	689.50
508.95	703.45
509.31	717.65
509.67	732.03
510.03	746.42
510.39	761.13
510.75	775.98
511.12	791.23
511.48	807.00
511.84	822.59
512.20	838.42
512.56	854.71
512.92	871.45
513.28	888.25
513.64	905.48
514.00	923.01
514.37	940.82
514.73	958.84
515.09	977.12
515.45	995.64
515.81	1013.99
516.17	1032.81
516.53	1051.31
516.89	1069.94
517.25	1089.31
517.61	1109.61
517.97	1129.88
518.33	1149.95
518.69	1170.11
519.05	1190.63
519.41	1211.58
519.77	1232.95
520.13	1253.78
520.49	1274.52
520.85	1296.59
521.21	1317.57
521.57	1338.89
521.93	1359.67
522.29	1380.80
522.65	1401.55
523.01	1422.42
523.37	1443.34
523.73	1464.33
524.09	1485.04
524.45	1505.66
524.81	1526.32
525.17	1546.93
525.53	1567.41
525.89	1588.35
526.25	1609.40
526.61	1629.90
526.97	1650.67
527.33	1671.55
527.68	1693.39
528.04	1714.65
528.40	1734.65
528.76	1755.71
529.12	1775.93
529.48	1796.88
529.84	1816.94
530.20	1837.78
530.56	1858.31
530.91	1879.06
531.27	1899.99
531.63	1920.40
531.99	1941.30
532.35	1961.62
532.71	1981.75
533.07	2002.41
533.42	2022.56
533.78	2042.44
534.14	2062.19
534.50	2081.43
534.86	2100.65
535.21	2118.22
535.57	2136.76
535.93	2154.40
536.29	2171.92
536.65	2190.36
537.00	2207.77
537.36	2225.50
537.72	2242.10
538.08	2259.38
538.44	2276.15
538.79	2292.25
539.15	2308.90
539.51	2324.65
539.87	2339.79
540.22	2353.66
540.58	2368.01
540.94	2380.67
541.29	2393.23
541.65	2406.01
542.01	2418.07
542.37	2428.63
542.72	2439.42
543.08	2450.06
543.44	2461.76
543.79	2471.89
544.15	2481.73
544.51	2492.23
544.87	2501.89
545.22	2510.56
545.58	2518.34
545.94	2525.38
546.29	2531.64
546.65	2537.76
547.01	2543.35
547.36	2549.04
547.72	2554.68
548.07	2558.70
548.43	2564.43
548.79	2569.29
549.14	2573.43
549.50	2577.66
549.86	2581.73
550.21	2585.62
550.57	2588.99
550.92	2590.10
551.28	2591.89
551.64	2594.22
551.99	2595.70
552.35	2597.17
552.70	2599.11
553.06	2600.65
553.41	2602.02
553.77	2604.23
554.13	2605.78
554.48	2607.29
554.84	2608.28
555.19	2609.35
555.55	2610.88
555.90	2609.97
556.26	2609.02
556.61	2607.31
556.97	2605.54
557.32	2604.87
557.68	2604.04
558.03	2602.52
558.39	2601.49
558.74	2600.33
559.10	2596.85
559.45	2593.19
559.81	2588.64
560.16	2583.63
560.52	2578.80
560.87	2574.62
561.23	2568.83
561.58	2562.64
561.94	2555.76
562.29	2548.65
562.64	2541.60
563.00	2533.34
563.35	2527.11
563.71	2520.51
564.06	2514.71
564.42	2507.92
564.77	2500.97
565.12	2493.19
565.48	2485.36
565.83	2477.50
566.19	2469.22
566.54	2461.52
566.89	2453.55
567.25	2446.22
567.60	2439.17
567.96	2431.54
568.31	2423.24
568.66	2414.82
569.02	2406.16
569.37	2397.96
569.72	2390.41
570.08	2381.22
570.43	2371.72
570.78	2362.38
571.14	2353.27
571.49	2342.50
571.84	2332.81
572.20	2322.00
572.55	2311.74
572.90	2300.68
573.26	2290.20
573.61	2279.12
573.96	2267.89
574.31	2256.01
574.67	2244.15
575.02	2231.06
575.37	2218.64
575.72	2205.65
576.08	2193.46
576.43	2180.89
576.78	2167.70
577.13	2153.98
577.49	2141.32
577.84	2129.71
578.19	2117.57
578.54	2104.52
578.90	2092.69
579.25	2080.27
579.60	2067.72
579.95	2054.65
580.30	2041.87
580.66	2028.68
581.01	2015.15
581.36	2001.08
581.71	1988.50
582.06	1975.42
582.42	1963.06
582.77	1950.04
583.12	1938.04
583.47	1925.76
583.82	1913.90
584.17	1902.18
584.53	1890.28
584.88	1877.40
585.23	1864.13
585.58	1849.94
585.93	1836.83
586.28	1823.67
586.63	1809.70
586.98	1795.49
587.34	1782.37
587.69	1768.99
588.04	1756.28
588.39	1744.40
588.74	1732.51
589.09	1720.50
589.44	1707.65
589.79	1695.50
590.14	1683.77
590.49	1671.65
590.84	1659.71
591.19	1647.57
591.54	1635.19
591.89	1623.10
592.25	1612.87
592.60	1601.63
592.95	1590.42
593.30	1578.46
593.65	1566.44
594.00	1554.69
594.35	1544.90
594.70	1532.85
595.05	1521.51
595.40	1509.24
595.75	1497.36
596.10	1485.89
596.45	1474.24
596.80	1463.61
597.15	1452.15
597.50	1440.42
597.85	1429.03
598.19	1417.11
598.54	1405.43
598.89	1394.34
599.24	1383.74
599.59	1372.08
599.94	1360.82
600.29	1350.57
600.64	1340.45
600.99	1329.65
601.34	1320.10
601.69	1308.95
602.04	1299.44
602.39	1289.80
602.74	1280.84
603.08	1271.49
603.43	1262.33
603.78	1252.60
604.13	1242.95
604.48	1233.43
604.83	1223.66
605.18	1213.79
605.53	1204.40
605.87	1195.18
606.22	1186.43
606.57	1177.16
606.92	1167.84
607.27	1159.07
607.62	1150.22
607.96	1141.50
608.31	1133.42
608.66	1124.90
609.01	1116.44
609.36	1107.89
609.70	1099.27
610.05	1090.56
610.40	1081.99
610.75	1073.38
611.10	1064.95
611.44	1056.19
611.79	1047.98
612.14	1040.08
612.49	1032.16
612.83	1024.81
613.18	1017.07
613.53	1009.25
613.88	1001.15
614.22	993.44
614.57	985.65
614.92	977.59
615.27	970.03
615.61	962.15
615.96	954.64
616.31	946.99
616.65	939.93
617.00	932.75
617.35	925.41
617.70	918.18
618.04	911.17
618.39	904.17
618.74	897.89
619.08	891.18
619.43	884.33
619.78	877.46
620.12	870.08
620.47	863.38
620.82	856.29
621.16	849.65
621.51	843.33
621.85	837.14
622.20	830.47
622.55	823.80
622.89	817.78
623.24	811.31
623.59	805.07
623.93	798.75
624.28	792.75
624.62	787.20
624.97	781.42
625.32	775.50
625.66	769.64
626.01	763.55
626.35	757.90
626.70	752.36
627.04	746.98
627.39	741.44
627.73	735.99
628.08	730.83
628.43	725.47
628.77	719.86
629.12	714.37
629.46	709.65
629.81	704.97
630.15	699.93
630.50	694.97
630.84	690.04
631.19	685.18
631.53	680.37
631.88	675.12
632.22	670.31
632.57	665.90
632.91	661.36
633.26	656.89
633.60	652.15
633.95	647.47
634.29	642.66
634.64	638.22
634.98	633.35
635.32	629.09
635.67	625.09
636.01	621.01
636.36	616.61
636.70	612.50
637.05	608.25
637.39	604.13
637.73	600.04
638.08	596.00
638.42	591.80
638.77	587.42
639.11	583.06
639.45	578.74
639.80	574.23
640.14	570.13
640.49	566.10
640.83	562.26
641.17	558.52
641.52	554.88
641.86	551.35
642.20	548.39
642.55	544.63
642.89	540.94
643.23	537.26
643.58	534.15
643.92	530.53
644.26	527.11
644.61	523.88
644.95	520.57
645.29	517.30
645.64	514.08
645.98	511.08
646.32	508.22
646.66	505.19
647.01	502.22
647.35	499.38
647.69	496.45
648.04	493.63
648.38	490.86
648.72	488.01
649.06	484.86
649.41	481.60
649.75	478.63
650.09	475.79
650.43	473.01
650.78	470.03
651.12	467.23
651.46	464.35
651.80	461.49
652.14	458.81
652.49	456.28
652.83	453.78
653.17	451.16
653.51	448.32
653.85	445.97
654.20	443.42
654.54	440.75
654.88	438.19
655.22	435.95
655.56	433.47
655.90	431.15
656.25	429.09
656.59	426.97
656.93	424.78
657.27	422.64
657.61	420.30
657.95	418.09
658.29	415.95
658.64	413.90
658.98	411.75
659.32	409.56
659.66	407.28
660.00	405.10
660.34	403.02
660.68	401.16
661.02	399.03
661.36	397.14
661.70	395.17
662.05	393.31
662.39	391.29
662.73	389.55
663.07	387.81
663.41	385.93
663.75	384.04
664.09	382.17
664.43	380.22
664.77	378.50
665.11	376.76
665.45	374.92
665.79	373.35
666.13	371.65
666.47	369.85
666.81	368.21
667.15	366.55
667.49	365.21
667.83	363.81
668.17	362.31
668.51	360.84
668.85	359.55
669.19	358.33
669.53	356.84
669.87	355.22
670.21	353.70
670.55	352.36
670.89	351.17
671.23	349.84
671.57	348.42
671.91	347.09
672.25	345.79
672.58	344.75
672.92	343.21
673.26	341.99
673.60	340.95
673.94	339.86
674.28	338.75
674.62	337.56
674.96	336.30
675.30	335.19
675.64	333.94
675.97	332.61
676.31	331.18
676.65	329.98
676.99	329.05
677.33	327.91
677.67	326.77
678.01	325.49
678.34	324.47
678.68	323.57
679.02	322.55
679.36	321.59
679.70	320.47
680.04	319.57
680.37	318.61
680.71	317.48
681.05	316.45
681.39	315.51
681.73	314.56
682.06	313.58
682.40	312.70
682.74	311.91
683.08	311.27
683.42	310.44
683.75	309.60
684.09	308.56
684.43	307.77
684.77	306.84
685.10	306.11
685.44	305.32
685.78	304.49
686.12	303.67
686.45	302.80
686.79	301.88
687.13	301.19
687.46	300.41
687.80	299.79
688.14	299.02
688.48	298.20
688.81	297.34
689.15	296.76
689.49	295.95
689.82	295.25
690.16	294.36
690.50	293.69
690.83	292.98
691.17	292.26
691.51	291.58
691.84	290.99
692.18	290.25
692.52	289.44
692.85	288.81
693.19	288.43
693.52	287.80
693.86	287.21
694.20	286.54
694.53	285.98
694.87	285.24
695.21	284.65
695.54	284.14
695.88	283.51
696.21	282.71
696.55	282.08
696.88	281.48
697.22	280.83
697.56	280.37
697.89	279.80
698.23	279.34
698.56	278.68
698.90	278.22
699.23	277.69
699.57	277.26
699.90	276.66
700.24	275.91
700.58	275.51
700.91	275.08
701.25	274.94
701.58	274.76
701.92	274.44
702.25	273.96
702.59	273.43
702.92	272.96
703.26	272.59
703.59	272.19
703.93	272.06
704.26	271.70
704.60	271.14
704.93	270.68
705.26	270.20
705.60	269.95
705.93	269.39
706.27	269.07
706.60	268.76
706.94	268.57
707.27	268.15
707.61	267.80
707.94	267.42
708.27	266.75
708.61	265.96
708.94	265.56
709.28	265.23
709.61	264.81
709.94	264.55
710.28	264.23
710.61	263.81
710.95	263.09
711.28	263.07
711.61	262.78
711.95	262.57
712.28	262.13
712.61	261.75
712.95	261.73
713.28	261.63
713.61	261.24
713.95	260.78
714.28	260.40
714.61	260.02
714.95	259.61
715.28	259.14
715.61	258.81
715.95	258.52
716.28	258.20
716.61	258.00
716.95	257.58
717.28	257.16
717.61	256.89
717.94	256.67
718.28	256.03
718.61	255.67
718.94	255.31
719.27	255.11
719.61	254.83
719.94	254.39
720.27	253.88
720.60	253.67
720.94	253.43
721.27	253.21
721.60	253.05
721.93	252.82
722.27	252.84
722.60	252.72
722.93	252.38
723.26	252.13
723.59	251.84
723.93	251.69
724.26	251.58
724.59	251.43
724.92	251.17
725.25	251.04
725.59	250.83
725.92	250.75
726.25	250.54
726.58	250.43
726.91	250.15
727.24	250.06
727.57	249.77
727.91	249.53
728.24	249.51
728.57	249.19
728.90	249.16
729.23	248.72
729.56	248.77
729.89	248.68
730.22	248.45
730.55	248.25
730.89	248.10
731.22	247.80
731.55	247.54
731.88	247.43
732.21	247.18
732.54	246.96
732.87	246.72
733.20	246.51
733.53	246.20
733.86	246.12
734.19	245.80
734.52	245.75
734.85	245.92
735.18	245.61
735.51	245.60
735.84	245.40
736.17	245.45
736.50	244.92
736.83	245.22
737.16	245.12
737.49	245.05
737.82	244.86
738.15	244.77
738.48	244.68
738.81	244.43
739.14	244.29
739.47	244.07
739.80	243.92
740.13	243.85
740.46	243.66
740.79	243.45
741.12	243.29
741.45	243.07
741.78	242.55
742.11	242.59
742.44	242.35
742.77	242.27
743.10	242.05
743.43	241.94
743.75	241.31
744.08	241.80
744.41	241.58
744.74	241.35
745.07	241.17
745.40	241.15
745.73	241.28
746.06	241.12
746.39	241.11
746.71	240.96
747.04	240.83
747.37	240.73
747.70	240.66
748.03	240.60
748.36	240.54
748.68	240.51
749.01	240.20
749.34	240.09
749.67	239.93
750.00	239.93
750.33	240.19
750.65	240.13
750.98	239.39
751.31	239.35
751.64	239.31
751.97	239.49
752.29	239.27
752.62	238.88
752.95	238.84
753.28	238.71
753.60	238.63
753.93	238.64
754.26	238.65
754.59	238.47
754.91	238.34
755.24	238.21
755.57	238.07
755.90	237.98
756.22	237.89
756.55	237.75
756.88	237.52
757.20	237.06
757.53	236.81
757.86	236.71
758.19	236.63
758.51	236.54
758.84	236.23
759.17	236.12
759.49	236.13
759.82	236.14
760.15	236.06
760.47	235.93
760.80	235.76
761.13	235.69
761.45	235.61
761.78	235.48
762.11	235.39
762.43	235.25
762.76	235.18
763.08	235.10
763.41	235.07
763.74	235.02
764.06	235.00
764.39	234.98
764.71	234.90
765.04	234.78
765.37	234.66
765.69	234.59
766.02	234.49
766.34	234.34
766.67	234.16
767.00	234.22
767.32	234.42
767.65	234.57
767.97	234.47
768.30	234.43
768.62	234.36
768.95	234.26
769.27	234.17
769.60	234.13
769.92	233.96
770.25	233.75
770.57	233.59
770.90	233.50
771.22	233.36
771.55	233.21
771.87	233.15
772.20	233.08
772.52	233.38
772.85	233.90
773.17	233.85
773.50	233.79
773.82	233.67
774.15	233.29
774.47	232.90
774.80	232.75
775.12	232.69
775.45	232.62
775.77	232.54
776.09	232.59
776.42	232.54
776.74	232.74
777.07	232.62
777.39	232.60
777.72	232.53
778.04	232.58
778.36	232.55
778.69	232.47
779.01	232.45
779.33	231.98
779.66	231.37
779.98	231.25
780.31	231.17
780.63	231.26
780.95	231.37
781.28	231.39
781.60	231.36
781.92	231.24
782.25	231.21
782.57	231.25
782.89	231.19
783.22	231.08
783.54	230.87
783.86	230.95
784.19	230.81
784.51	230.94
784.83	230.78
785.16	230.75
785.48	230.72
785.80	230.63
786.12	230.66
786.45	230.64
786.77	230.61
787.09	230.55
787.42	230.28
787.74	230.28
788.06	230.22
788.38	230.17
788.71	230.12
789.03	230.10
789.35	230.10
789.67	229.98
789.99	230.05
790.32	229.97
790.64	230.00
790.96	230.45
791.28	230.27
791.61	230.25
791.93	230.19
792.25	230.16
792.57	230.46
792.89	230.40
793.21	230.41
793.54	230.36
793.86	230.33
794.18	230.33
794.50	230.23
794.82	230.15
795.14	230.20
795.47	230.27
795.79	230.23
796.11	230.11
796.43	230.07
796.75	230.10
797.07	230.07
797.39	229.97
797.71	229.64
798.04	229.69
798.36	229.71
798.68	229.73
799.00	229.80
799.32	229.55
799.64	229.58
799.96	229.53
800.28	229.62
800.60	229.56
800.92	229.65
801.24	229.53
801.56	229.61
801.89	229.48
802.21	229.51
802.53	229.52
802.85	229.64
803.17	229.89
803.49	229.67
803.81	229.69
804.13	229.66
804.45	229.62
804.77	229.55
805.09	229.54
805.41	229.50
805.73	229.37
806.05	229.26
806.37	229.20
806.69	229.14
807.01	229.08
807.33	229.14
807.65	229.00
807.97	229.24
808.28	229.18
808.60	229.24
808.92	229.18
809.24	229.39
809.56	229.24
809.88	229.05
810.20	229.09
810.52	229.14
810.84	229.09
811.16	228.94
811.48	228.92
811.80	229.08
812.12	229.06
812.43	229.13
812.75	229.18
813.07	229.11
813.39	229.11
813.71	229.04
814.03	228.96
814.35	228.91
814.67	228.72
814.98	228.67
815.30	228.58
815.62	228.45
815.94	228.11
816.26	228.30
816.58	228.22
816.89	228.25
817.21	228.12
817.53	228.16
817.85	228.20
