SpectraSuite Data File
++++++++++++++++++++++++++++++++++++
Date: Tue Apr 02 18:36:08 EDT 2013
User: group
Dark Spectrum Present: No
Reference Spectrum Present: No
Number of Sampled Component Spectra: 1
Spectrometers: USB2E7196
Integration Time (usec): 580000 (USB2E7196)
Spectra Averaged: 2 (USB2E7196)
Boxcar Smoothing: 10 (USB2E7196)
Correct for Electrical Dark: No (USB2E7196)
Strobe/Lamp Enabled: No (USB2E7196)
Correct for Detector Non-linearity: No (USB2E7196)
Correct for Stray Light: No (USB2E7196)
Number of Pixels in Processed Spectrum: 2048
>>>>>Begin Processed Spectral Data<<<<<
339.09	0.00
339.48	191.50
339.86	192.00
340.24	195.50
340.63	201.50
341.01	226.00
341.39	204.50
341.78	207.00
342.16	211.00
342.54	204.00
342.93	197.55
343.31	207.29
343.69	208.07
344.07	208.79
344.46	209.38
344.84	209.69
345.22	208.79
345.60	209.07
345.99	209.33
346.37	209.12
346.75	209.24
347.13	209.33
347.52	209.29
347.90	209.88
348.28	209.93
348.66	210.21
349.05	209.86
349.43	210.36
349.81	210.43
350.19	210.55
350.57	210.62
350.96	210.69
351.34	210.95
351.72	210.79
352.10	210.95
352.48	210.95
352.87	211.02
353.25	211.19
353.63	211.14
354.01	211.14
354.39	211.52
354.77	211.48
355.15	212.02
355.54	211.95
355.92	211.31
356.30	211.05
356.68	212.38
357.06	212.38
357.44	211.69
357.82	211.55
358.20	212.29
358.58	212.19
358.97	212.19
359.35	212.52
359.73	213.19
360.11	213.05
360.49	213.33
360.87	213.36
361.25	213.45
361.63	214.07
362.01	214.05
362.39	213.74
362.77	213.86
363.15	213.83
363.53	213.74
363.91	213.98
364.29	214.10
364.67	212.07
365.05	212.14
365.43	212.60
365.81	212.83
366.19	212.95
366.57	213.60
366.95	213.69
367.33	213.26
367.71	213.07
368.09	213.38
368.47	213.07
368.85	212.79
369.23	213.21
369.61	212.36
369.99	213.00
370.37	213.24
370.75	214.36
371.13	213.69
371.51	213.60
371.89	213.57
372.27	213.90
372.65	214.12
373.03	214.26
373.41	214.02
373.78	214.12
374.16	213.00
374.54	212.40
374.92	212.21
375.30	212.17
375.68	211.95
376.06	212.17
376.44	212.02
376.82	212.12
377.19	211.93
377.57	211.90
377.95	211.17
378.33	210.95
378.71	209.88
379.09	210.07
379.47	210.43
379.84	210.38
380.22	210.07
380.60	209.67
380.98	209.67
381.36	209.81
381.73	209.26
382.11	209.76
382.49	209.79
382.87	209.60
383.25	209.62
383.62	211.83
384.00	211.38
384.38	211.52
384.76	212.12
385.13	213.00
385.51	213.17
385.89	213.00
386.27	213.12
386.64	213.19
387.02	213.12
387.40	212.76
387.78	212.76
388.15	212.95
388.53	213.05
388.91	213.02
389.29	212.79
389.66	213.17
390.04	212.86
390.42	213.38
390.79	213.64
391.17	213.74
391.55	211.45
391.92	211.40
392.30	211.69
392.68	211.21
393.05	210.86
393.43	210.95
393.81	211.02
394.18	210.90
394.56	211.12
394.94	211.55
395.31	211.38
395.69	212.19
396.06	212.24
396.44	212.40
396.82	212.05
397.19	213.17
397.57	213.10
397.95	213.40
398.32	212.52
398.70	212.52
399.07	212.93
399.45	212.95
399.82	212.86
400.20	212.48
400.58	212.40
400.95	211.24
401.33	211.57
401.70	212.98
402.08	213.10
402.45	212.64
402.83	212.93
403.20	212.88
403.58	212.05
403.95	212.21
404.33	212.21
404.71	212.29
405.08	212.90
405.46	212.67
405.83	212.71
406.21	212.76
406.58	212.67
406.96	212.29
407.33	212.26
407.70	212.29
408.08	213.81
408.45	213.90
408.83	214.48
409.20	213.95
409.58	212.48
409.95	212.45
410.33	212.83
410.70	211.86
411.08	212.12
411.45	212.21
411.82	211.90
412.20	212.31
412.57	213.14
412.95	211.33
413.32	211.57
413.69	211.00
414.07	210.90
414.44	210.67
414.82	210.57
415.19	210.67
415.56	210.64
415.94	209.17
416.31	209.36
416.68	209.31
417.06	209.50
417.43	210.33
417.81	210.12
418.18	209.90
418.55	210.17
418.93	210.07
419.30	210.05
419.67	210.24
420.04	209.88
420.42	209.50
420.79	211.57
421.16	211.57
421.54	213.40
421.91	213.81
422.28	213.88
422.66	213.81
423.03	215.40
423.40	215.50
423.77	215.57
424.15	215.26
424.52	215.24
424.89	215.50
425.26	214.88
425.64	214.86
426.01	214.90
426.38	214.71
426.75	215.31
427.13	215.29
427.50	215.05
427.87	214.83
428.24	214.38
428.61	212.55
428.99	213.52
429.36	211.83
429.73	211.69
430.10	212.10
430.47	212.50
430.85	210.88
431.22	211.02
431.59	213.05
431.96	213.14
432.33	213.24
432.70	213.12
433.08	213.02
433.45	213.21
433.82	213.45
434.19	213.93
434.56	214.14
434.93	213.86
435.30	213.93
435.68	214.07
436.05	214.07
436.42	214.17
436.79	214.00
437.16	214.33
437.53	214.00
437.90	213.79
438.27	214.12
438.64	213.86
439.01	213.88
439.38	212.02
439.75	212.10
440.13	211.95
440.50	211.95
440.87	211.98
441.24	211.81
441.61	211.36
441.98	211.02
442.35	210.05
442.72	210.36
443.09	211.38
443.46	211.31
443.83	211.57
444.20	211.43
444.57	210.50
444.94	210.40
445.31	210.74
445.68	213.81
446.05	213.31
446.42	213.40
446.79	214.02
447.16	213.81
447.53	214.05
447.90	214.02
448.27	213.83
448.64	214.17
449.01	214.62
449.37	215.21
449.74	215.33
450.11	218.05
450.48	217.57
450.85	216.33
451.22	216.31
451.59	216.36
451.96	216.31
452.33	216.64
452.70	216.48
453.07	216.07
453.43	213.02
453.80	213.26
454.17	213.26
454.54	212.38
454.91	212.45
455.28	212.05
455.65	211.81
456.02	215.55
456.38	215.12
456.75	215.12
457.12	214.40
457.49	214.33
457.86	211.93
458.23	213.02
458.59	213.17
458.96	213.50
459.33	213.05
459.70	213.19
460.07	213.17
460.43	213.26
460.80	213.93
461.17	214.81
461.54	214.76
461.91	214.71
462.27	214.86
462.64	214.79
463.01	215.10
463.38	216.05
463.74	212.21
464.11	211.88
464.48	211.88
464.85	211.98
465.21	212.81
465.58	213.40
465.95	212.74
466.32	213.21
466.68	212.67
467.05	213.05
467.42	213.17
467.78	213.14
468.15	213.21
468.52	213.50
468.88	212.43
469.25	212.19
469.62	212.69
469.98	212.60
470.35	212.52
470.72	212.36
471.08	211.21
471.45	211.64
471.82	212.40
472.18	212.38
472.55	212.60
472.92	211.71
473.28	210.95
473.65	210.83
474.02	210.52
474.38	210.90
474.75	211.00
475.11	210.79
475.48	210.88
475.85	210.64
476.21	209.93
476.58	210.38
476.94	210.33
477.31	210.10
477.67	210.05
478.04	210.24
478.41	210.38
478.77	212.64
479.14	212.29
479.50	212.33
479.87	212.19
480.23	211.98
480.60	212.10
480.96	212.29
481.33	213.24
481.69	212.90
482.06	213.10
482.42	213.50
482.79	213.81
483.15	213.43
483.52	213.88
483.88	213.83
484.25	213.71
484.61	213.71
484.98	213.38
485.34	214.24
485.71	214.38
486.07	214.00
486.44	211.98
486.80	211.95
487.17	211.48
487.53	211.81
487.90	212.00
488.26	212.74
488.62	213.24
488.99	212.29
489.35	212.71
489.72	212.31
490.08	211.71
490.44	211.26
490.81	211.48
491.17	211.02
491.54	211.14
491.90	211.29
492.26	211.24
492.63	211.21
492.99	210.38
493.36	210.38
493.72	210.76
494.08	210.64
494.45	210.62
494.81	211.07
495.17	210.52
495.54	210.71
495.90	209.98
496.26	209.90
496.63	210.10
496.99	209.83
497.35	209.86
497.72	209.79
498.08	209.79
498.44	210.14
498.80	210.43
499.17	210.31
499.53	210.12
499.89	210.38
500.26	210.90
500.62	211.17
500.98	211.38
501.34	211.12
501.71	211.81
502.07	212.10
502.43	211.88
502.79	211.69
503.16	211.31
503.52	211.31
503.88	210.55
504.24	210.60
504.60	210.79
504.97	211.12
505.33	211.10
505.69	211.95
506.05	211.57
506.41	211.38
506.78	211.43
507.14	211.07
507.50	210.95
507.86	210.64
508.22	210.74
508.59	210.14
508.95	210.33
509.31	211.02
509.67	210.76
510.03	210.52
510.39	210.81
510.75	210.90
511.12	210.95
511.48	211.29
511.84	211.12
512.20	211.02
512.56	210.62
512.92	210.95
513.28	210.57
513.64	210.40
514.00	210.48
514.37	210.74
514.73	211.07
515.09	211.45
515.45	211.40
515.81	211.36
516.17	211.74
516.53	211.57
516.89	210.45
517.25	210.55
517.61	211.31
517.97	211.05
518.33	211.19
518.69	211.48
519.05	211.93
519.41	212.24
519.77	213.19
520.13	213.38
520.49	212.98
520.85	212.79
521.21	213.88
521.57	214.02
521.93	213.71
522.29	213.67
522.65	213.21
523.01	213.21
523.37	212.88
523.73	212.93
524.09	213.12
524.45	213.21
524.81	213.24
525.17	213.05
525.53	213.62
525.89	213.67
526.25	213.55
526.61	212.93
526.97	212.43
527.33	211.90
527.68	213.50
528.04	213.88
528.40	213.95
528.76	213.21
529.12	212.95
529.48	213.21
529.84	213.14
530.20	213.29
530.56	213.67
530.91	214.45
531.27	214.19
531.63	214.12
531.99	213.98
532.35	213.88
532.71	213.36
533.07	213.17
533.42	215.52
533.78	215.12
534.14	215.50
534.50	215.79
534.86	216.26
535.21	215.02
535.57	215.24
535.93	214.81
536.29	216.48
536.65	216.90
537.00	216.57
537.36	216.93
537.72	216.98
538.08	217.29
538.44	216.33
538.79	216.79
539.15	216.76
539.51	217.02
539.87	217.00
540.22	217.36
540.58	217.24
540.94	215.29
541.29	215.67
541.65	215.29
542.01	215.79
542.37	215.57
542.72	215.00
543.08	214.62
543.44	214.86
543.79	212.86
544.15	213.05
544.51	213.69
544.87	213.19
545.22	213.21
545.58	212.71
545.94	213.02
546.29	212.74
546.65	212.86
547.01	212.31
547.36	212.64
547.72	212.52
548.07	212.88
548.43	212.19
548.79	211.86
549.14	211.90
549.50	211.90
549.86	211.24
550.21	211.86
550.57	212.14
550.92	212.19
551.28	213.24
551.64	213.00
551.99	212.86
552.35	212.95
552.70	212.64
553.06	212.79
553.41	212.67
553.77	213.71
554.13	213.90
554.48	214.55
554.84	214.60
555.19	214.50
555.55	215.74
555.90	216.00
556.26	216.24
556.61	216.33
556.97	215.71
557.32	215.67
557.68	215.45
558.03	215.29
558.39	215.17
558.74	214.45
559.10	214.12
559.45	213.93
559.81	213.90
560.16	213.90
560.52	213.79
560.87	214.05
561.23	213.31
561.58	214.48
561.94	214.07
562.29	213.95
562.64	214.24
563.00	212.55
563.35	212.62
563.71	212.38
564.06	212.10
564.42	212.21
564.77	212.14
565.12	212.17
565.48	213.71
565.83	214.05
566.19	213.86
566.54	213.93
566.89	214.02
567.25	214.74
567.60	215.79
567.96	217.60
568.31	218.57
568.66	219.36
569.02	217.69
569.37	217.86
569.72	218.02
570.08	217.67
570.43	217.79
570.78	217.60
571.14	217.71
571.49	218.07
571.84	218.00
572.20	218.05
572.55	217.86
572.90	216.26
573.26	215.95
573.61	215.74
573.96	215.74
574.31	215.81
574.67	215.33
575.02	214.40
575.37	212.40
575.72	211.40
576.08	210.62
576.43	210.83
576.78	210.64
577.13	210.43
577.49	210.45
577.84	210.43
578.19	210.40
578.54	210.36
578.90	210.10
579.25	210.19
579.60	210.48
579.95	210.33
580.30	210.55
580.66	210.52
581.01	210.95
581.36	210.93
581.71	210.71
582.06	211.67
582.42	211.62
582.77	211.71
583.12	211.83
583.47	211.43
583.82	211.40
584.17	211.60
584.53	212.12
584.88	212.10
585.23	213.05
585.58	213.07
585.93	213.10
586.28	213.52
586.63	213.81
586.98	213.90
587.34	214.43
587.69	214.48
588.04	214.71
588.39	214.43
588.74	214.26
589.09	214.88
589.44	213.64
589.79	213.79
590.14	213.88
590.49	213.69
590.84	213.50
591.19	213.29
591.54	213.36
591.89	212.76
592.25	214.67
592.60	213.62
592.95	213.95
593.30	214.29
593.65	213.98
594.00	213.45
594.35	218.93
594.70	218.17
595.05	218.05
595.40	218.05
595.75	218.17
596.10	218.29
596.45	217.88
596.80	218.17
597.15	218.12
597.50	217.95
597.85	218.81
598.19	219.05
598.54	219.31
598.89	218.79
599.24	219.10
599.59	217.33
599.94	217.60
600.29	217.36
600.64	217.00
600.99	217.86
601.34	218.36
601.69	212.81
602.04	212.95
602.39	212.67
602.74	213.10
603.08	213.14
603.43	214.05
603.78	213.88
604.13	213.81
604.48	213.74
604.83	214.14
605.18	213.57
605.53	213.64
605.87	213.62
606.22	213.83
606.57	213.62
606.92	213.29
607.27	213.12
607.62	212.98
607.96	213.24
608.31	212.45
608.66	212.19
609.01	212.07
609.36	212.43
609.70	212.74
610.05	212.21
610.40	212.29
610.75	211.60
611.10	211.79
611.44	211.69
611.79	211.86
612.14	211.88
612.49	211.60
612.83	211.81
613.18	211.90
613.53	212.02
613.88	212.14
614.22	212.17
614.57	212.31
614.92	212.40
615.27	212.67
615.61	212.79
615.96	212.60
616.31	212.33
616.65	212.50
617.00	212.12
617.35	211.90
617.70	211.69
618.04	211.43
618.39	211.14
618.74	211.36
619.08	211.12
619.43	210.76
619.78	210.55
620.12	210.24
620.47	210.10
620.82	210.14
621.16	209.81
621.51	211.00
621.85	210.79
622.20	211.07
622.55	210.60
622.89	210.67
623.24	211.14
623.59	211.21
623.93	211.48
624.28	212.00
624.62	214.40
624.97	215.64
625.32	215.79
625.66	215.90
626.01	215.69
626.35	216.02
626.70	215.90
627.04	216.95
627.39	217.07
627.73	217.76
628.08	217.69
628.43	217.67
628.77	216.81
629.12	216.76
629.46	216.67
629.81	216.83
630.15	216.79
630.50	216.38
630.84	216.57
631.19	216.36
631.53	215.93
631.88	213.64
632.22	212.36
632.57	212.60
632.91	212.60
633.26	212.98
633.60	212.71
633.95	212.81
634.29	212.05
634.64	212.21
634.98	211.67
635.32	212.05
635.67	212.17
636.01	212.24
636.36	212.12
636.70	212.24
637.05	212.00
637.39	211.52
637.73	211.69
638.08	211.76
638.42	211.29
638.77	211.55
639.11	211.36
639.45	211.33
639.80	211.21
640.14	211.21
640.49	210.76
640.83	210.71
641.17	210.83
641.52	210.76
641.86	210.62
642.20	211.26
642.55	210.64
642.89	210.57
643.23	210.64
643.58	211.57
643.92	211.05
644.26	211.21
644.61	211.88
644.95	212.00
645.29	211.88
645.64	212.55
645.98	212.19
646.32	212.79
646.66	212.71
647.01	212.43
647.35	212.50
647.69	213.05
648.04	213.26
648.38	213.45
648.72	213.31
649.06	213.19
649.41	212.17
649.75	212.36
650.09	212.86
650.43	212.52
650.78	211.90
651.12	211.93
651.46	212.00
651.80	211.76
652.14	211.24
652.49	211.74
652.83	211.10
653.17	211.40
653.51	210.86
653.85	211.29
654.20	211.50
654.54	211.26
654.88	210.64
655.22	211.19
655.56	210.67
655.90	210.76
656.25	210.81
656.59	211.21
656.93	211.38
657.27	211.64
657.61	211.48
657.95	211.52
658.29	211.69
658.64	212.12
658.98	211.76
659.32	212.07
659.66	211.79
660.00	212.48
660.34	212.31
660.68	212.69
661.02	212.52
661.36	212.50
661.70	212.55
662.05	212.48
662.39	212.55
662.73	213.33
663.07	214.50
663.41	214.55
663.75	214.43
664.09	214.40
664.43	213.57
664.77	213.67
665.11	213.40
665.45	213.48
665.79	213.69
666.13	213.76
666.47	213.76
666.81	213.88
667.15	213.29
667.49	213.55
667.83	214.02
668.17	213.81
668.51	213.67
668.85	214.10
669.19	215.38
669.53	214.43
669.87	214.12
670.21	213.02
670.55	212.98
670.89	213.83
671.23	213.79
671.57	214.10
671.91	214.57
672.25	214.69
672.58	215.52
672.92	214.62
673.26	214.81
673.60	214.64
673.94	214.45
674.28	214.74
674.62	214.71
674.96	214.17
675.30	214.67
675.64	214.60
675.97	214.21
676.31	213.36
676.65	213.43
676.99	214.19
677.33	213.88
677.67	214.07
678.01	212.95
678.34	212.88
678.68	213.19
679.02	212.57
679.36	212.36
679.70	211.40
680.04	211.62
680.37	211.60
680.71	211.62
681.05	211.74
681.39	211.79
681.73	211.40
682.06	211.17
682.40	210.64
682.74	211.02
683.08	211.86
683.42	211.67
683.75	212.29
684.09	211.50
684.43	211.90
684.77	211.57
685.10	211.79
685.44	211.74
685.78	211.33
686.12	211.38
686.45	211.50
686.79	211.40
687.13	211.55
687.46	211.26
687.80	211.74
688.14	211.45
688.48	211.05
688.81	211.38
689.15	212.33
689.49	212.21
689.82	211.93
690.16	210.93
690.50	211.02
690.83	210.43
691.17	209.90
691.51	209.69
691.84	209.86
692.18	209.79
692.52	210.05
692.85	210.29
693.19	211.26
693.52	211.24
693.86	211.33
694.20	211.02
694.53	211.31
694.87	210.90
695.21	210.74
695.54	210.83
695.88	210.52
696.21	209.55
696.55	209.81
696.88	209.88
697.22	209.64
697.56	209.90
697.89	209.79
698.23	210.33
698.56	210.31
698.90	210.52
699.23	210.38
699.57	210.17
699.90	210.07
700.24	209.33
700.58	209.57
700.91	209.90
701.25	211.74
701.58	212.12
701.92	212.88
702.25	213.14
702.59	213.12
702.92	213.21
703.26	213.57
703.59	213.55
703.93	215.21
704.26	215.60
704.60	215.76
704.93	215.81
705.26	215.64
705.60	216.05
705.93	215.40
706.27	215.98
706.60	216.64
706.94	217.26
707.27	217.07
707.61	217.19
707.94	216.79
708.27	215.12
708.61	214.76
708.94	214.21
709.28	214.12
709.61	213.90
709.94	214.07
710.28	214.02
710.61	213.86
710.95	212.12
711.28	213.60
711.61	213.07
711.95	213.57
712.28	213.48
712.61	213.10
712.95	214.36
713.28	215.14
713.61	214.40
713.95	213.74
714.28	213.69
714.61	213.43
714.95	213.36
715.28	213.14
715.61	212.81
715.95	213.00
716.28	212.67
716.61	213.24
716.95	212.90
717.28	212.88
717.61	213.00
717.94	213.00
718.28	211.48
718.61	211.40
718.94	211.07
719.27	210.88
719.61	211.12
719.94	210.38
720.27	209.31
720.60	209.21
720.94	209.40
721.27	209.57
721.60	209.83
721.93	209.93
722.27	210.67
722.60	211.07
722.93	210.79
723.26	211.02
723.59	210.60
723.93	211.00
724.26	210.95
724.59	210.79
724.92	210.98
725.25	211.50
725.59	211.60
725.92	211.60
726.25	211.60
726.58	211.45
726.91	211.40
727.24	211.69
727.57	211.55
727.91	211.05
728.24	211.17
728.57	210.95
728.90	211.26
729.23	210.57
729.56	211.45
729.89	211.52
730.22	211.38
730.55	211.26
730.89	211.10
731.22	211.07
731.55	211.10
731.88	210.90
732.21	210.48
732.54	210.40
732.87	210.36
733.20	210.76
733.53	210.95
733.86	211.05
734.19	210.74
734.52	211.21
734.85	212.67
735.18	212.57
735.51	213.07
735.84	213.26
736.17	214.02
736.50	212.95
736.83	215.12
737.16	215.19
737.49	215.43
737.82	215.50
738.15	215.83
738.48	215.93
738.81	216.07
739.14	215.98
739.47	215.76
739.80	215.71
740.13	215.93
740.46	215.55
740.79	215.38
741.12	215.36
741.45	214.83
741.78	213.71
742.11	214.14
742.44	213.57
742.77	213.74
743.10	213.21
743.43	213.14
743.75	211.07
744.08	213.76
744.41	213.24
744.74	212.95
745.07	212.33
745.40	212.38
745.73	212.88
746.06	212.95
746.39	213.24
746.71	213.05
747.04	212.57
747.37	212.71
747.70	213.05
748.03	213.10
748.36	213.57
748.68	213.43
749.01	212.93
749.34	212.95
749.67	212.81
750.00	213.00
750.33	214.43
750.65	214.67
750.98	212.12
751.31	212.50
751.64	212.79
751.97	213.95
752.29	213.98
752.62	213.31
752.95	213.17
753.28	213.07
753.60	213.02
753.93	213.52
754.26	213.69
754.59	213.07
754.91	212.95
755.24	212.93
755.57	212.95
755.90	213.05
756.22	213.19
756.55	212.81
756.88	212.43
757.20	211.10
757.53	210.69
757.86	210.74
758.19	210.88
758.51	210.79
758.84	209.79
759.17	209.55
759.49	209.67
759.82	210.79
760.15	211.05
760.47	211.29
760.80	210.60
761.13	210.81
761.45	210.74
761.78	210.86
762.11	210.88
762.43	210.76
762.76	210.67
763.08	210.69
763.41	210.95
763.74	211.29
764.06	211.17
764.39	211.14
764.71	210.83
765.04	210.64
765.37	210.40
765.69	210.52
766.02	210.60
766.34	210.40
766.67	209.55
767.00	209.71
767.32	210.55
767.65	211.93
767.97	211.76
768.30	212.05
768.62	212.10
768.95	211.88
769.27	211.86
769.60	211.95
769.92	211.62
770.25	211.33
770.57	210.74
770.90	211.12
771.22	211.00
771.55	211.26
771.87	211.38
772.20	211.40
772.52	213.19
772.85	215.69
773.17	215.83
773.50	215.83
773.82	215.36
774.15	214.64
774.47	213.31
774.80	213.21
775.12	213.07
775.45	212.93
775.77	212.98
776.09	213.19
776.42	213.55
776.74	214.14
777.07	214.07
777.39	214.43
777.72	214.10
778.04	214.29
778.36	214.05
778.69	214.31
779.01	214.50
779.33	212.62
779.66	210.43
779.98	210.24
780.31	210.29
780.63	211.38
780.95	211.64
781.28	211.83
781.60	211.50
781.92	211.74
782.25	211.67
782.57	211.90
782.89	211.86
783.22	211.57
783.54	211.36
783.86	211.38
784.19	211.14
784.51	211.83
784.83	211.57
785.16	211.74
785.48	211.60
785.80	211.69
786.12	212.05
786.45	212.31
786.77	212.64
787.09	212.52
787.42	211.81
787.74	212.00
788.06	212.12
788.38	212.24
788.71	212.00
789.03	212.07
789.35	212.12
789.67	211.79
789.99	212.10
790.32	211.83
790.64	212.19
790.96	214.33
791.28	213.55
791.61	213.55
791.93	213.64
792.25	213.55
792.57	215.10
792.89	214.64
793.21	214.36
793.54	214.14
793.86	213.93
794.18	213.93
