SpectraSuite Data File
++++++++++++++++++++++++++++++++++++
Date: Wed Sep 04 17:26:50 EDT 2013
User: lab3
Dark Spectrum Present: Yes
Reference Spectrum Present: No
Number of Sampled Component Spectra: 1
Spectrometers: USB2E7196
Integration Time (usec): 337000 (USB2E7196)
Spectra Averaged: 1 (USB2E7196)
Boxcar Smoothing: 10 (USB2E7196)
Correct for Electrical Dark: No (USB2E7196)
Strobe/Lamp Enabled: No (USB2E7196)
Correct for Detector Non-linearity: No (USB2E7196)
Correct for Stray Light: No (USB2E7196)
Number of Pixels in Processed Spectrum: 2048
>>>>>Begin Processed Spectral Data<<<<<
339.09	0.00
339.48	217.00
339.86	216.00
340.24	219.00
340.63	219.00
341.01	231.00
341.39	220.00
341.78	224.00
342.16	229.00
342.54	228.00
342.93	214.52
343.31	225.10
343.69	225.48
344.07	226.10
344.46	226.57
344.84	226.81
345.22	226.38
345.60	226.48
345.99	226.71
346.37	226.52
346.75	226.29
347.13	226.48
347.52	226.29
347.90	226.62
348.28	226.81
348.66	226.90
349.05	226.05
349.43	226.33
349.81	226.81
350.19	226.71
350.57	226.90
350.96	226.57
351.34	226.90
351.72	226.86
352.10	226.81
352.48	226.52
352.87	226.57
353.25	226.86
353.63	227.00
354.01	226.67
354.39	226.95
354.77	227.10
355.15	227.24
355.54	227.00
355.92	226.71
356.30	226.52
356.68	227.24
357.06	227.43
357.44	227.05
357.82	226.90
358.20	227.71
358.58	227.52
358.97	227.81
359.35	228.24
359.73	228.76
360.11	228.71
360.49	228.90
360.87	228.95
361.25	229.52
361.63	229.76
362.01	229.86
362.39	229.57
362.77	229.67
363.15	229.67
363.53	230.00
363.91	230.10
364.29	229.90
364.67	229.10
365.05	229.14
365.43	229.29
365.81	229.43
366.19	229.33
366.57	229.71
366.95	229.71
367.33	229.19
367.71	228.86
368.09	229.05
368.47	228.76
368.85	228.95
369.23	228.52
369.61	228.14
369.99	228.48
370.37	228.52
370.75	228.81
371.13	228.43
371.51	227.90
371.89	228.10
372.27	228.43
372.65	228.48
373.03	228.57
373.41	228.38
373.78	228.14
374.16	227.43
374.54	227.00
374.92	226.52
375.30	226.48
375.68	226.38
376.06	226.24
376.44	226.24
376.82	226.00
377.19	226.05
377.57	226.05
377.95	225.67
378.33	225.52
378.71	224.81
379.09	224.90
379.47	225.14
379.84	224.76
380.22	224.29
380.60	224.05
380.98	223.57
381.36	223.48
381.73	223.62
382.11	223.81
382.49	223.95
382.87	224.14
383.25	223.71
383.62	224.57
384.00	224.38
384.38	224.38
384.76	224.52
385.13	224.76
385.51	224.90
385.89	224.86
386.27	224.76
386.64	225.48
387.02	225.33
387.40	225.29
387.78	225.24
388.15	225.19
388.53	225.10
388.91	225.29
389.29	224.95
389.66	224.67
390.04	224.76
390.42	224.86
390.79	224.86
391.17	225.19
391.55	224.19
391.92	224.24
392.30	224.52
392.68	224.19
393.05	224.29
393.43	223.90
393.81	224.14
394.18	224.05
394.56	223.95
394.94	224.57
395.31	224.48
395.69	224.95
396.06	225.24
396.44	225.48
396.82	225.19
397.19	225.81
397.57	226.05
397.95	225.71
398.32	225.67
398.70	225.76
399.07	225.76
399.45	225.76
399.82	225.52
400.20	225.24
400.58	225.48
400.95	224.81
401.33	225.14
401.70	225.43
402.08	226.05
402.45	225.90
402.83	226.14
403.20	226.33
403.58	226.38
403.95	226.67
404.33	226.62
404.71	227.10
405.08	227.57
405.46	227.29
405.83	227.52
406.21	227.52
406.58	227.67
406.96	228.05
407.33	228.05
407.70	228.24
408.08	229.24
408.45	229.33
408.83	229.76
409.20	230.00
409.58	229.67
409.95	229.24
410.33	229.14
410.70	228.67
411.08	229.05
411.45	228.67
411.82	228.76
412.20	229.19
412.57	229.48
412.95	228.90
413.32	229.05
413.69	228.67
414.07	228.52
414.44	228.10
414.82	227.71
415.19	227.86
415.56	227.86
415.94	227.05
416.31	227.29
416.68	226.95
417.06	226.62
417.43	226.95
417.81	227.19
418.18	227.19
418.55	226.90
418.93	226.33
419.30	226.52
419.67	226.29
420.04	225.90
420.42	225.52
420.79	226.19
421.16	226.19
421.54	227.05
421.91	226.86
422.28	226.90
422.66	226.76
423.03	227.33
423.40	227.29
423.77	227.38
424.15	226.81
424.52	226.90
424.89	227.24
425.26	227.00
425.64	226.62
426.01	226.38
426.38	226.48
426.75	226.86
427.13	226.67
427.50	226.62
427.87	226.19
428.24	226.10
428.61	225.29
428.99	226.00
429.36	225.05
429.73	225.24
430.10	225.52
430.47	225.67
430.85	225.05
431.22	225.14
431.59	225.90
431.96	225.81
432.33	225.57
432.70	225.48
433.08	225.38
433.45	225.38
433.82	225.29
434.19	225.38
434.56	225.33
434.93	225.10
435.30	224.86
435.68	225.19
436.05	224.76
436.42	224.81
436.79	224.62
437.16	225.00
437.53	224.67
437.90	224.38
438.27	224.57
438.64	224.43
439.01	224.52
439.38	223.62
439.75	224.00
440.13	224.10
440.50	224.14
440.87	224.48
441.24	224.67
441.61	225.00
441.98	225.19
442.35	224.86
442.72	225.29
443.09	226.05
443.46	226.10
443.83	226.38
444.20	226.33
444.57	226.00
444.94	225.95
445.31	226.48
445.68	228.24
446.05	228.33
446.42	228.67
446.79	229.29
447.16	229.48
447.53	229.76
447.90	229.57
448.27	229.29
448.64	229.33
449.01	229.52
449.37	229.67
449.74	229.57
450.11	231.14
450.48	230.90
450.85	230.43
451.22	230.67
451.59	231.14
451.96	231.33
452.33	231.33
452.70	231.67
453.07	231.48
453.43	230.10
453.80	230.33
454.17	230.48
454.54	229.76
454.91	229.86
455.28	229.62
455.65	229.76
456.02	231.76
456.38	231.33
456.75	231.48
457.12	231.14
457.49	231.24
457.86	229.81
458.23	230.29
458.59	230.52
458.96	230.38
459.33	230.29
459.70	230.14
460.07	230.33
460.43	230.14
460.80	230.71
461.17	231.14
461.54	230.81
461.91	230.62
462.27	230.52
462.64	230.29
463.01	230.14
463.38	231.00
463.74	229.33
464.11	229.48
464.48	229.71
464.85	229.90
465.21	230.14
465.58	230.57
465.95	230.43
466.32	230.48
466.68	230.57
467.05	230.48
467.42	230.81
467.78	230.67
468.15	230.67
468.52	230.19
468.88	229.67
469.25	229.90
469.62	229.86
469.98	230.05
470.35	230.24
470.72	230.29
471.08	229.48
471.45	229.33
471.82	229.57
472.18	228.95
472.55	228.90
472.92	228.71
473.28	228.38
473.65	228.10
474.02	227.71
474.38	227.62
474.75	227.71
475.11	227.29
475.48	227.71
475.85	227.52
476.21	227.67
476.58	227.48
476.94	227.33
477.31	227.48
477.67	227.52
478.04	227.52
478.41	227.71
478.77	228.71
479.14	228.71
479.50	228.67
479.87	228.86
480.23	228.90
480.60	228.62
480.96	228.86
481.33	229.24
481.69	229.38
482.06	229.67
482.42	230.33
482.79	230.38
483.15	229.81
483.52	230.19
483.88	230.10
484.25	230.24
484.61	230.05
484.98	229.86
485.34	230.24
485.71	230.57
486.07	230.14
486.44	229.48
486.80	229.71
487.17	229.43
487.53	229.67
487.90	229.86
488.26	230.29
488.62	230.38
488.99	230.05
489.35	230.10
489.72	229.71
490.08	228.81
490.44	228.81
490.81	228.86
491.17	228.57
491.54	228.90
491.90	229.29
492.26	229.19
492.63	229.29
492.99	228.86
493.36	228.57
493.72	228.95
494.08	228.86
494.45	228.48
494.81	228.90
495.17	228.81
495.54	228.95
495.90	228.76
496.26	228.81
496.63	228.90
496.99	228.86
497.35	228.86
497.72	229.24
498.08	229.29
498.44	229.67
498.80	229.33
499.17	229.00
499.53	228.81
499.89	229.19
500.26	229.14
500.62	229.00
500.98	229.24
501.34	229.19
501.71	229.33
502.07	229.43
502.43	229.14
502.79	228.86
503.16	228.76
503.52	228.48
503.88	228.00
504.24	228.43
504.60	228.29
504.97	228.67
505.33	228.43
505.69	228.62
506.05	228.05
506.41	228.43
506.78	228.43
507.14	228.29
507.50	228.19
507.86	228.43
508.22	228.62
508.59	228.00
508.95	228.24
509.31	228.29
509.67	228.48
510.03	228.29
510.39	228.43
510.75	228.05
511.12	228.38
511.48	228.43
511.84	227.95
512.20	227.86
512.56	227.19
512.92	227.38
513.28	227.24
513.64	227.14
514.00	227.29
514.37	227.24
514.73	227.24
515.09	227.14
515.45	226.62
515.81	226.48
516.17	226.67
516.53	226.43
516.89	226.00
517.25	225.81
517.61	226.14
517.97	226.05
518.33	226.43
518.69	226.62
519.05	226.81
519.41	227.00
519.77	227.57
520.13	227.81
520.49	227.52
520.85	227.57
521.21	228.29
521.57	228.24
521.93	228.29
522.29	228.29
522.65	228.48
523.01	228.81
523.37	228.71
523.73	228.90
524.09	229.33
524.45	229.33
524.81	229.33
525.17	229.14
525.53	229.43
525.89	228.95
526.25	228.57
526.61	228.33
526.97	228.14
527.33	227.90
527.68	228.71
528.04	229.00
528.40	228.76
528.76	228.38
529.12	228.38
529.48	228.38
529.84	228.33
530.20	228.14
530.56	228.33
530.91	228.90
531.27	228.71
531.63	228.57
531.99	228.76
532.35	229.00
532.71	229.00
533.07	228.81
533.42	230.38
533.78	230.43
534.14	230.71
534.50	230.81
534.86	231.52
535.21	230.95
535.57	230.90
535.93	230.90
536.29	231.76
536.65	231.86
537.00	231.81
537.36	232.05
537.72	232.33
538.08	232.38
538.44	232.19
538.79	232.52
539.15	232.19
539.51	232.52
539.87	232.62
540.22	232.90
540.58	232.95
540.94	232.05
541.29	232.43
541.65	232.29
542.01	232.81
542.37	232.67
542.72	232.95
543.08	232.86
543.44	233.24
543.79	232.67
544.15	232.81
544.51	233.05
544.87	233.05
545.22	232.90
545.58	232.86
545.94	232.71
546.29	232.71
546.65	232.95
547.01	232.76
547.36	232.48
547.72	232.48
548.07	232.71
548.43	232.33
548.79	231.95
549.14	232.14
549.50	231.81
549.86	231.19
550.21	230.95
550.57	231.24
550.92	230.90
551.28	230.95
551.64	230.62
551.99	230.38
552.35	230.05
552.70	229.81
553.06	229.33
553.41	229.33
553.77	229.76
554.13	229.62
554.48	229.62
554.84	229.67
555.19	229.43
555.55	230.14
555.90	230.38
556.26	230.52
556.61	230.10
556.97	230.10
557.32	230.00
557.68	230.10
558.03	229.71
558.39	229.76
558.74	229.38
559.10	229.38
559.45	229.67
559.81	229.62
560.16	229.52
560.52	229.81
560.87	229.86
561.23	229.19
561.58	230.10
561.94	229.81
562.29	229.76
562.64	229.67
563.00	228.48
563.35	228.24
563.71	227.95
564.06	228.33
564.42	227.90
564.77	227.95
565.12	227.81
565.48	228.71
565.83	228.95
566.19	229.00
566.54	228.76
566.89	228.24
567.25	228.86
567.60	229.38
567.96	230.33
568.31	230.62
568.66	231.05
569.02	229.90
569.37	229.86
569.72	230.19
570.08	230.19
570.43	230.52
570.78	230.24
571.14	230.24
571.49	229.86
571.84	229.86
572.20	230.00
572.55	229.95
572.90	229.10
573.26	228.67
573.61	228.86
573.96	229.10
574.31	229.24
574.67	228.71
575.02	228.24
575.37	227.10
575.72	226.48
576.08	226.00
576.43	226.24
576.78	226.29
577.13	225.95
577.49	226.00
577.84	225.86
578.19	226.24
578.54	226.43
578.90	226.90
579.25	227.10
579.60	226.95
579.95	227.10
580.30	227.52
580.66	227.71
581.01	227.24
581.36	227.05
581.71	227.00
582.06	227.62
582.42	227.86
582.77	228.14
583.12	228.52
583.47	228.57
583.82	228.38
584.17	228.67
584.53	229.05
584.88	228.95
585.23	229.43
585.58	229.24
585.93	229.33
586.28	229.14
586.63	229.48
586.98	229.90
587.34	229.86
587.69	229.57
588.04	229.71
588.39	229.90
588.74	229.90
589.09	230.43
589.44	230.10
589.79	229.90
590.14	229.71
590.49	229.86
590.84	229.90
591.19	229.86
591.54	229.81
591.89	229.62
592.25	230.76
592.60	230.52
592.95	230.67
593.30	230.62
593.65	230.81
594.00	230.29
594.35	232.81
594.70	232.57
595.05	232.62
595.40	232.57
595.75	232.76
596.10	233.14
596.45	232.81
596.80	232.95
597.15	233.19
597.50	233.14
597.85	233.05
598.19	232.95
598.54	233.38
598.89	233.19
599.24	232.95
599.59	231.90
599.94	231.57
600.29	231.38
600.64	231.52
600.99	231.62
601.34	231.86
601.69	229.10
602.04	229.14
602.39	228.86
602.74	229.05
603.08	228.86
603.43	229.00
603.78	229.14
604.13	228.71
604.48	228.67
604.83	228.95
605.18	228.95
605.53	229.29
605.87	229.29
606.22	229.33
606.57	229.67
606.92	229.81
607.27	230.38
607.62	230.90
607.96	230.95
608.31	230.95
608.66	231.57
609.01	231.81
609.36	232.33
609.70	232.57
610.05	232.81
610.40	232.95
610.75	232.76
611.10	232.90
611.44	233.29
611.79	233.48
612.14	233.43
612.49	233.38
612.83	233.19
613.18	233.14
613.53	233.29
613.88	233.14
614.22	232.86
614.57	232.62
614.92	232.29
615.27	232.05
615.61	231.67
615.96	230.90
616.31	230.43
616.65	230.05
617.00	230.00
617.35	229.57
617.70	229.38
618.04	229.05
618.39	229.00
618.74	228.76
619.08	228.38
619.43	228.33
619.78	228.38
620.12	228.10
620.47	227.86
620.82	227.86
621.16	227.86
621.51	228.38
621.85	228.29
622.20	228.19
622.55	228.33
622.89	228.43
623.24	228.19
623.59	227.90
623.93	228.14
624.28	228.10
624.62	229.10
624.97	229.71
625.32	229.86
625.66	229.71
626.01	229.52
626.35	229.62
626.70	229.48
627.04	229.33
627.39	229.57
627.73	229.81
628.08	229.57
628.43	229.43
628.77	229.05
629.12	228.86
629.46	228.71
629.81	228.76
630.15	228.57
630.50	228.62
630.84	228.86
631.19	228.67
631.53	228.71
631.88	227.62
632.22	227.00
632.57	226.95
632.91	226.71
633.26	226.95
633.60	226.95
633.95	227.19
634.29	226.76
634.64	226.62
634.98	226.14
635.32	226.19
635.67	226.10
636.01	226.38
636.36	226.19
636.70	226.71
637.05	226.29
637.39	226.05
637.73	226.29
638.08	226.48
638.42	226.19
638.77	226.33
639.11	226.24
639.45	225.81
639.80	225.90
640.14	225.86
640.49	225.81
640.83	225.52
641.17	225.52
641.52	225.71
641.86	225.67
642.20	226.24
642.55	226.00
642.89	225.95
643.23	225.76
643.58	226.24
643.92	225.67
644.26	225.95
644.61	226.29
644.95	226.33
645.29	226.19
645.64	226.95
645.98	226.67
646.32	226.86
646.66	227.33
647.01	227.29
647.35	227.81
647.69	227.71
648.04	228.00
648.38	227.95
648.72	228.38
649.06	228.29
649.41	227.86
649.75	228.05
650.09	228.38
650.43	228.14
650.78	227.71
651.12	227.81
651.46	227.52
651.80	227.62
652.14	227.48
652.49	227.76
652.83	226.95
653.17	227.29
653.51	227.29
653.85	227.33
654.20	227.33
654.54	226.90
654.88	226.81
655.22	227.19
655.56	227.10
655.90	226.95
656.25	227.24
656.59	227.33
656.93	227.33
657.27	227.43
657.61	227.67
657.95	227.76
658.29	228.00
658.64	228.24
658.98	227.76
659.32	227.81
659.66	227.71
660.00	228.19
660.34	227.90
660.68	227.71
661.02	227.95
661.36	228.00
661.70	227.86
662.05	227.95
662.39	227.81
662.73	228.29
663.07	228.67
663.41	228.76
663.75	228.90
664.09	229.05
664.43	228.86
664.77	228.81
665.11	229.05
665.45	228.95
665.79	229.24
666.13	229.62
666.47	229.62
666.81	229.48
667.15	228.95
667.49	229.10
667.83	229.67
668.17	229.57
668.51	229.24
668.85	229.67
669.19	230.14
669.53	229.86
669.87	229.38
670.21	229.00
670.55	228.81
670.89	229.33
671.23	229.10
671.57	229.00
671.91	229.10
672.25	229.10
672.58	229.29
672.92	228.95
673.26	229.05
673.60	229.33
673.94	229.24
674.28	229.57
674.62	229.71
674.96	229.14
675.30	229.19
675.64	229.76
675.97	229.76
676.31	229.57
676.65	229.62
676.99	229.95
677.33	229.67
677.67	229.86
678.01	229.19
678.34	229.29
678.68	229.48
679.02	228.95
679.36	228.67
679.70	228.43
680.04	228.29
680.37	228.14
680.71	227.67
681.05	227.81
681.39	227.81
681.73	227.57
682.06	227.67
682.40	227.33
682.74	227.33
683.08	227.38
683.42	227.29
683.75	227.29
684.09	226.81
684.43	227.00
684.77	226.86
685.10	226.90
685.44	226.81
685.78	226.33
686.12	226.52
686.45	226.67
686.79	226.43
687.13	226.48
687.46	226.33
687.80	226.81
688.14	226.71
688.48	226.90
688.81	227.14
689.15	227.24
689.49	227.57
689.82	227.52
690.16	227.19
690.50	227.19
690.83	227.19
691.17	227.29
691.51	227.29
691.84	227.29
692.18	227.05
692.52	227.24
692.85	227.81
693.19	228.38
693.52	228.24
693.86	228.43
694.20	228.81
694.53	228.90
694.87	228.57
695.21	228.62
695.54	228.33
695.88	228.10
696.21	228.05
696.55	227.71
696.88	227.57
697.22	227.48
697.56	227.52
697.89	227.43
698.23	227.48
698.56	227.57
698.90	227.76
699.23	228.14
699.57	228.19
699.90	227.90
700.24	227.76
700.58	227.95
700.91	228.38
701.25	229.05
701.58	229.81
701.92	229.86
702.25	229.52
702.59	229.52
702.92	229.57
703.26	229.67
703.59	229.71
703.93	230.62
704.26	231.00
704.60	231.14
704.93	231.24
705.26	231.29
705.60	231.43
705.93	231.19
706.27	231.29
706.60	231.48
706.94	232.00
707.27	231.81
707.61	231.76
707.94	231.71
708.27	230.95
708.61	230.10
708.94	230.24
709.28	230.57
709.61	230.52
709.94	230.57
710.28	230.33
710.61	230.62
710.95	229.57
711.28	230.05
711.61	229.67
711.95	229.71
712.28	229.67
712.61	229.57
712.95	230.33
713.28	230.62
713.61	230.67
713.95	230.52
714.28	230.62
714.61	230.48
714.95	230.19
715.28	229.81
715.61	230.00
715.95	229.81
716.28	229.86
716.61	230.00
716.95	229.76
717.28	229.95
717.61	229.90
717.94	229.81
718.28	229.24
718.61	229.19
718.94	229.10
719.27	228.86
719.61	228.86
719.94	228.14
720.27	227.71
720.60	227.05
720.94	226.62
721.27	226.33
721.60	226.52
721.93	226.48
722.27	226.90
722.60	226.62
722.93	226.57
723.26	226.57
723.59	226.24
723.93	226.38
724.26	226.14
724.59	226.00
724.92	226.10
725.25	226.14
725.59	226.10
725.92	226.38
726.25	226.14
726.58	226.00
726.91	226.05
727.24	226.05
727.57	226.24
727.91	226.14
728.24	226.19
728.57	226.05
728.90	225.95
729.23	225.67
729.56	226.24
729.89	226.38
730.22	226.19
730.55	226.33
730.89	226.14
731.22	226.29
731.55	226.10
731.88	226.24
732.21	225.81
732.54	225.62
732.87	225.14
733.20	225.33
733.53	225.43
733.86	225.38
734.19	225.19
734.52	225.10
734.85	225.95
735.18	225.86
735.51	225.95
735.84	225.95
736.17	226.52
736.50	226.05
736.83	226.67
737.16	226.76
737.49	227.00
737.82	227.05
738.15	227.19
738.48	226.71
738.81	226.52
739.14	226.57
739.47	226.57
739.80	226.86
740.13	227.05
740.46	226.48
740.79	226.14
741.12	226.00
741.45	226.24
741.78	225.67
742.11	226.05
742.44	226.10
742.77	226.33
743.10	225.90
743.43	226.05
743.75	225.38
744.08	227.00
744.41	226.62
744.74	226.90
745.07	226.76
745.40	227.57
745.73	227.76
746.06	228.00
746.39	228.48
746.71	228.05
747.04	228.00
747.37	228.24
747.70	228.48
748.03	228.57
748.36	228.48
748.68	228.57
749.01	228.14
749.34	228.10
749.67	228.14
750.00	228.10
750.33	228.76
750.65	229.10
750.98	227.67
751.31	227.62
751.64	227.43
751.97	227.86
752.29	227.62
752.62	227.43
752.95	227.38
753.28	226.86
753.60	227.29
753.93	227.67
754.26	227.76
754.59	227.76
754.91	228.00
755.24	228.24
755.57	228.10
755.90	228.19
756.22	228.10
756.55	227.86
756.88	227.90
757.20	227.48
757.53	227.24
757.86	226.86
758.19	227.33
758.51	227.57
758.84	226.86
759.17	226.90
759.49	227.24
759.82	227.76
760.15	228.14
760.47	227.62
760.80	227.00
761.13	227.24
761.45	227.05
761.78	227.05
762.11	227.05
762.43	226.90
762.76	227.10
763.08	227.05
763.41	227.33
763.74	227.24
764.06	227.14
764.39	226.90
764.71	227.10
765.04	226.86
765.37	226.43
765.69	226.71
766.02	226.71
766.34	226.24
766.67	225.86
767.00	226.00
767.32	226.90
767.65	228.05
767.97	227.95
768.30	228.33
768.62	228.24
768.95	227.90
769.27	227.86
769.60	227.71
769.92	227.38
770.25	226.95
770.57	226.81
770.90	226.29
771.22	226.10
771.55	225.95
771.87	225.86
772.20	225.81
772.52	226.52
772.85	227.62
773.17	227.67
773.50	227.33
773.82	226.86
774.15	226.00
774.47	225.19
774.80	224.90
775.12	224.29
775.45	224.19
775.77	224.10
776.09	224.29
776.42	224.14
776.74	224.81
777.07	224.62
777.39	224.52
777.72	224.71
778.04	225.10
778.36	225.05
778.69	225.19
779.01	225.14
779.33	224.38
779.66	223.10
779.98	223.24
780.31	223.38
780.63	223.81
780.95	224.10
781.28	223.90
781.60	223.95
781.92	223.95
782.25	223.95
782.57	223.95
782.89	223.71
783.22	223.67
783.54	223.33
783.86	223.52
784.19	223.52
784.51	224.19
784.83	223.86
785.16	223.86
785.48	223.95
785.80	224.14
786.12	224.19
786.45	224.19
786.77	223.90
787.09	223.71
787.42	223.38
787.74	223.29
788.06	223.29
788.38	223.29
788.71	223.76
789.03	223.76
789.35	224.24
789.67	224.24
789.99	224.57
790.32	224.86
790.64	224.86
790.96	225.81
791.28	225.29
791.61	225.57
791.93	225.71
792.25	225.52
792.57	226.29
792.89	226.05
793.21	226.24
793.54	226.48
793.86	226.52
794.18	226.76
794.50	226.81
794.82	226.86
795.14	227.48
795.47	227.62
795.79	228.00
796.11	227.62
796.43	227.76
796.75	227.67
797.07	227.57
797.39	227.57
797.71	227.14
798.04	227.33
798.36	227.24
798.68	227.38
799.00	227.43
799.32	226.81
799.64	227.05
799.96	227.19
800.28	227.57
800.60	227.71
800.92	228.05
801.24	228.19
801.56	228.67
801.89	228.48
802.21	228.52
802.53	228.10
802.85	228.43
803.17	228.76
803.49	228.57
803.81	228.43
804.13	228.29
804.45	228.00
804.77	228.05
805.09	228.29
805.41	228.29
805.73	227.95
806.05	227.71
806.37	227.95
806.69	227.81
807.01	227.43
807.33	227.43
807.65	226.86
807.97	227.48
808.28	226.95
808.60	226.71
808.92	226.71
809.24	227.52
809.56	227.24
809.88	227.14
810.20	227.38
810.52	227.81
810.84	227.86
811.16	227.67
811.48	227.67
811.80	228.29
812.12	228.10
812.43	228.57
812.75	229.00
813.07	228.76
813.39	228.95
813.71	229.33
814.03	229.48
814.35	229.57
814.67	228.76
814.98	228.71
815.30	228.67
815.62	228.38
815.94	227.29
816.26	227.57
816.58	227.19
816.89	227.10
817.21	226.24
817.53	226.52
817.85	226.67
818.17	226.38
818.48	225.48
818.80	225.86
819.12	225.71
819.44	225.24
819.76	224.86
820.07	224.52
820.39	224.05
820.71	223.95
821.03	224.10
821.34	224.10
821.66	224.14
821.98	224.10
822.30	223.86
822.61	224.43
822.93	223.76
823.25	223.43
823.57	223.48
823.88	224.10
824.20	224.00
