SpectraSuite Data File
++++++++++++++++++++++++++++++++++++
Date: Wed Sep 04 17:30:25 EDT 2013
User: lab3
Dark Spectrum Present: Yes
Reference Spectrum Present: No
Number of Sampled Component Spectra: 1
Spectrometers: USB2E7196
Integration Time (usec): 337000 (USB2E7196)
Spectra Averaged: 10 (USB2E7196)
Boxcar Smoothing: 10 (USB2E7196)
Correct for Electrical Dark: No (USB2E7196)
Strobe/Lamp Enabled: No (USB2E7196)
Correct for Detector Non-linearity: No (USB2E7196)
Correct for Stray Light: No (USB2E7196)
Number of Pixels in Processed Spectrum: 2048
>>>>>Begin Processed Spectral Data<<<<<
339.09	0.00
339.48	213.30
339.86	215.70
340.24	215.50
340.63	217.20
341.01	234.00
341.39	221.20
341.78	222.80
342.16	223.60
342.54	224.40
342.93	213.57
343.31	224.23
343.69	224.80
344.07	225.19
344.46	225.80
344.84	226.26
345.22	225.83
345.60	226.04
345.99	226.26
346.37	226.34
346.75	226.34
347.13	226.51
347.52	226.65
347.90	226.86
348.28	226.83
348.66	227.02
349.05	226.74
349.43	226.88
349.81	226.90
350.19	226.85
350.57	226.99
350.96	227.01
351.34	227.22
351.72	227.27
352.10	227.40
352.48	227.32
352.87	227.34
353.25	227.38
353.63	227.42
354.01	227.43
354.39	227.58
354.77	227.72
355.15	228.00
355.54	227.97
355.92	227.90
356.30	227.92
356.68	228.61
357.06	228.78
357.44	228.62
357.82	228.53
358.20	229.47
358.58	229.43
358.97	229.54
359.35	229.78
359.73	229.97
360.11	229.92
360.49	230.00
360.87	230.04
361.25	230.25
361.63	230.75
362.01	230.88
362.39	230.81
362.77	230.90
363.15	230.83
363.53	230.87
363.91	230.89
364.29	230.91
364.67	230.07
365.05	230.04
365.43	230.17
365.81	230.60
366.19	230.31
366.57	230.71
366.95	230.67
367.33	230.45
367.71	230.48
368.09	230.67
368.47	230.72
368.85	230.69
369.23	230.95
369.61	230.45
369.99	230.80
370.37	230.98
370.75	231.36
371.13	231.12
371.51	231.03
371.89	231.07
372.27	231.20
372.65	231.20
373.03	231.17
373.41	231.13
373.78	230.78
374.16	230.24
374.54	229.87
374.92	229.88
375.30	229.78
375.68	229.60
376.06	229.74
376.44	229.54
376.82	229.62
377.19	229.34
377.57	229.24
377.95	228.81
378.33	228.79
378.71	228.24
379.09	228.40
379.47	228.43
379.84	228.14
380.22	227.87
380.60	227.68
380.98	227.63
381.36	227.54
381.73	227.43
382.11	227.50
382.49	227.44
382.87	227.18
383.25	227.19
383.62	228.16
384.00	227.76
384.38	227.76
384.76	227.79
385.13	228.18
385.51	228.17
385.89	228.02
386.27	227.86
386.64	228.00
387.02	227.86
387.40	227.71
387.78	227.84
388.15	227.90
388.53	227.72
388.91	227.69
389.29	227.67
389.66	227.78
390.04	227.70
390.42	227.84
390.79	227.89
391.17	227.88
391.55	226.81
391.92	226.89
392.30	227.07
392.68	226.88
393.05	226.70
393.43	226.85
393.81	226.85
394.18	226.84
394.56	226.76
394.94	226.92
395.31	226.85
395.69	227.22
396.06	227.35
396.44	227.55
396.82	227.48
397.19	228.10
397.57	228.06
397.95	228.26
398.32	228.18
398.70	228.36
399.07	228.64
399.45	228.77
399.82	228.94
400.20	228.81
400.58	228.91
400.95	228.77
401.33	229.04
401.70	229.90
402.08	229.95
402.45	230.22
402.83	230.59
403.20	231.00
403.58	231.04
403.95	231.56
404.33	232.00
404.71	232.41
405.08	233.13
405.46	233.55
405.83	234.03
406.21	234.45
406.58	234.90
406.96	235.28
407.33	235.87
407.70	236.51
408.08	237.93
408.45	238.68
408.83	239.54
409.20	240.10
409.58	240.31
409.95	241.36
410.33	242.16
410.70	242.83
411.08	243.85
411.45	244.88
411.82	245.73
412.20	246.95
412.57	248.74
412.95	249.13
413.32	250.64
413.69	251.97
414.07	253.47
414.44	255.13
414.82	256.88
415.19	258.95
415.56	260.93
415.94	262.57
416.31	265.10
416.68	267.50
417.06	270.41
417.43	273.31
417.81	276.41
418.18	279.70
418.55	283.06
418.93	286.57
419.30	290.34
419.67	294.34
420.04	298.42
420.42	302.53
420.79	308.19
421.16	313.20
421.54	318.65
421.91	324.02
422.28	329.58
422.66	335.54
423.03	341.99
423.40	348.18
423.77	354.66
424.15	361.16
424.52	368.16
424.89	375.94
425.26	383.21
425.64	390.16
426.01	397.83
426.38	405.86
426.75	414.32
427.13	422.70
427.50	431.36
427.87	440.37
428.24	449.38
428.61	457.57
428.99	467.36
429.36	477.48
429.73	487.82
430.10	498.30
430.47	509.05
430.85	519.39
431.22	530.72
431.59	543.57
431.96	555.56
432.33	568.53
432.70	581.05
433.08	595.90
433.45	610.09
433.82	624.09
434.19	639.89
434.56	655.29
434.93	670.20
435.30	685.48
435.68	702.19
436.05	718.52
436.42	734.88
436.79	750.06
437.16	766.78
437.53	784.18
437.90	801.38
438.27	818.38
438.64	836.17
439.01	852.88
439.38	867.70
439.75	882.24
440.13	898.73
440.50	913.87
440.87	926.67
441.24	939.93
441.61	954.43
441.98	965.43
442.35	977.97
442.72	990.71
443.09	1003.24
443.46	1011.00
443.83	1016.79
444.20	1021.73
444.57	1028.03
444.94	1031.18
445.31	1034.57
445.68	1038.60
446.05	1040.22
446.42	1038.98
446.79	1037.69
447.16	1035.34
447.53	1033.97
447.90	1028.01
448.27	1022.25
448.64	1013.72
449.01	1007.63
449.37	996.87
449.74	985.94
450.11	973.45
450.48	959.29
450.85	944.45
451.22	932.10
451.59	919.98
451.96	908.55
452.33	893.51
452.70	879.86
453.07	863.34
453.43	845.94
453.80	830.07
454.17	814.72
454.54	800.09
454.91	784.76
455.28	769.24
455.65	754.92
456.02	741.91
456.38	729.90
456.75	714.91
457.12	702.16
457.49	690.06
457.86	677.90
458.23	667.95
458.59	656.79
458.96	645.50
459.33	635.63
459.70	625.86
460.07	618.07
460.43	609.00
460.80	600.90
461.17	593.66
461.54	585.70
461.91	578.25
462.27	570.61
462.64	564.14
463.01	557.54
463.38	551.15
463.74	543.17
464.11	537.06
464.48	532.00
464.85	526.60
465.21	522.48
465.58	517.72
465.95	512.06
466.32	507.77
466.68	503.41
467.05	499.09
467.42	494.76
467.78	490.03
468.15	485.70
468.52	482.53
468.88	478.24
469.25	474.41
469.62	471.80
469.98	468.57
470.35	465.56
470.72	462.60
471.08	459.25
471.45	456.80
471.82	454.38
472.18	451.35
472.55	449.20
472.92	446.50
473.28	444.54
473.65	442.43
474.02	440.06
474.38	438.32
474.75	436.77
475.11	434.86
475.48	433.77
475.85	432.50
476.21	431.11
476.58	430.04
476.94	429.31
477.31	428.20
477.67	427.34
478.04	426.62
478.41	426.02
478.77	426.36
479.14	425.49
479.50	425.21
479.87	425.27
480.23	425.24
480.60	425.06
480.96	424.80
481.33	425.28
481.69	425.60
482.06	425.78
482.42	425.95
482.79	426.22
483.15	426.79
483.52	427.65
483.88	428.05
484.25	428.78
484.61	429.60
484.98	430.31
485.34	431.73
485.71	433.07
486.07	434.32
486.44	434.78
486.80	436.40
487.17	437.77
487.53	439.49
487.90	441.34
488.26	443.59
488.62	445.85
488.99	447.55
489.35	449.82
489.72	452.11
490.08	454.73
490.44	457.24
490.81	459.83
491.17	462.41
491.54	465.64
491.90	468.61
492.26	471.83
492.63	475.10
492.99	478.34
493.36	481.76
493.72	485.75
494.08	489.70
494.45	493.86
494.81	498.26
495.17	502.45
495.54	506.77
495.90	511.04
496.26	515.49
496.63	520.40
496.99	525.12
497.35	530.18
497.72	535.12
498.08	540.47
498.44	545.85
498.80	551.60
499.17	556.85
499.53	562.22
499.89	567.98
500.26	573.93
500.62	579.23
500.98	585.08
501.34	590.71
501.71	596.45
502.07	602.30
502.43	608.27
502.79	614.20
503.16	620.20
503.52	626.20
503.88	632.21
504.24	638.27
504.60	644.52
504.97	651.03
505.33	657.44
505.69	664.03
506.05	670.30
506.41	676.59
506.78	682.98
507.14	689.43
507.50	695.70
507.86	701.87
508.22	708.22
508.59	714.44
508.95	720.79
509.31	727.43
509.67	733.52
510.03	739.26
510.39	745.22
510.75	751.10
511.12	756.84
511.48	762.65
511.84	768.22
512.20	773.57
512.56	778.85
512.92	784.10
513.28	789.27
513.64	794.36
514.00	799.24
514.37	804.37
514.73	809.60
515.09	814.41
515.45	818.80
515.81	823.62
516.17	828.13
516.53	832.48
516.89	836.38
517.25	840.77
517.61	845.49
517.97	850.18
518.33	854.45
518.69	858.90
519.05	863.24
519.41	867.71
519.77	872.45
520.13	876.23
520.49	879.93
520.85	886.46
521.21	890.46
521.57	894.19
521.93	897.15
522.29	900.62
522.65	903.61
523.01	907.04
523.37	909.68
523.73	912.65
524.09	915.30
524.45	918.20
524.81	920.76
525.17	923.34
525.53	925.84
525.89	928.27
526.25	930.55
526.61	932.51
526.97	934.76
527.33	937.23
527.68	940.79
528.04	943.79
528.40	943.54
528.76	946.18
529.12	948.78
529.48	952.00
529.84	954.39
530.20	957.66
530.56	960.80
530.91	964.22
531.27	967.02
531.63	970.21
531.99	973.07
532.35	976.35
532.71	979.33
533.07	982.52
533.42	986.91
533.78	990.39
534.14	994.00
534.50	997.12
534.86	1000.21
535.21	1002.25
535.57	1005.49
535.93	1008.42
536.29	1011.41
536.65	1014.61
537.00	1017.40
537.36	1020.43
537.72	1023.05
538.08	1026.07
538.44	1028.94
538.79	1032.15
539.15	1035.26
539.51	1038.55
539.87	1041.22
540.22	1043.80
540.58	1046.53
540.94	1048.17
541.29	1050.46
541.65	1052.54
542.01	1055.33
542.37	1057.65
542.72	1059.87
543.08	1061.26
543.44	1063.98
543.79	1065.68
544.15	1068.11
544.51	1070.82
544.87	1073.00
545.22	1074.78
545.58	1076.41
545.94	1078.25
546.29	1079.90
546.65	1081.57
547.01	1083.05
547.36	1084.96
547.72	1086.87
548.07	1088.25
548.43	1089.80
548.79	1091.77
549.14	1093.80
549.50	1095.59
549.86	1096.82
550.21	1098.89
550.57	1101.05
550.92	1102.00
551.28	1103.89
551.64	1105.41
551.99	1106.87
552.35	1108.60
552.70	1110.60
553.06	1112.59
553.41	1114.30
553.77	1117.09
554.13	1118.73
554.48	1120.56
554.84	1122.27
555.19	1123.72
555.55	1126.29
555.90	1127.78
556.26	1128.77
556.61	1129.83
556.97	1130.22
557.32	1131.60
557.68	1132.68
558.03	1134.22
558.39	1135.57
558.74	1136.68
559.10	1137.15
559.45	1137.60
559.81	1138.29
560.16	1139.17
560.52	1139.49
560.87	1140.28
561.23	1140.07
561.58	1141.39
561.94	1141.58
562.29	1141.92
562.64	1142.47
563.00	1141.72
563.35	1142.68
563.71	1143.59
564.06	1144.19
564.42	1145.23
564.77	1146.00
565.12	1146.59
565.48	1148.17
565.83	1149.27
566.19	1150.10
566.54	1150.82
566.89	1151.96
567.25	1152.68
567.60	1153.87
567.96	1155.75
568.31	1156.31
568.66	1156.97
569.02	1156.27
569.37	1156.56
569.72	1156.95
570.08	1157.02
570.43	1157.13
570.78	1156.44
571.14	1155.89
571.49	1155.61
571.84	1155.13
572.20	1154.78
572.55	1154.10
572.90	1152.01
573.26	1150.87
573.61	1149.40
573.96	1148.68
574.31	1147.03
574.67	1145.49
575.02	1142.91
575.37	1140.16
575.72	1138.28
576.08	1136.39
576.43	1134.66
576.78	1132.80
577.13	1130.50
577.49	1128.46
577.84	1126.68
578.19	1125.03
578.54	1123.23
578.90	1121.42
579.25	1119.75
579.60	1117.48
579.95	1115.37
580.30	1113.28
580.66	1110.76
581.01	1108.46
581.36	1105.37
581.71	1103.17
582.06	1101.15
582.42	1099.01
582.77	1096.56
583.12	1094.47
583.47	1092.17
583.82	1090.20
584.17	1087.95
584.53	1086.38
584.88	1084.05
585.23	1081.49
585.58	1078.52
585.93	1075.76
586.28	1073.03
586.63	1069.96
586.98	1066.87
587.34	1064.25
587.69	1061.07
588.04	1058.63
588.39	1056.04
588.74	1053.31
589.09	1050.70
589.44	1047.20
589.79	1044.47
590.14	1042.06
590.49	1039.09
590.84	1036.11
591.19	1033.14
591.54	1030.40
591.89	1026.86
592.25	1025.10
592.60	1022.13
592.95	1019.38
593.30	1016.20
593.65	1012.66
594.00	1009.26
594.35	1008.94
594.70	1005.25
595.05	1001.90
595.40	998.32
595.75	994.53
596.10	991.58
596.45	988.32
596.80	985.33
597.15	981.73
597.50	977.94
597.85	974.75
598.19	971.20
598.54	967.51
598.89	963.64
599.24	960.42
599.59	956.00
599.94	952.59
600.29	949.24
600.64	946.02
600.99	942.61
601.34	939.58
601.69	933.52
602.04	930.45
602.39	927.59
602.74	924.70
603.08	921.70
603.43	918.82
603.78	915.47
604.13	911.93
604.48	908.92
604.83	905.27
605.18	901.70
605.53	898.53
605.87	895.28
606.22	892.41
606.57	888.86
606.92	885.33
607.27	882.02
607.62	878.60
607.96	875.39
608.31	872.33
608.66	869.05
609.01	865.51
609.36	862.28
609.70	858.77
610.05	854.98
610.40	851.75
610.75	847.70
611.10	844.01
611.44	840.52
611.79	836.86
612.14	833.72
612.49	830.30
612.83	826.92
613.18	823.50
613.53	819.92
613.88	816.29
614.22	812.54
614.57	808.59
614.92	804.92
615.27	801.27
615.61	797.80
615.96	794.08
616.31	790.60
616.65	787.28
617.00	783.55
617.35	780.20
617.70	776.60
618.04	773.20
618.39	769.60
618.74	766.60
619.08	763.04
619.43	759.37
619.78	755.55
620.12	751.59
620.47	747.91
620.82	744.14
621.16	740.49
621.51	737.65
621.85	734.52
622.20	731.16
622.55	727.71
622.89	724.05
623.24	720.73
623.59	717.32
623.93	713.67
624.28	710.46
624.62	708.13
624.97	705.39
625.32	702.04
625.66	698.83
626.01	694.93
626.35	691.84
626.70	688.65
627.04	685.71
627.39	682.37
627.73	679.69
628.08	676.65
628.43	673.61
628.77	669.97
629.12	666.74
629.46	663.78
629.81	661.15
630.15	658.30
630.50	655.05
630.84	652.04
631.19	649.08
631.53	646.15
631.88	641.96
632.22	638.14
632.57	635.39
632.91	632.25
633.26	629.66
633.60	626.44
633.95	623.41
634.29	620.02
634.64	617.30
634.98	613.92
635.32	611.19
635.67	608.64
636.01	605.93
636.36	602.88
636.70	600.04
637.05	596.74
637.39	593.96
637.73	591.39
638.08	588.85
638.42	585.77
638.77	582.82
639.11	579.80
639.45	576.91
639.80	573.74
640.14	570.94
640.49	568.00
640.83	565.27
641.17	562.89
641.52	560.13
641.86	557.51
642.20	555.36
642.55	552.64
642.89	549.69
643.23	546.95
643.58	544.88
643.92	541.83
644.26	539.33
644.61	537.02
644.95	534.48
645.29	531.60
645.64	529.27
645.98	526.62
646.32	524.33
646.66	521.83
647.01	519.38
647.35	517.09
647.69	514.67
648.04	512.54
648.38	509.87
648.72	507.70
649.06	504.98
649.41	502.07
649.75	499.32
650.09	497.03
650.43	494.61
650.78	491.75
651.12	489.51
651.46	487.03
651.80	484.31
652.14	481.92
652.49	479.91
652.83	477.53
653.17	475.25
653.51	472.78
653.85	470.82
654.20	468.84
654.54	466.54
654.88	464.21
655.22	462.35
655.56	460.20
655.90	458.21
656.25	456.32
656.59	454.42
656.93	452.53
657.27	450.83
657.61	448.64
657.95	446.80
658.29	444.78
658.64	442.99
658.98	440.96
659.32	438.78
659.66	436.53
660.00	434.63
660.34	432.86
660.68	431.00
661.02	429.04
661.36	426.93
661.70	424.95
662.05	423.16
662.39	421.03
662.73	419.53
663.07	418.09
663.41	416.34
663.75	414.24
664.09	412.52
664.43	410.33
664.77	408.73
665.11	406.93
665.45	405.29
665.79	403.59
666.13	401.92
666.47	400.32
666.81	398.73
667.15	396.98
667.49	395.54
667.83	394.25
668.17	392.74
668.51	391.30
668.85	390.01
669.19	389.08
669.53	387.59
669.87	385.79
670.21	384.01
670.55	382.51
670.89	381.61
671.23	380.07
671.57	378.65
671.91	377.40
672.25	376.16
672.58	375.12
672.92	373.41
673.26	372.24
673.60	370.96
673.94	369.82
674.28	368.78
674.62	367.63
674.96	366.30
675.30	365.15
675.64	363.98
675.97	362.64
676.31	361.01
676.65	359.49
676.99	358.59
677.33	357.18
677.67	356.04
678.01	354.33
678.34	353.22
678.68	352.40
679.02	351.01
679.36	349.73
679.70	348.47
680.04	347.56
680.37	346.40
680.71	345.40
681.05	344.31
681.39	343.22
681.73	341.94
682.06	340.91
682.40	339.74
682.74	338.74
683.08	338.01
683.42	336.96
683.75	336.20
684.09	334.89
684.43	334.01
684.77	332.96
685.10	332.09
685.44	331.15
685.78	329.89
686.12	329.07
686.45	328.07
686.79	326.99
687.13	326.21
687.46	325.22
687.80	324.49
688.14	323.49
688.48	322.55
688.81	321.69
689.15	320.85
689.49	319.90
689.82	318.87
690.16	317.72
690.50	316.81
690.83	315.82
691.17	314.85
691.51	313.91
691.84	313.23
692.18	312.34
692.52	311.41
692.85	310.83
693.19	310.30
693.52	309.41
693.86	308.48
694.20	307.60
694.53	306.87
694.87	305.75
695.21	304.93
695.54	304.16
695.88	303.12
696.21	302.11
696.55	301.30
696.88	300.60
697.22	299.72
697.56	299.11
697.89	298.33
698.23	297.76
698.56	297.08
698.90	296.25
699.23	295.55
699.57	294.98
699.90	294.00
700.24	293.02
700.58	292.54
700.91	292.10
701.25	292.09
701.58	292.08
701.92	291.70
702.25	290.97
702.59	290.21
702.92	289.70
703.26	289.17
703.59	288.68
703.93	288.80
704.26	288.31
704.60	287.77
704.93	287.27
705.26	286.60
705.60	286.17
705.93	285.50
706.27	285.18
706.60	284.85
706.94	284.77
707.27	284.12
707.61	283.57
707.94	282.97
708.27	281.77
708.61	280.47
708.94	279.77
709.28	279.21
709.61	278.58
709.94	278.23
710.28	277.61
710.61	277.08
710.95	275.76
711.28	275.92
711.61	275.26
711.95	274.81
712.28	274.28
712.61	273.64
712.95	273.56
713.28	273.40
713.61	272.69
713.95	271.92
714.28	271.60
714.61	271.05
714.95	270.47
715.28	269.92
715.61	269.62
715.95	269.29
716.28	268.85
716.61	268.60
716.95	267.89
717.28	267.42
717.61	267.03
717.94	266.64
718.28	265.45
718.61	265.05
718.94	264.59
719.27	264.14
719.61	263.80
719.94	263.25
720.27	262.44
720.60	261.97
720.94	261.51
721.27	261.13
721.60	260.95
721.93	260.57
722.27	260.54
722.60	260.27
722.93	259.74
723.26	259.52
723.59	259.00
723.93	258.87
724.26	258.63
724.59	258.35
724.92	258.08
725.25	258.12
725.59	257.80
725.92	257.69
726.25	257.46
726.58	257.22
726.91	256.79
727.24	256.64
727.57	256.50
727.91	256.09
728.24	255.89
728.57	255.45
728.90	255.35
729.23	254.84
729.56	254.90
729.89	254.82
730.22	254.58
730.55	254.38
730.89	254.11
731.22	253.89
731.55	253.48
731.88	253.24
732.21	252.83
732.54	252.61
732.87	252.43
733.20	252.27
733.53	252.06
733.86	252.03
734.19	251.73
734.52	251.58
734.85	252.11
735.18	251.80
735.51	251.95
735.84	251.80
736.17	251.87
736.50	251.19
736.83	251.97
737.16	251.71
737.49	251.59
737.82	251.38
738.15	251.34
738.48	251.21
738.81	251.03
739.14	250.72
739.47	250.50
739.80	250.22
740.13	250.14
740.46	249.82
740.79	249.49
741.12	249.21
741.45	248.95
741.78	248.24
742.11	248.35
742.44	247.87
742.77	247.83
743.10	247.48
743.43	247.21
743.75	246.14
744.08	247.20
744.41	246.97
744.74	246.70
745.07	246.28
745.40	246.25
745.73	246.50
746.06	246.34
746.39	246.30
746.71	246.05
747.04	245.69
747.37	245.47
747.70	245.53
748.03	245.44
748.36	245.39
748.68	245.12
749.01	244.66
749.34	244.52
749.67	244.27
750.00	244.24
750.33	244.93
750.65	244.70
750.98	243.37
751.31	243.26
751.64	243.20
751.97	243.59
752.29	243.36
752.62	242.72
752.95	242.49
753.28	242.11
753.60	241.97
753.93	242.17
754.26	242.22
754.59	241.82
754.91	241.61
755.24	241.30
755.57	241.22
755.90	241.08
756.22	240.82
756.55	240.64
756.88	240.31
757.20	239.61
757.53	239.30
757.86	239.16
758.19	239.12
758.51	239.02
758.84	238.32
759.17	238.05
759.49	237.97
759.82	238.35
760.15	238.29
760.47	238.03
760.80	237.58
761.13	237.49
761.45	237.29
761.78	237.20
762.11	237.11
762.43	236.93
762.76	236.80
763.08	236.81
763.41	236.78
763.74	236.73
764.06	236.42
764.39	236.36
764.71	236.22
765.04	235.94
765.37	235.73
765.69	235.59
766.02	235.50
766.34	235.40
766.67	234.94
767.00	235.13
767.32	235.63
767.65	236.08
767.97	235.86
768.30	235.91
768.62	235.78
768.95	235.58
769.27	235.45
769.60	235.51
769.92	235.28
770.25	235.00
770.57	234.76
770.90	234.74
771.22	234.58
771.55	234.58
771.87	234.55
772.20	234.41
772.52	235.28
772.85	236.39
773.17	236.29
773.50	236.20
773.82	235.91
774.15	235.35
774.47	234.71
774.80	234.63
775.12	234.56
775.45	234.58
775.77	234.70
776.09	234.72
776.42	234.64
776.74	234.98
777.07	234.83
777.39	234.91
777.72	234.79
778.04	234.86
778.36	234.82
778.69	234.76
779.01	234.84
779.33	233.99
779.66	232.92
779.98	232.95
780.31	232.92
780.63	233.27
780.95	233.47
781.28	233.41
781.60	233.25
781.92	233.20
782.25	233.07
782.57	233.01
782.89	232.99
783.22	232.94
783.54	232.64
783.86	232.70
784.19	232.58
784.51	232.90
784.83	232.73
785.16	232.57
785.48	232.64
785.80	232.68
786.12	232.68
786.45	232.59
786.77	232.54
787.09	232.57
787.42	232.24
787.74	232.19
788.06	232.27
788.38	232.37
788.71	232.32
789.03	232.37
789.35	232.39
789.67	232.27
789.99	232.42
790.32	232.28
790.64	232.41
790.96	233.20
791.28	232.82
791.61	232.88
791.93	232.93
792.25	232.88
792.57	233.53
792.89	233.34
793.21	233.40
793.54	233.34
793.86	233.31
794.18	233.35
794.50	233.22
794.82	233.10
795.14	233.17
795.47	233.15
795.79	233.17
796.11	232.97
796.43	232.78
796.75	232.65
797.07	232.70
797.39	232.54
797.71	231.78
798.04	231.80
798.36	231.85
798.68	231.80
799.00	231.84
799.32	231.28
799.64	231.53
799.96	231.57
800.28	231.65
800.60	231.45
800.92	231.46
801.24	231.34
801.56	231.39
801.89	231.14
802.21	231.22
802.53	231.05
802.85	231.33
803.17	231.84
803.49	231.58
803.81	231.52
804.13	231.50
804.45	231.33
804.77	231.41
805.09	231.37
805.41	231.33
805.73	231.05
806.05	230.78
806.37	230.62
806.69	230.50
807.01	230.41
807.33	230.45
807.65	230.10
807.97	230.51
808.28	230.55
808.60	230.62
808.92	230.51
809.24	230.99
809.56	230.80
809.88	230.45
810.20	230.46
810.52	230.60
810.84	230.54
811.16	230.52
811.48	230.43
811.80	230.70
812.12	230.66
812.43	230.89
812.75	230.95
813.07	230.93
813.39	230.91
813.71	230.79
814.03	230.71
814.35	230.82
814.67	230.42
814.98	230.17
815.30	230.10
815.62	229.87
815.94	229.27
816.26	229.60
816.58	229.44
816.89	229.64
817.21	229.42
817.53	229.42
817.85	229.42
818.17	229.41
818.48	229.02
818.80	229.25
819.12	229.07
819.44	228.86
819.76	228.70
