SpectraSuite Data File
++++++++++++++++++++++++++++++++++++
Date: Wed Sep 04 17:30:01 EDT 2013
User: lab3
Dark Spectrum Present: Yes
Reference Spectrum Present: No
Number of Sampled Component Spectra: 1
Spectrometers: USB2E7196
Integration Time (usec): 337000 (USB2E7196)
Spectra Averaged: 10 (USB2E7196)
Boxcar Smoothing: 10 (USB2E7196)
Correct for Electrical Dark: No (USB2E7196)
Strobe/Lamp Enabled: No (USB2E7196)
Correct for Detector Non-linearity: No (USB2E7196)
Correct for Stray Light: No (USB2E7196)
Number of Pixels in Processed Spectrum: 2048
>>>>>Begin Processed Spectral Data<<<<<
339.09	0.00
339.48	212.50
339.86	215.00
340.24	217.80
340.63	217.90
341.01	229.80
341.39	221.40
341.78	224.00
342.16	225.10
342.54	221.50
342.93	212.99
343.31	223.68
343.69	224.21
344.07	224.59
344.46	225.03
344.84	225.41
345.22	225.18
345.60	225.45
345.99	225.57
346.37	225.62
346.75	225.85
347.13	226.06
347.52	226.09
347.90	226.34
348.28	226.45
348.66	226.80
349.05	226.48
349.43	226.65
349.81	226.78
350.19	226.68
350.57	226.78
350.96	226.86
351.34	227.01
351.72	227.14
352.10	227.35
352.48	227.27
352.87	227.30
353.25	227.37
353.63	227.37
354.01	227.51
354.39	227.62
354.77	227.76
355.15	228.00
355.54	227.93
355.92	227.83
356.30	227.93
356.68	228.57
357.06	228.81
357.44	228.62
357.82	228.70
358.20	229.62
358.58	229.64
358.97	229.70
359.35	229.94
359.73	230.09
360.11	230.09
360.49	230.29
360.87	230.30
361.25	230.50
361.63	230.84
362.01	230.90
362.39	230.85
362.77	230.86
363.15	230.87
363.53	230.96
363.91	231.03
364.29	231.06
364.67	230.17
365.05	230.15
365.43	230.40
365.81	230.50
366.19	230.22
366.57	230.70
366.95	230.68
367.33	230.34
367.71	230.37
368.09	230.59
368.47	230.61
368.85	230.63
369.23	230.79
369.61	230.50
369.99	230.72
370.37	230.90
370.75	231.36
371.13	231.02
371.51	230.95
371.89	230.95
372.27	231.00
372.65	231.11
373.03	231.10
373.41	231.01
373.78	230.86
374.16	230.32
374.54	229.82
374.92	229.78
375.30	230.03
375.68	229.84
376.06	229.84
376.44	229.65
376.82	229.69
377.19	229.57
377.57	229.44
377.95	229.08
378.33	228.98
378.71	228.26
379.09	228.48
379.47	228.52
379.84	228.32
380.22	228.21
380.60	228.10
380.98	227.98
381.36	227.91
381.73	227.64
382.11	227.78
382.49	227.73
382.87	227.48
383.25	227.35
383.62	228.50
384.00	228.22
384.38	228.25
384.76	228.44
385.13	228.73
385.51	228.76
385.89	228.62
386.27	228.51
386.64	228.77
387.02	228.60
387.40	228.48
387.78	228.52
388.15	228.44
388.53	228.25
388.91	228.28
389.29	228.16
389.66	228.42
390.04	228.20
390.42	228.42
390.79	228.60
391.17	228.55
391.55	227.42
391.92	227.40
392.30	227.45
392.68	227.29
393.05	227.24
393.43	227.20
393.81	227.24
394.18	227.12
394.56	227.10
394.94	227.38
395.31	227.38
395.69	227.66
396.06	227.90
396.44	228.04
396.82	227.96
397.19	228.47
397.57	228.44
397.95	228.74
398.32	228.50
398.70	228.59
399.07	228.89
399.45	228.98
399.82	229.12
400.20	229.26
400.58	229.25
400.95	228.93
401.33	229.32
401.70	230.15
402.08	230.51
402.45	230.66
402.83	230.99
403.20	231.30
403.58	231.51
403.95	231.88
404.33	232.36
404.71	232.87
405.08	233.76
405.46	234.10
405.83	234.47
406.21	234.98
406.58	235.49
406.96	235.80
407.33	236.34
407.70	236.93
408.08	238.18
408.45	239.00
408.83	239.90
409.20	240.57
409.58	240.79
409.95	241.66
410.33	242.70
410.70	243.31
411.08	244.44
411.45	245.52
411.82	246.57
412.20	247.94
412.57	249.72
412.95	250.29
413.32	251.96
413.69	253.46
414.07	255.16
414.44	257.04
414.82	259.03
415.19	261.27
415.56	263.66
415.94	265.57
416.31	268.42
416.68	271.20
417.06	274.22
417.43	277.31
417.81	280.68
418.18	284.10
418.55	287.77
418.93	291.63
419.30	295.60
419.67	299.87
420.04	304.22
420.42	308.58
420.79	314.57
421.16	319.92
421.54	325.93
421.91	331.85
422.28	337.79
422.66	344.30
423.03	351.05
423.40	357.60
423.77	364.69
424.15	371.63
424.52	379.03
424.89	387.41
425.26	395.42
425.64	403.02
426.01	411.26
426.38	420.04
426.75	429.21
427.13	438.43
427.50	448.08
427.87	458.32
428.24	468.55
428.61	477.66
428.99	488.51
429.36	499.74
429.73	510.95
430.10	522.19
430.47	533.89
430.85	545.64
431.22	558.31
431.59	572.30
431.96	585.30
432.33	599.74
432.70	613.44
433.08	629.70
433.45	645.22
433.82	660.75
434.19	678.14
434.56	695.32
434.93	711.60
435.30	728.01
435.68	746.08
436.05	763.89
436.42	781.60
436.79	798.20
437.16	816.35
437.53	835.30
437.90	854.29
438.27	872.86
438.64	892.13
439.01	910.40
439.38	925.91
439.75	941.84
440.13	959.89
440.50	977.00
440.87	991.01
441.24	1005.65
441.61	1021.67
441.98	1033.46
442.35	1047.02
442.72	1060.97
443.09	1074.89
443.46	1083.43
443.83	1089.75
444.20	1095.37
444.57	1102.52
444.94	1105.82
445.31	1109.71
445.68	1114.08
446.05	1115.87
446.42	1114.64
446.79	1113.03
447.16	1111.53
447.53	1110.26
447.90	1103.54
448.27	1096.96
448.64	1087.64
449.01	1081.28
449.37	1069.30
449.74	1057.57
450.11	1043.82
450.48	1028.50
450.85	1012.26
451.22	998.51
451.59	985.38
451.96	972.79
452.33	956.03
452.70	941.34
453.07	923.44
453.43	904.62
453.80	887.27
454.17	870.66
454.54	854.69
454.91	837.51
455.28	820.74
455.65	805.31
456.02	790.80
456.38	777.75
456.75	761.08
457.12	747.44
457.49	734.37
457.86	721.12
458.23	710.25
458.59	698.10
458.96	686.00
459.33	675.14
459.70	664.55
460.07	656.03
460.43	645.94
460.80	636.78
461.17	628.87
461.54	620.23
461.91	611.90
462.27	603.65
462.64	596.56
463.01	589.11
463.38	582.01
463.74	573.62
464.11	567.12
464.48	561.58
464.85	555.21
465.21	550.40
465.58	545.42
465.95	539.18
466.32	534.40
466.68	529.40
467.05	524.43
467.42	519.49
467.78	514.47
468.15	509.86
468.52	506.66
468.88	501.95
469.25	497.88
469.62	495.10
469.98	491.62
470.35	488.55
470.72	485.26
471.08	481.58
471.45	478.98
471.82	476.16
472.18	472.81
472.55	470.73
472.92	467.91
473.28	465.33
473.65	463.19
474.02	460.61
474.38	458.90
474.75	457.44
475.11	455.54
475.48	454.09
475.85	452.78
476.21	451.10
476.58	449.82
476.94	448.99
477.31	447.75
477.67	446.70
478.04	445.93
478.41	445.48
478.77	446.09
479.14	445.09
479.50	444.72
479.87	444.80
480.23	444.72
480.60	444.49
480.96	444.34
481.33	444.84
481.69	445.25
482.06	445.33
482.42	445.54
482.79	446.08
483.15	446.57
483.52	447.68
483.88	448.43
484.25	449.36
484.61	450.26
484.98	451.20
485.34	452.86
485.71	454.21
486.07	455.64
486.44	456.05
486.80	457.92
487.17	459.71
487.53	461.84
487.90	463.98
488.26	466.83
488.62	469.59
488.99	471.77
489.35	474.57
489.72	477.56
490.08	480.45
490.44	483.32
490.81	486.79
491.17	489.84
491.54	493.43
491.90	497.00
492.26	500.90
492.63	504.82
492.99	508.58
493.36	512.89
493.72	517.44
494.08	522.10
494.45	526.89
494.81	532.10
495.17	537.01
495.54	542.44
495.90	547.45
496.26	552.92
496.63	558.45
496.99	564.01
497.35	569.72
497.72	575.67
498.08	581.80
498.44	587.91
498.80	594.55
499.17	601.02
499.53	607.64
499.89	614.38
500.26	621.22
500.62	628.14
500.98	635.23
501.34	642.06
501.71	649.26
502.07	656.39
502.43	663.41
502.79	670.61
503.16	677.90
503.52	685.24
503.88	692.35
504.24	700.22
504.60	708.16
504.97	715.96
505.33	723.66
505.69	731.97
506.05	739.72
506.41	747.45
506.78	755.27
507.14	763.38
507.50	771.18
507.86	779.18
508.22	786.96
508.59	794.45
508.95	802.20
509.31	810.28
509.67	817.94
510.03	825.63
510.39	833.17
510.75	840.49
511.12	848.04
511.48	855.79
511.84	862.99
512.20	869.77
512.56	877.11
512.92	884.44
513.28	891.02
513.64	897.95
514.00	904.61
514.37	911.00
514.73	917.54
515.09	924.17
515.45	930.19
515.81	936.45
516.17	942.92
516.53	948.83
516.89	954.25
517.25	960.40
517.61	966.72
517.97	972.67
518.33	978.33
518.69	984.08
519.05	989.56
519.41	994.83
519.77	1000.80
520.13	1005.76
520.49	1010.51
520.85	1015.69
521.21	1021.08
521.57	1025.82
521.93	1030.17
522.29	1034.63
522.65	1038.38
523.01	1042.47
523.37	1046.37
523.73	1050.01
524.09	1053.60
524.45	1057.24
524.81	1060.37
525.17	1063.23
525.53	1066.57
525.89	1070.02
526.25	1073.00
526.61	1075.56
526.97	1078.65
527.33	1081.63
527.68	1085.72
528.04	1088.84
528.40	1091.79
528.76	1094.73
529.12	1098.01
529.48	1101.83
529.84	1104.65
530.20	1108.15
530.56	1111.62
530.91	1114.91
531.27	1117.95
531.63	1121.64
531.99	1124.98
532.35	1128.32
532.71	1131.68
533.07	1135.27
533.42	1139.25
533.78	1142.51
534.14	1146.32
534.50	1149.33
534.86	1152.39
535.21	1154.44
535.57	1157.95
535.93	1160.84
536.29	1163.65
536.65	1166.51
537.00	1169.00
537.36	1171.86
537.72	1174.33
538.08	1177.18
538.44	1179.70
538.79	1182.64
539.15	1185.11
539.51	1187.99
539.87	1190.30
540.22	1192.31
540.58	1194.47
540.94	1195.63
541.29	1197.38
541.65	1198.76
542.01	1200.97
542.37	1202.44
542.72	1203.87
543.08	1204.79
543.44	1206.50
543.79	1207.48
544.15	1209.18
544.51	1211.05
544.87	1212.52
545.22	1213.89
545.58	1214.55
545.94	1215.51
546.29	1216.46
546.65	1217.31
547.01	1217.66
547.36	1218.82
547.72	1219.74
548.07	1220.16
548.43	1221.06
548.79	1221.95
549.14	1223.23
549.50	1224.45
549.86	1225.23
550.21	1226.02
550.57	1227.14
550.92	1227.46
551.28	1228.47
551.64	1228.96
551.99	1229.72
552.35	1230.30
552.70	1231.10
553.06	1232.50
553.41	1233.37
553.77	1234.54
554.13	1235.71
554.48	1237.06
554.84	1237.64
555.19	1238.87
555.55	1240.76
555.90	1241.31
556.26	1241.80
556.61	1242.02
556.97	1241.53
557.32	1242.23
557.68	1242.83
558.03	1243.52
558.39	1243.65
558.74	1244.55
559.10	1244.72
559.45	1244.56
559.81	1244.81
560.16	1244.41
560.52	1244.20
560.87	1244.45
561.23	1244.02
561.58	1244.41
561.94	1243.56
562.29	1243.52
562.64	1242.72
563.00	1241.20
563.35	1240.95
563.71	1240.83
564.06	1240.52
564.42	1240.38
564.77	1240.25
565.12	1240.46
565.48	1240.76
565.83	1241.45
566.19	1240.97
566.54	1240.79
566.89	1240.40
567.25	1240.03
567.60	1241.18
567.96	1241.68
568.31	1241.96
568.66	1241.97
569.02	1240.31
569.37	1240.31
569.72	1239.61
570.08	1239.21
570.43	1238.16
570.78	1237.59
571.14	1236.92
571.49	1235.55
571.84	1234.85
572.20	1233.54
572.55	1232.25
572.90	1230.20
573.26	1228.41
573.61	1226.46
573.96	1224.58
574.31	1222.18
574.67	1220.19
575.02	1217.24
575.37	1214.40
575.72	1211.12
576.08	1208.54
576.43	1206.64
576.78	1203.93
577.13	1201.61
577.49	1199.06
577.84	1197.22
578.19	1194.56
578.54	1191.96
578.90	1189.99
579.25	1187.67
579.60	1184.80
579.95	1181.90
580.30	1178.80
580.66	1175.65
581.01	1172.41
581.36	1168.93
581.71	1166.61
582.06	1163.98
582.42	1161.31
582.77	1158.27
583.12	1155.73
583.47	1152.93
583.82	1150.23
584.17	1147.25
584.53	1144.85
584.88	1141.55
585.23	1138.32
585.58	1134.78
585.93	1131.49
586.28	1127.92
586.63	1124.05
586.98	1120.40
587.34	1117.18
587.69	1114.10
588.04	1111.51
588.39	1109.02
588.74	1105.95
589.09	1103.07
589.44	1099.08
589.79	1095.72
590.14	1092.78
590.49	1089.77
590.84	1086.20
591.19	1082.88
591.54	1079.81
591.89	1075.74
592.25	1073.99
592.60	1070.72
592.95	1067.63
593.30	1064.13
593.65	1060.51
594.00	1056.92
594.35	1056.19
594.70	1052.16
595.05	1048.38
595.40	1043.91
595.75	1039.47
596.10	1036.06
596.45	1032.35
596.80	1029.03
597.15	1025.14
597.50	1020.81
597.85	1017.14
598.19	1013.17
598.54	1009.11
598.89	1004.79
599.24	1000.96
599.59	996.07
599.94	991.95
600.29	988.48
600.64	984.81
600.99	981.39
601.34	978.05
601.69	972.22
602.04	968.60
602.39	965.00
602.74	962.23
603.08	959.06
603.43	955.84
603.78	951.94
604.13	948.14
604.48	944.34
604.83	940.73
605.18	936.44
605.53	933.00
605.87	929.38
606.22	926.37
606.57	922.81
606.92	919.05
607.27	915.49
607.62	911.79
607.96	908.35
608.31	904.99
608.66	901.53
609.01	898.00
609.36	894.69
609.70	891.14
610.05	886.82
610.40	883.13
610.75	879.11
611.10	875.49
611.44	871.72
611.79	868.07
612.14	864.54
612.49	860.73
612.83	857.15
613.18	853.43
613.53	849.44
613.88	845.60
614.22	841.68
614.57	837.86
614.92	833.62
615.27	829.87
615.61	825.63
615.96	821.58
616.31	817.61
616.65	814.00
617.00	810.05
617.35	806.44
617.70	802.47
618.04	798.90
618.39	794.88
618.74	791.54
619.08	787.70
619.43	783.91
619.78	780.22
620.12	775.93
620.47	772.13
620.82	768.16
621.16	764.30
621.51	760.90
621.85	757.35
622.20	754.17
622.55	750.25
622.89	746.72
623.24	743.06
623.59	739.31
623.93	735.44
624.28	732.04
624.62	729.42
624.97	726.44
625.32	722.67
625.66	719.14
626.01	715.29
626.35	711.89
626.70	708.51
627.04	705.30
627.39	701.89
627.73	698.77
628.08	695.57
628.43	692.12
628.77	688.45
629.12	684.97
629.46	681.55
629.81	678.83
630.15	675.66
630.50	672.21
630.84	668.91
631.19	665.67
631.53	662.45
631.88	658.33
632.22	654.60
632.57	651.83
632.91	648.59
633.26	645.85
633.60	642.72
633.95	639.30
634.29	635.85
634.64	633.01
634.98	629.30
635.32	626.46
635.67	624.00
636.01	621.11
636.36	618.06
636.70	615.10
637.05	611.70
637.39	608.57
637.73	605.89
638.08	603.24
638.42	600.29
638.77	597.23
639.11	594.08
639.45	590.93
639.80	587.28
640.14	584.21
640.49	580.89
640.83	578.06
641.17	575.30
641.52	572.58
641.86	569.53
642.20	567.64
642.55	564.55
642.89	561.41
643.23	558.71
643.58	556.50
643.92	553.44
644.26	550.56
644.61	548.02
644.95	545.29
645.29	542.12
645.64	539.56
645.98	536.80
646.32	534.34
646.66	531.78
647.01	529.44
647.35	527.33
647.69	525.08
648.04	522.47
648.38	519.97
648.72	517.46
649.06	514.89
649.41	511.63
649.75	508.96
650.09	506.43
650.43	503.80
650.78	500.77
651.12	498.33
651.46	495.91
651.80	493.42
652.14	490.98
652.49	488.89
652.83	486.31
653.17	484.05
653.51	481.65
653.85	479.49
654.20	477.29
654.54	474.90
654.88	472.46
655.22	470.73
655.56	468.52
655.90	466.33
656.25	464.30
656.59	462.31
656.93	460.35
657.27	458.60
657.61	456.40
657.95	454.44
658.29	452.40
658.64	450.67
658.98	448.64
659.32	446.47
659.66	444.44
660.00	442.37
660.34	440.50
660.68	438.36
661.02	436.45
661.36	434.44
661.70	432.21
662.05	430.31
662.39	428.10
662.73	426.34
663.07	424.92
663.41	423.10
663.75	421.23
664.09	419.46
664.43	417.30
664.77	415.43
665.11	413.58
665.45	411.96
665.79	410.11
666.13	408.19
666.47	406.50
666.81	404.65
667.15	402.80
667.49	401.20
667.83	399.92
668.17	398.30
668.51	396.78
668.85	395.39
669.19	394.28
669.53	392.61
669.87	391.01
670.21	389.21
670.55	387.71
670.89	386.85
671.23	385.37
671.57	383.94
671.91	382.61
672.25	381.20
672.58	379.98
672.92	378.27
673.26	377.09
673.60	375.75
673.94	374.39
674.28	373.46
674.62	372.10
674.96	370.52
675.30	369.15
675.64	367.71
675.97	366.39
676.31	364.61
676.65	363.18
676.99	362.06
677.33	360.59
677.67	359.46
678.01	357.49
678.34	356.34
678.68	355.25
679.02	353.93
679.36	352.64
679.70	351.23
680.04	350.17
680.37	348.91
680.71	347.76
681.05	346.79
681.39	345.46
681.73	344.25
682.06	343.25
682.40	342.20
682.74	341.18
683.08	340.52
683.42	339.42
683.75	338.50
684.09	337.32
684.43	336.37
684.77	335.15
685.10	334.15
685.44	333.07
685.78	331.99
686.12	331.03
686.45	330.05
686.79	328.93
687.13	328.13
687.46	327.25
687.80	326.39
688.14	325.34
688.48	324.40
688.81	323.42
689.15	322.59
689.49	321.50
689.82	320.68
690.16	319.27
690.50	318.31
690.83	317.37
691.17	316.25
691.51	315.47
691.84	314.83
692.18	313.92
692.52	312.89
692.85	312.12
693.19	311.60
693.52	310.85
693.86	310.01
694.20	309.06
694.53	308.26
694.87	307.25
695.21	306.23
695.54	305.49
695.88	304.56
696.21	303.48
696.55	302.79
696.88	301.80
697.22	301.04
697.56	300.51
697.89	299.58
698.23	299.01
698.56	298.17
698.90	297.51
699.23	296.76
699.57	296.30
699.90	295.41
700.24	294.40
700.58	293.69
700.91	293.23
701.25	293.27
701.58	293.14
701.92	292.72
702.25	292.21
702.59	291.41
702.92	290.96
703.26	290.52
703.59	289.95
703.93	290.29
704.26	289.90
704.60	289.25
704.93	288.78
705.26	287.96
705.60	287.51
705.93	286.58
706.27	286.35
706.60	285.96
706.94	285.90
707.27	285.34
707.61	284.91
707.94	284.30
708.27	283.10
708.61	281.90
708.94	281.30
709.28	280.92
709.61	280.40
709.94	279.84
710.28	279.25
710.61	278.65
710.95	277.18
711.28	277.20
711.61	276.79
711.95	276.52
712.28	275.90
712.61	275.44
712.95	275.52
713.28	275.37
713.61	274.67
713.95	273.84
714.28	273.51
714.61	272.78
714.95	272.13
715.28	271.51
715.61	270.99
715.95	270.37
716.28	269.84
716.61	269.57
716.95	268.98
717.28	268.51
717.61	268.05
717.94	267.70
718.28	266.53
718.61	266.00
718.94	265.32
719.27	265.10
719.61	264.70
719.94	264.13
720.27	263.20
720.60	262.72
720.94	262.32
721.27	261.91
721.60	261.75
721.93	261.54
722.27	261.48
722.60	261.27
722.93	261.03
723.26	260.60
723.59	260.18
723.93	260.04
724.26	259.85
724.59	259.47
724.92	259.19
725.25	259.17
725.59	258.88
725.92	258.78
726.25	258.51
726.58	258.12
726.91	257.74
727.24	257.60
727.57	257.27
727.91	256.90
728.24	256.82
728.57	256.44
728.90	256.15
729.23	255.66
729.56	255.90
729.89	255.70
730.22	255.39
730.55	255.13
730.89	254.81
731.22	254.40
731.55	254.14
731.88	253.87
732.21	253.42
732.54	253.01
732.87	252.75
733.20	252.46
733.53	252.29
733.86	252.08
734.19	251.73
734.52	251.70
734.85	252.06
735.18	251.58
735.51	251.71
735.84	251.57
736.17	251.56
736.50	250.94
736.83	251.72
737.16	251.60
737.49	251.46
737.82	251.25
738.15	251.21
738.48	251.00
738.81	250.81
739.14	250.51
739.47	250.35
739.80	250.08
740.13	249.99
740.46	249.69
740.79	249.33
741.12	249.12
741.45	248.77
741.78	248.04
742.11	248.11
742.44	247.72
742.77	247.73
743.10	247.38
743.43	247.05
743.75	245.79
744.08	246.90
744.41	246.62
744.74	246.45
745.07	246.11
745.40	246.08
745.73	246.29
746.06	246.19
746.39	246.13
746.71	245.90
747.04	245.69
747.37	245.60
747.70	245.67
748.03	245.61
748.36	245.60
748.68	245.51
749.01	245.15
749.34	244.98
749.67	244.73
750.00	244.80
750.33	245.29
750.65	245.30
750.98	243.80
751.31	243.63
751.64	243.39
751.97	243.77
752.29	243.60
752.62	243.01
752.95	242.85
753.28	242.60
753.60	242.45
753.93	242.57
754.26	242.38
754.59	241.98
754.91	241.69
755.24	241.50
755.57	241.33
755.90	241.01
756.22	240.78
756.55	240.50
756.88	240.17
757.20	239.50
757.53	239.12
757.86	239.09
758.19	239.11
758.51	239.08
758.84	238.41
759.17	238.26
759.49	238.31
759.82	238.70
760.15	238.64
760.47	238.57
760.80	238.17
761.13	238.22
761.45	238.19
761.78	238.16
762.11	238.08
762.43	237.85
762.76	237.82
763.08	237.85
763.41	237.92
763.74	237.90
764.06	237.92
764.39	237.89
764.71	237.76
765.04	237.56
765.37	237.41
765.69	237.26
766.02	237.23
766.34	236.97
766.67	236.49
767.00	236.59
767.32	237.02
767.65	237.49
767.97	237.30
768.30	237.26
768.62	237.21
768.95	237.10
769.27	237.09
769.60	237.19
769.92	236.96
770.25	236.66
770.57	236.42
770.90	236.22
771.22	236.09
771.55	236.04
771.87	236.02
772.20	235.85
772.52	236.71
772.85	237.68
773.17	237.66
773.50	237.53
773.82	237.38
774.15	236.83
774.47	236.27
774.80	236.15
775.12	236.00
775.45	235.88
775.77	235.81
776.09	235.84
776.42	235.78
776.74	236.06
777.07	235.99
777.39	235.99
777.72	235.88
778.04	235.91
778.36	235.82
778.69	235.80
779.01	235.87
779.33	234.94
779.66	233.78
779.98	233.70
780.31	233.72
780.63	234.06
780.95	234.19
781.28	234.07
781.60	233.94
781.92	233.91
782.25	233.80
782.57	233.74
782.89	233.57
783.22	233.42
783.54	233.13
783.86	233.16
784.19	232.98
784.51	233.15
784.83	233.01
785.16	232.97
785.48	232.88
785.80	232.89
786.12	233.04
786.45	233.14
786.77	233.19
787.09	233.06
787.42	232.64
787.74	232.53
788.06	232.42
788.38	232.34
788.71	232.12
789.03	232.26
789.35	232.32
789.67	232.22
789.99	232.24
790.32	232.18
790.64	232.27
790.96	233.11
791.28	232.81
791.61	232.70
791.93	232.69
792.25	232.59
792.57	233.16
792.89	232.90
793.21	232.84
793.54	232.82
793.86	232.74
794.18	232.76
794.50	232.55
794.82	232.71
795.14	232.89
795.47	233.11
795.79	233.09
796.11	232.89
796.43	232.90
796.75	232.91
797.07	232.81
797.39	232.72
797.71	231.96
798.04	231.94
798.36	231.99
798.68	231.93
799.00	231.94
799.32	231.49
799.64	231.74
799.96	231.72
800.28	231.78
800.60	231.78
800.92	231.74
801.24	231.65
801.56	231.60
801.89	231.46
802.21	231.55
802.53	231.35
802.85	231.52
803.17	232.02
803.49	231.84
803.81	231.88
804.13	231.72
804.45	231.63
804.77	231.70
805.09	231.82
805.41	231.77
805.73	231.60
806.05	231.29
806.37	231.07
806.69	230.84
807.01	230.74
807.33	230.78
807.65	230.54
807.97	231.09
808.28	230.95
808.60	230.87
808.92	230.64
809.24	231.21
809.56	231.09
809.88	230.71
810.20	230.69
810.52	230.87
810.84	230.78
811.16	230.65
811.48	230.58
811.80	230.82
812.12	230.75
812.43	230.94
812.75	231.04
813.07	230.93
813.39	231.10
813.71	230.94
814.03	230.83
814.35	230.79
814.67	230.40
814.98	230.40
815.30	230.53
815.62	230.42
815.94	229.65
816.26	230.01
816.58	229.78
816.89	229.85
817.21	229.57
817.53	229.65
817.85	229.73
818.17	229.79
818.48	229.39
