SpectraSuite Data File
++++++++++++++++++++++++++++++++++++
Date: Wed Sep 04 17:31:13 EDT 2013
User: lab3
Dark Spectrum Present: Yes
Reference Spectrum Present: No
Number of Sampled Component Spectra: 1
Spectrometers: USB2E7196
Integration Time (usec): 337000 (USB2E7196)
Spectra Averaged: 10 (USB2E7196)
Boxcar Smoothing: 10 (USB2E7196)
Correct for Electrical Dark: No (USB2E7196)
Strobe/Lamp Enabled: No (USB2E7196)
Correct for Detector Non-linearity: No (USB2E7196)
Correct for Stray Light: No (USB2E7196)
Number of Pixels in Processed Spectrum: 2048
>>>>>Begin Processed Spectral Data<<<<<
339.09	0.00
339.48	212.90
339.86	214.20
340.24	216.50
340.63	217.40
341.01	232.10
341.39	220.50
341.78	223.00
342.16	225.40
342.54	222.90
342.93	213.22
343.31	223.89
343.69	224.44
344.07	224.90
344.46	225.47
344.84	225.93
345.22	225.65
345.60	225.96
345.99	226.11
346.37	226.12
346.75	226.28
347.13	226.31
347.52	226.47
347.90	226.83
348.28	226.89
348.66	227.04
349.05	226.74
349.43	226.95
349.81	227.06
350.19	227.09
350.57	227.14
350.96	227.20
351.34	227.36
351.72	227.45
352.10	227.51
352.48	227.44
352.87	227.38
353.25	227.39
353.63	227.43
354.01	227.39
354.39	227.59
354.77	227.61
355.15	227.94
355.54	227.88
355.92	227.69
356.30	227.73
356.68	228.34
357.06	228.44
357.44	228.20
357.82	228.23
358.20	229.07
358.58	229.16
358.97	229.26
359.35	229.48
359.73	229.70
360.11	229.76
360.49	229.74
360.87	229.69
361.25	229.79
361.63	230.08
362.01	230.30
362.39	230.24
362.77	230.41
363.15	230.39
363.53	230.31
363.91	230.42
364.29	230.47
364.67	229.63
365.05	229.70
365.43	229.96
365.81	230.03
366.19	229.66
366.57	229.97
366.95	229.95
367.33	229.67
367.71	229.63
368.09	229.86
368.47	229.89
368.85	229.93
369.23	230.16
369.61	229.77
369.99	230.01
370.37	230.09
370.75	230.49
371.13	230.27
371.51	230.29
371.89	230.27
372.27	230.32
372.65	230.37
373.03	230.35
373.41	230.19
373.78	230.18
374.16	229.70
374.54	229.47
374.92	229.34
375.30	229.42
375.68	229.27
376.06	229.17
376.44	229.17
376.82	229.25
377.19	229.12
377.57	229.13
377.95	228.83
378.33	228.63
378.71	228.01
379.09	228.14
379.47	228.19
379.84	228.10
380.22	227.94
380.60	227.75
380.98	227.67
381.36	227.63
381.73	227.38
382.11	227.57
382.49	227.46
382.87	227.32
383.25	227.22
383.62	228.23
384.00	228.01
384.38	228.10
384.76	228.21
385.13	228.50
385.51	228.49
385.89	228.22
386.27	228.38
386.64	228.50
387.02	228.35
387.40	228.28
387.78	228.35
388.15	228.39
388.53	228.53
388.91	228.46
389.29	228.39
389.66	228.60
390.04	228.42
390.42	228.48
390.79	228.57
391.17	228.65
391.55	227.59
391.92	227.71
392.30	227.64
392.68	227.53
393.05	227.46
393.43	227.47
393.81	227.62
394.18	227.42
394.56	227.49
394.94	227.77
395.31	227.65
395.69	228.03
396.06	228.16
396.44	228.20
396.82	228.24
397.19	228.73
397.57	228.60
397.95	228.82
398.32	228.70
398.70	228.84
399.07	229.06
399.45	229.14
399.82	229.18
400.20	229.21
400.58	229.33
400.95	229.12
401.33	229.52
401.70	230.25
402.08	230.39
402.45	230.50
402.83	230.79
403.20	231.13
403.58	230.99
403.95	231.31
404.33	231.67
404.71	231.99
405.08	232.72
405.46	233.10
405.83	233.35
406.21	233.76
406.58	234.18
406.96	234.58
407.33	235.11
407.70	235.63
408.08	236.89
408.45	237.54
408.83	238.25
409.20	238.57
409.58	238.61
409.95	239.45
410.33	240.20
410.70	240.54
411.08	241.35
411.45	242.20
411.82	242.99
412.20	243.99
412.57	245.52
412.95	245.86
413.32	247.17
413.69	248.30
414.07	249.49
414.44	250.83
414.82	252.20
415.19	253.87
415.56	255.70
415.94	257.05
416.31	259.04
416.68	261.04
417.06	263.61
417.43	266.14
417.81	268.69
418.18	271.39
418.55	274.24
418.93	277.27
419.30	280.30
419.67	283.54
420.04	286.95
420.42	290.38
420.79	295.06
421.16	299.08
421.54	303.84
421.91	308.24
422.28	312.86
422.66	317.69
423.03	323.03
423.40	327.93
423.77	333.18
424.15	338.56
424.52	344.51
424.89	350.86
425.26	356.71
425.64	362.60
426.01	369.03
426.38	375.72
426.75	382.69
427.13	389.91
427.50	397.32
427.87	404.80
428.24	412.00
428.61	418.85
428.99	427.01
429.36	435.31
429.73	443.88
430.10	452.36
430.47	461.30
430.85	469.95
431.22	479.73
431.59	490.67
431.96	500.48
432.33	511.12
432.70	521.56
433.08	533.99
433.45	545.54
433.82	557.05
434.19	570.25
434.56	583.07
434.93	595.16
435.30	607.37
435.68	620.97
436.05	634.61
436.42	647.87
436.79	660.54
437.16	674.10
437.53	688.34
437.90	702.55
438.27	716.52
438.64	730.85
439.01	744.37
439.38	756.07
439.75	767.74
440.13	781.00
440.50	793.26
440.87	803.71
441.24	814.86
441.61	826.62
441.98	835.13
442.35	845.14
442.72	855.49
443.09	865.97
443.46	872.20
443.83	876.77
444.20	880.84
444.57	885.80
444.94	888.45
445.31	891.24
445.68	894.92
446.05	895.97
446.42	894.88
446.79	893.73
447.16	891.79
447.53	890.65
447.90	885.56
448.27	880.60
448.64	873.34
449.01	867.81
449.37	858.63
449.74	849.84
450.11	839.59
450.48	827.89
450.85	815.22
451.22	804.95
451.59	795.03
451.96	785.61
452.33	773.12
452.70	761.64
453.07	748.16
453.43	733.33
453.80	720.26
454.17	707.57
454.54	695.22
454.91	682.36
455.28	669.97
455.65	658.25
456.02	647.92
456.38	638.01
456.75	625.75
457.12	615.58
457.49	605.48
457.86	595.21
458.23	587.03
458.59	578.00
458.96	568.82
459.33	560.60
459.70	552.19
460.07	545.82
460.43	538.42
460.80	531.46
461.17	525.61
461.54	519.16
461.91	513.26
462.27	507.05
462.64	501.87
463.01	496.00
463.38	490.93
463.74	484.12
464.11	479.30
464.48	475.13
464.85	470.35
465.21	467.08
465.58	463.40
465.95	458.81
466.32	455.49
466.68	451.85
467.05	448.43
467.42	445.01
467.78	441.07
468.15	437.58
468.52	435.09
468.88	431.27
469.25	428.09
469.62	425.77
469.98	423.10
470.35	420.69
470.72	418.39
471.08	415.47
471.45	413.40
471.82	411.23
472.18	408.69
472.55	407.06
472.92	404.63
473.28	402.81
473.65	400.87
474.02	398.86
474.38	397.38
474.75	395.91
475.11	394.24
475.48	393.10
475.85	392.01
476.21	390.64
476.58	389.86
476.94	389.17
477.31	388.04
477.67	387.22
478.04	386.44
478.41	385.86
478.77	386.26
479.14	385.42
479.50	385.16
479.87	384.96
480.23	384.77
480.60	384.65
480.96	384.27
481.33	384.80
481.69	384.82
482.06	384.90
482.42	384.92
482.79	385.20
483.15	385.37
483.52	385.99
483.88	386.40
484.25	386.64
484.61	387.17
484.98	387.68
485.34	388.69
485.71	389.40
486.07	390.20
486.44	390.27
486.80	391.33
487.17	392.14
487.53	393.65
487.90	394.88
488.26	396.55
488.62	398.21
488.99	399.08
489.35	400.64
489.72	402.25
490.08	403.98
490.44	405.48
490.81	407.50
491.17	409.19
491.54	411.31
491.90	413.43
492.26	415.73
492.63	417.93
492.99	420.11
493.36	422.77
493.72	425.62
494.08	428.33
494.45	431.25
494.81	434.38
495.17	436.94
495.54	440.25
495.90	443.07
496.26	446.24
496.63	449.89
496.99	453.14
497.35	456.38
497.72	460.02
498.08	463.77
498.44	467.34
498.80	471.12
499.17	474.73
499.53	478.58
499.89	482.47
500.26	486.58
500.62	490.29
500.98	494.32
501.34	497.97
501.71	502.01
502.07	505.82
502.43	509.48
502.79	513.62
503.16	517.45
503.52	521.53
503.88	525.38
504.24	529.43
504.60	533.70
504.97	537.98
505.33	541.77
505.69	546.46
506.05	550.51
506.41	554.72
506.78	558.88
507.14	563.21
507.50	567.27
507.86	571.44
508.22	575.79
508.59	579.50
508.95	583.69
509.31	587.91
509.67	591.95
510.03	595.69
510.39	599.50
510.75	603.31
511.12	606.91
511.48	610.60
511.84	613.96
512.20	617.29
512.56	620.77
512.92	624.43
513.28	627.46
513.64	630.79
514.00	634.09
514.37	637.43
514.73	640.76
515.09	643.97
515.45	646.93
515.81	649.83
516.17	653.07
516.53	655.97
516.89	658.71
517.25	661.78
517.61	665.34
517.97	668.53
518.33	671.41
518.69	674.59
519.05	678.06
519.41	681.56
519.77	685.37
520.13	688.38
520.49	691.12
520.85	696.86
521.21	700.35
521.57	703.15
521.93	705.77
522.29	708.45
522.65	711.13
523.01	713.83
523.37	716.42
523.73	719.20
524.09	721.99
524.45	724.41
524.81	726.99
525.17	729.75
525.53	732.36
525.89	735.11
526.25	737.75
526.61	739.83
526.97	742.19
527.33	744.51
527.68	748.53
528.04	751.78
528.40	752.12
528.76	754.97
529.12	758.19
529.48	762.11
529.84	765.08
530.20	768.53
530.56	772.38
530.91	776.13
531.27	779.79
531.63	783.72
531.99	787.73
532.35	791.57
532.71	795.18
533.07	799.25
533.42	804.10
533.78	808.17
534.14	812.82
534.50	817.10
534.86	821.88
535.21	825.00
535.57	829.47
535.93	833.33
536.29	837.83
536.65	842.36
537.00	845.95
537.36	850.59
537.72	854.84
538.08	858.96
538.44	863.20
538.79	867.68
539.15	871.94
539.51	876.40
539.87	880.52
540.22	884.85
540.58	889.18
540.94	892.50
541.29	896.57
541.65	900.07
542.01	904.38
542.37	907.70
542.72	911.43
543.08	914.92
543.44	919.09
543.79	922.10
544.15	925.67
544.51	930.08
544.87	933.84
545.22	937.49
545.58	940.84
545.94	944.32
546.29	947.55
546.65	950.78
547.01	953.95
547.36	957.49
547.72	960.72
548.07	964.02
548.43	967.32
548.79	970.53
549.14	974.04
549.50	977.34
549.86	980.53
550.21	983.94
550.57	987.28
550.92	990.14
551.28	993.69
551.64	996.89
551.99	999.78
552.35	1003.05
552.70	1006.11
553.06	1009.81
553.41	1013.00
553.77	1016.66
554.13	1019.72
554.48	1022.99
554.84	1026.28
555.19	1029.28
555.55	1033.20
555.90	1035.89
556.26	1038.67
556.61	1041.04
556.97	1042.87
557.32	1045.49
557.68	1048.22
558.03	1050.89
558.39	1053.36
558.74	1055.43
559.10	1057.31
559.45	1059.11
559.81	1060.84
560.16	1062.74
560.52	1064.34
560.87	1066.19
561.23	1067.66
561.58	1070.25
561.94	1071.48
562.29	1072.58
562.64	1074.41
563.00	1074.61
563.35	1076.60
563.71	1078.23
564.06	1079.82
564.42	1081.38
564.77	1083.07
565.12	1084.54
565.48	1086.91
565.83	1088.61
566.19	1090.57
566.54	1092.13
566.89	1093.53
567.25	1095.08
567.60	1097.07
567.96	1099.12
568.31	1101.13
568.66	1102.31
569.02	1102.43
569.37	1103.59
569.72	1105.01
570.08	1105.19
570.43	1105.61
570.78	1106.05
571.14	1106.43
571.49	1106.65
571.84	1106.98
572.20	1107.06
572.55	1106.76
572.90	1105.29
573.26	1104.70
573.61	1103.52
573.96	1102.85
574.31	1101.90
574.67	1100.90
575.02	1099.30
575.37	1097.23
575.72	1095.33
576.08	1094.32
576.43	1092.67
576.78	1091.05
577.13	1089.29
577.49	1088.00
577.84	1087.08
578.19	1085.88
578.54	1084.72
578.90	1083.79
579.25	1082.42
579.60	1080.59
579.95	1078.93
580.30	1077.10
580.66	1075.22
581.01	1073.59
581.36	1071.26
581.71	1069.61
582.06	1068.07
582.42	1066.21
582.77	1064.48
583.12	1062.67
583.47	1060.14
583.82	1058.70
584.17	1057.04
584.53	1055.37
584.88	1052.74
585.23	1050.58
585.58	1047.35
585.93	1044.10
586.28	1041.40
586.63	1038.38
586.98	1035.60
587.34	1033.19
587.69	1030.59
588.04	1028.07
588.39	1025.91
588.74	1023.51
589.09	1021.18
589.44	1017.81
589.79	1015.00
590.14	1012.63
590.49	1009.84
590.84	1007.16
591.19	1004.32
591.54	1001.20
591.89	998.16
592.25	997.04
592.60	993.99
592.95	991.75
593.30	989.43
593.65	986.29
594.00	983.45
594.35	982.94
594.70	979.84
595.05	976.75
595.40	973.63
595.75	969.93
596.10	967.04
596.45	963.85
596.80	960.92
597.15	957.93
597.50	954.20
597.85	951.50
598.19	948.09
598.54	944.57
598.89	941.09
599.24	937.99
599.59	933.90
599.94	930.42
600.29	927.02
600.64	923.77
600.99	920.86
601.34	918.25
601.69	912.68
602.04	909.33
602.39	906.30
602.74	903.42
603.08	900.71
603.43	898.03
603.78	894.98
604.13	891.82
604.48	888.68
604.83	885.50
605.18	881.54
605.53	878.41
605.87	875.19
606.22	872.73
606.57	869.33
606.92	865.95
607.27	862.96
607.62	859.70
607.96	856.58
608.31	853.47
608.66	850.06
609.01	846.66
609.36	843.37
609.70	840.28
610.05	836.93
610.40	833.73
610.75	829.93
611.10	826.59
611.44	823.06
611.79	819.50
612.14	816.43
612.49	812.98
612.83	809.90
613.18	806.90
613.53	803.46
613.88	799.79
614.22	796.11
614.57	792.34
614.92	788.78
615.27	785.46
615.61	781.43
615.96	777.82
616.31	774.42
616.65	771.32
617.00	767.70
617.35	764.27
617.70	760.83
618.04	757.49
618.39	753.75
618.74	750.96
619.08	747.68
619.43	744.02
619.78	740.64
620.12	737.04
620.47	733.31
620.82	729.41
621.16	726.03
621.51	723.52
621.85	720.34
622.20	716.85
622.55	713.15
622.89	709.88
623.24	706.81
623.59	703.48
623.93	699.93
624.28	696.79
624.62	694.53
624.97	691.64
625.32	688.48
625.66	685.19
626.01	681.53
626.35	678.51
626.70	675.38
627.04	672.54
627.39	669.21
627.73	666.41
628.08	663.71
628.43	660.60
628.77	656.76
629.12	653.60
629.46	651.06
629.81	648.66
630.15	645.95
630.50	642.81
630.84	640.00
631.19	637.36
631.53	634.51
631.88	630.65
632.22	627.14
632.57	624.33
632.91	621.43
633.26	618.71
633.60	615.62
633.95	612.51
634.29	609.32
634.64	606.50
634.98	603.23
635.32	600.45
635.67	597.85
636.01	595.40
636.36	592.67
636.70	590.01
637.05	586.91
637.39	584.28
637.73	581.80
638.08	579.28
638.42	576.45
638.77	573.71
639.11	570.54
639.45	567.70
639.80	564.78
640.14	562.38
640.49	559.59
640.83	556.93
641.17	554.77
641.52	552.29
641.86	549.83
642.20	548.03
642.55	545.27
642.89	542.79
643.23	540.00
643.58	537.76
643.92	534.93
644.26	532.27
644.61	529.89
644.95	527.17
645.29	524.59
645.64	522.18
645.98	519.55
646.32	517.70
646.66	515.24
647.01	512.83
647.35	510.66
647.69	508.51
648.04	506.30
648.38	503.90
648.72	501.55
649.06	499.21
649.41	496.44
649.75	494.10
650.09	491.92
650.43	489.74
650.78	487.23
651.12	484.87
651.46	482.62
651.80	480.36
652.14	478.07
652.49	475.97
652.83	473.62
653.17	471.38
653.51	468.90
653.85	466.93
654.20	464.84
654.54	462.43
654.88	460.20
655.22	458.48
655.56	456.45
655.90	454.56
656.25	452.58
656.59	450.53
656.93	448.74
657.27	446.92
657.61	444.77
657.95	442.94
658.29	441.09
658.64	439.27
658.98	437.02
659.32	435.09
659.66	433.16
660.00	431.47
660.34	429.65
660.68	427.85
661.02	426.03
661.36	424.21
661.70	422.28
662.05	420.40
662.39	418.61
662.73	416.94
663.07	415.55
663.41	413.78
663.75	411.96
664.09	410.16
664.43	408.09
664.77	406.63
665.11	404.93
665.45	403.31
665.79	401.92
666.13	400.35
666.47	398.59
666.81	396.86
667.15	394.94
667.49	393.49
667.83	392.31
668.17	390.85
668.51	389.39
668.85	388.15
669.19	387.26
669.53	385.40
669.87	383.79
670.21	381.99
670.55	380.59
670.89	379.68
671.23	378.20
671.57	376.80
671.91	375.30
672.25	373.83
672.58	372.63
672.92	370.95
673.26	369.74
673.60	368.65
673.94	367.44
674.28	366.41
674.62	365.32
674.96	363.72
675.30	362.51
675.64	361.33
675.97	359.99
676.31	358.34
676.65	357.18
676.99	356.36
677.33	355.00
677.67	353.76
678.01	352.18
678.34	350.97
678.68	350.00
679.02	348.67
679.36	347.59
679.70	346.36
680.04	345.28
680.37	344.17
680.71	343.03
681.05	341.99
681.39	340.81
681.73	339.52
682.06	338.56
682.40	337.52
682.74	336.58
683.08	335.96
683.42	334.83
683.75	333.92
684.09	332.60
684.43	331.80
684.77	330.66
685.10	329.73
685.44	328.91
685.78	327.88
686.12	326.99
686.45	326.05
686.79	324.97
687.13	324.23
687.46	323.34
687.80	322.64
688.14	321.66
688.48	320.78
688.81	320.00
689.15	319.18
689.49	318.18
689.82	317.17
690.16	315.86
690.50	314.97
690.83	313.94
691.17	312.90
691.51	311.88
691.84	311.26
692.18	310.32
692.52	309.32
692.85	308.52
693.19	308.18
693.52	307.36
693.86	306.54
694.20	305.52
694.53	304.69
694.87	303.69
695.21	302.78
695.54	302.12
695.88	301.20
696.21	300.13
696.55	299.42
696.88	298.59
697.22	297.73
697.56	297.10
697.89	296.31
698.23	295.70
698.56	294.99
698.90	294.50
699.23	293.84
699.57	293.28
699.90	292.42
700.24	291.41
700.58	290.85
700.91	290.46
701.25	290.70
701.58	290.84
701.92	290.47
702.25	290.00
702.59	289.17
702.92	288.62
703.26	288.29
703.59	287.71
703.93	288.03
704.26	287.66
704.60	287.24
704.93	286.65
705.26	286.00
705.60	285.72
705.93	284.78
706.27	284.48
706.60	284.14
706.94	284.18
707.27	283.62
707.61	283.21
707.94	282.58
708.27	281.31
708.61	279.98
708.94	279.39
709.28	278.89
709.61	278.41
709.94	277.99
710.28	277.41
710.61	276.88
710.95	275.48
711.28	275.55
711.61	274.95
711.95	274.67
712.28	274.20
712.61	273.58
712.95	273.61
713.28	273.50
713.61	272.84
713.95	272.05
714.28	271.60
714.61	270.92
714.95	270.47
715.28	269.81
715.61	269.42
715.95	268.97
716.28	268.30
716.61	268.01
716.95	267.42
717.28	266.94
717.61	266.48
717.94	266.22
718.28	265.09
718.61	264.62
718.94	264.10
719.27	263.63
719.61	263.31
719.94	262.80
720.27	261.92
720.60	261.49
720.94	261.07
721.27	260.92
721.60	260.79
721.93	260.47
722.27	260.59
722.60	260.25
722.93	259.84
723.26	259.66
723.59	259.22
723.93	259.11
724.26	258.93
724.59	258.60
724.92	258.24
725.25	258.23
725.59	257.97
725.92	257.76
726.25	257.50
726.58	257.28
726.91	256.85
727.24	256.78
727.57	256.42
727.91	256.05
728.24	255.63
728.57	255.21
728.90	255.02
729.23	254.45
729.56	254.72
729.89	254.51
730.22	254.27
730.55	254.00
730.89	253.73
731.22	253.48
731.55	253.29
731.88	253.13
732.21	252.71
732.54	252.38
732.87	252.15
733.20	252.04
733.53	251.78
733.86	251.68
734.19	251.15
734.52	251.11
734.85	251.59
735.18	251.41
735.51	251.50
735.84	251.37
736.17	251.46
736.50	250.65
736.83	251.50
737.16	251.35
737.49	251.19
737.82	251.03
738.15	250.90
738.48	250.70
738.81	250.49
739.14	250.29
739.47	250.13
739.80	249.93
740.13	249.87
740.46	249.56
740.79	249.21
741.12	249.17
741.45	248.82
741.78	248.04
742.11	247.98
742.44	247.58
742.77	247.45
743.10	247.04
743.43	246.91
743.75	245.76
744.08	246.76
744.41	246.47
744.74	246.20
745.07	245.89
745.40	245.86
745.73	246.05
746.06	245.82
746.39	245.68
746.71	245.51
747.04	245.23
747.37	245.02
747.70	244.99
748.03	244.74
748.36	244.75
748.68	244.58
749.01	244.20
749.34	244.02
749.67	243.76
750.00	243.78
750.33	244.38
750.65	244.23
750.98	242.89
751.31	242.83
751.64	242.74
751.97	243.11
752.29	242.79
752.62	242.22
752.95	242.02
753.28	241.75
753.60	241.57
753.93	241.60
754.26	241.60
754.59	241.25
754.91	241.11
755.24	240.89
755.57	240.88
755.90	240.66
756.22	240.40
756.55	240.21
756.88	239.92
757.20	239.06
757.53	238.73
757.86	238.55
758.19	238.54
758.51	238.42
758.84	237.84
759.17	237.69
759.49	237.58
759.82	238.05
760.15	238.03
760.47	237.83
760.80	237.43
761.13	237.48
761.45	237.37
761.78	237.28
762.11	237.28
762.43	237.05
762.76	236.88
763.08	236.86
763.41	236.83
763.74	236.68
764.06	236.62
764.39	236.58
764.71	236.62
765.04	236.35
765.37	236.11
765.69	235.93
766.02	235.84
766.34	235.56
766.67	235.06
767.00	235.11
767.32	235.60
767.65	236.14
767.97	235.95
768.30	235.95
768.62	235.85
768.95	235.72
769.27	235.60
769.60	235.79
769.92	235.67
770.25	235.49
770.57	235.28
770.90	235.30
771.22	235.16
771.55	235.01
771.87	235.04
772.20	234.98
772.52	235.75
772.85	236.76
773.17	236.87
773.50	236.70
773.82	236.60
774.15	236.11
774.47	235.38
774.80	235.20
775.12	235.12
775.45	235.09
775.77	234.95
776.09	234.97
776.42	234.98
776.74	235.24
777.07	235.15
777.39	235.38
777.72	235.18
778.04	235.30
778.36	235.19
778.69	235.26
779.01	235.27
779.33	234.41
779.66	233.35
779.98	233.31
780.31	233.44
780.63	233.76
780.95	233.93
781.28	233.89
781.60	233.80
781.92	233.77
782.25	233.77
782.57	233.79
782.89	233.67
783.22	233.55
783.54	233.29
783.86	233.21
784.19	232.95
784.51	233.15
784.83	233.08
785.16	233.06
785.48	232.81
785.80	232.79
786.12	232.82
786.45	232.77
786.77	232.77
787.09	232.60
787.42	232.24
787.74	232.13
788.06	232.32
788.38	232.37
788.71	232.23
789.03	232.20
789.35	232.26
789.67	232.16
789.99	232.19
790.32	232.10
790.64	232.31
790.96	233.00
791.28	232.68
791.61	232.42
791.93	232.49
792.25	232.50
792.57	233.07
792.89	232.95
793.21	233.02
793.54	232.91
793.86	232.84
794.18	232.84
794.50	232.68
794.82	232.61
795.14	232.66
795.47	232.82
795.79	232.81
796.11	232.59
796.43	232.48
796.75	232.39
797.07	232.33
797.39	232.21
797.71	231.60
798.04	231.54
798.36	231.67
798.68	231.61
799.00	231.70
799.32	231.18
799.64	231.30
799.96	231.27
800.28	231.40
800.60	231.21
800.92	231.31
801.24	231.24
801.56	231.13
801.89	230.96
802.21	230.90
802.53	230.60
802.85	230.78
803.17	231.20
803.49	231.02
803.81	230.90
804.13	230.78
804.45	230.56
804.77	230.62
805.09	230.61
805.41	230.40
805.73	230.19
806.05	230.00
806.37	229.86
806.69	229.66
807.01	229.53
807.33	229.69
807.65	229.22
807.97	229.57
808.28	229.44
808.60	229.45
808.92	229.36
809.24	230.03
809.56	229.89
809.88	229.56
810.20	229.68
810.52	229.84
810.84	229.76
811.16	229.75
811.48	229.74
811.80	229.96
812.12	230.08
812.43	230.24
812.75	230.33
813.07	230.21
813.39	230.34
813.71	230.20
814.03	230.11
814.35	230.27
814.67	229.88
814.98	229.88
815.30	229.82
815.62	229.67
815.94	229.05
816.26	229.56
816.58	229.27
816.89	229.23
817.21	229.10
817.53	229.20
817.85	229.20
818.17	229.12
818.48	228.79
818.80	228.99
819.12	228.87
819.44	228.75
819.76	228.68
820.07	228.70
820.39	228.73
820.71	228.79
821.03	228.70
821.34	228.69
821.66	228.85
