SpectraSuite Data File
++++++++++++++++++++++++++++++++++++
Date: Wed Sep 04 17:30:42 EDT 2013
User: lab3
Dark Spectrum Present: Yes
Reference Spectrum Present: No
Number of Sampled Component Spectra: 1
Spectrometers: USB2E7196
Integration Time (usec): 337000 (USB2E7196)
Spectra Averaged: 10 (USB2E7196)
Boxcar Smoothing: 10 (USB2E7196)
Correct for Electrical Dark: No (USB2E7196)
Strobe/Lamp Enabled: No (USB2E7196)
Correct for Detector Non-linearity: No (USB2E7196)
Correct for Stray Light: No (USB2E7196)
Number of Pixels in Processed Spectrum: 2048
>>>>>Begin Processed Spectral Data<<<<<
339.09	0.00
339.48	210.80
339.86	214.00
340.24	215.40
340.63	219.60
341.01	232.40
341.39	219.90
341.78	222.60
342.16	225.10
342.54	224.00
342.93	212.95
343.31	223.66
343.69	224.38
344.07	224.80
344.46	225.35
344.84	225.75
345.22	225.45
345.60	225.76
345.99	226.02
346.37	225.99
346.75	226.00
347.13	226.16
347.52	226.16
347.90	226.47
348.28	226.43
348.66	226.74
349.05	226.42
349.43	226.50
349.81	226.62
350.19	226.68
350.57	226.77
350.96	226.86
351.34	226.96
351.72	226.92
352.10	227.13
352.48	227.07
352.87	226.97
353.25	227.00
353.63	226.99
354.01	226.89
354.39	227.08
354.77	227.23
355.15	227.51
355.54	227.50
355.92	227.28
356.30	227.28
356.68	227.98
357.06	228.10
357.44	228.00
357.82	227.99
358.20	228.84
358.58	228.93
358.97	228.92
359.35	229.17
359.73	229.45
360.11	229.40
360.49	229.48
360.87	229.60
361.25	229.73
361.63	230.12
362.01	230.14
362.39	230.18
362.77	230.27
363.15	230.23
363.53	230.22
363.91	230.29
364.29	230.36
364.67	229.38
365.05	229.43
365.43	229.65
365.81	229.87
366.19	229.49
366.57	229.80
366.95	229.88
367.33	229.61
367.71	229.55
368.09	229.73
368.47	229.74
368.85	229.65
369.23	229.81
369.61	229.46
369.99	229.90
370.37	229.94
370.75	230.39
371.13	230.29
371.51	230.12
371.89	230.27
372.27	230.31
372.65	230.44
373.03	230.42
373.41	230.22
373.78	230.10
374.16	229.65
374.54	229.31
374.92	229.41
375.30	229.42
375.68	229.23
376.06	229.28
376.44	229.19
376.82	229.28
377.19	229.23
377.57	229.13
377.95	228.73
378.33	228.52
378.71	227.96
379.09	227.92
379.47	228.14
379.84	228.03
380.22	227.79
380.60	227.55
380.98	227.48
381.36	227.47
381.73	227.27
382.11	227.40
382.49	227.53
382.87	227.25
383.25	227.20
383.62	228.38
384.00	228.13
384.38	228.19
384.76	228.27
385.13	228.49
385.51	228.50
385.89	228.36
386.27	228.49
386.64	228.57
387.02	228.54
387.40	228.36
387.78	228.37
388.15	228.50
388.53	228.40
388.91	228.33
389.29	228.24
389.66	228.45
390.04	228.35
390.42	228.34
390.79	228.39
391.17	228.44
391.55	227.28
391.92	227.27
392.30	227.45
392.68	227.36
393.05	227.33
393.43	227.35
393.81	227.45
394.18	227.28
394.56	227.30
394.94	227.54
395.31	227.45
395.69	227.67
396.06	227.77
396.44	228.07
396.82	228.02
397.19	228.65
397.57	228.58
397.95	228.76
398.32	228.58
398.70	228.66
399.07	228.93
399.45	229.04
399.82	229.16
400.20	229.11
400.58	229.14
400.95	228.84
401.33	229.17
401.70	229.89
402.08	230.10
402.45	230.23
402.83	230.50
403.20	230.86
403.58	230.88
403.95	231.27
404.33	231.56
404.71	231.91
405.08	232.55
405.46	232.84
405.83	233.15
406.21	233.48
406.58	233.98
406.96	234.30
407.33	234.81
407.70	235.33
408.08	236.46
408.45	237.18
408.83	238.08
409.20	238.56
409.58	238.80
409.95	239.80
410.33	240.51
410.70	240.98
411.08	241.97
411.45	242.98
411.82	243.85
412.20	245.08
412.57	246.83
412.95	247.20
413.32	248.74
413.69	250.03
414.07	251.65
414.44	253.24
414.82	254.97
415.19	256.91
415.56	258.81
415.94	260.39
416.31	262.71
416.68	264.94
417.06	267.69
417.43	270.37
417.81	273.11
418.18	276.15
418.55	279.36
418.93	282.72
419.30	286.19
419.67	289.87
420.04	293.59
420.42	297.27
420.79	302.70
421.16	307.31
421.54	312.65
421.91	317.72
422.28	322.90
422.66	328.35
423.03	334.52
423.40	340.36
423.77	346.52
424.15	352.80
424.52	359.40
424.89	366.68
425.26	373.52
425.64	380.05
426.01	387.35
426.38	394.97
426.75	402.90
427.13	410.83
427.50	419.21
427.87	427.72
428.24	436.11
428.61	443.77
428.99	453.29
429.36	462.54
429.73	472.27
430.10	482.07
430.47	492.08
430.85	501.68
431.22	512.52
431.59	524.52
431.96	535.42
432.33	547.49
432.70	559.25
433.08	573.20
433.45	586.69
433.82	600.09
434.19	615.04
434.56	629.67
434.93	643.52
435.30	657.40
435.68	673.08
436.05	688.91
436.42	704.05
436.79	718.04
437.16	733.72
437.53	749.84
437.90	765.77
438.27	781.78
438.64	798.53
439.01	814.19
439.38	827.40
439.75	840.94
440.13	856.30
440.50	870.50
440.87	882.24
441.24	894.32
441.61	907.26
441.98	917.39
442.35	928.75
442.72	940.69
443.09	952.46
443.46	959.60
443.83	964.61
444.20	969.08
444.57	975.07
444.94	977.76
445.31	980.88
445.68	984.65
446.05	986.00
446.42	984.51
446.79	983.02
447.16	981.36
447.53	980.10
447.90	974.42
448.27	968.74
448.64	960.69
449.01	955.22
449.37	945.19
449.74	934.86
450.11	923.42
450.48	910.23
450.85	896.26
451.22	884.50
451.59	872.84
451.96	862.20
452.33	847.83
452.70	835.14
453.07	819.94
453.43	803.80
453.80	788.88
454.17	774.59
454.54	760.70
454.91	746.40
455.28	732.14
455.65	718.75
456.02	706.64
456.38	695.41
456.75	681.26
457.12	669.57
457.49	658.18
457.86	646.55
458.23	637.19
458.59	626.82
458.96	616.41
459.33	607.44
459.70	598.46
460.07	591.08
460.43	582.58
460.80	574.70
461.17	567.92
461.54	560.68
461.91	553.84
462.27	546.73
462.64	540.52
463.01	534.12
463.38	528.34
463.74	520.95
464.11	515.50
464.48	510.84
464.85	505.80
465.21	501.93
465.58	497.51
465.95	492.21
466.32	488.05
466.68	484.00
467.05	479.80
467.42	475.59
467.78	471.23
468.15	467.22
468.52	464.40
468.88	460.08
469.25	456.51
469.62	453.81
469.98	450.82
470.35	448.06
470.72	445.22
471.08	441.79
471.45	439.54
471.82	437.27
472.18	434.44
472.55	432.37
472.92	429.92
473.28	427.97
473.65	426.00
474.02	424.07
474.38	422.29
474.75	420.87
475.11	419.25
475.48	418.20
475.85	417.17
476.21	415.58
476.58	414.73
476.94	413.87
477.31	412.96
477.67	412.15
478.04	411.38
478.41	410.87
478.77	411.44
479.14	410.77
479.50	410.42
479.87	410.23
480.23	410.10
480.60	409.78
480.96	409.59
481.33	410.17
481.69	410.28
482.06	410.45
482.42	410.58
482.79	410.71
483.15	410.96
483.52	411.63
483.88	412.20
484.25	412.60
484.61	413.28
484.98	413.69
485.34	414.96
485.71	416.05
486.07	417.11
486.44	417.37
486.80	418.48
487.17	419.66
487.53	421.31
487.90	422.91
488.26	424.92
488.62	426.85
488.99	428.27
489.35	430.32
489.72	432.44
490.08	434.70
490.44	437.07
490.81	439.54
491.17	441.92
491.54	444.54
491.90	447.43
492.26	450.40
492.63	453.36
492.99	456.04
493.36	459.10
493.72	462.64
494.08	466.00
494.45	469.81
494.81	473.55
495.17	477.14
495.54	481.20
495.90	484.99
496.26	489.00
496.63	493.23
496.99	497.38
497.35	501.61
497.72	506.06
498.08	510.56
498.44	515.13
498.80	519.85
499.17	524.70
499.53	529.30
499.89	534.12
500.26	539.24
500.62	544.14
500.98	549.39
501.34	554.32
501.71	559.58
502.07	564.50
502.43	569.57
502.79	574.58
503.16	579.59
503.52	584.73
503.88	589.72
504.24	595.05
504.60	600.30
504.97	605.88
505.33	611.08
505.69	616.73
506.05	622.07
506.41	627.39
506.78	632.45
507.14	637.87
507.50	643.50
507.86	648.83
508.22	654.43
508.59	659.47
508.95	664.64
509.31	670.03
509.67	675.03
510.03	679.86
510.39	684.90
510.75	689.86
511.12	694.66
511.48	699.46
511.84	704.02
512.20	708.64
512.56	712.90
512.92	717.55
513.28	721.83
513.64	726.20
514.00	730.40
514.37	734.90
514.73	738.88
515.09	742.78
515.45	746.58
515.81	750.11
516.17	753.94
516.53	757.47
516.89	760.69
517.25	764.55
517.61	768.59
517.97	772.29
518.33	775.87
518.69	779.69
519.05	783.42
519.41	786.77
519.77	790.67
520.13	794.16
520.49	797.12
520.85	803.01
521.21	806.43
521.57	809.65
521.93	812.39
522.29	815.70
522.65	818.13
523.01	820.71
523.37	823.06
523.73	825.79
524.09	828.22
524.45	830.78
524.81	833.18
525.17	835.53
525.53	837.89
525.89	840.19
526.25	842.26
526.61	844.05
526.97	846.27
527.33	848.44
527.68	851.57
528.04	854.38
528.40	853.79
528.76	856.58
529.12	859.25
529.48	861.94
529.84	864.37
530.20	867.31
530.56	870.50
530.91	874.10
531.27	877.08
531.63	880.53
531.99	883.63
532.35	886.53
532.71	889.64
533.07	893.05
533.42	897.39
533.78	900.74
534.14	904.37
534.50	907.61
534.86	911.24
535.21	913.73
535.57	917.03
535.93	920.37
536.29	923.48
536.65	926.80
537.00	930.14
537.36	933.33
537.72	936.56
538.08	940.16
538.44	943.00
538.79	946.32
539.15	949.28
539.51	952.78
539.87	956.26
540.22	959.07
540.58	962.00
540.94	963.90
541.29	966.86
541.65	969.77
542.01	973.16
542.37	975.71
542.72	978.52
543.08	980.91
543.44	984.31
543.79	986.30
544.15	988.95
544.51	991.99
544.87	994.67
545.22	997.14
545.58	999.42
545.94	1001.99
546.29	1004.11
546.65	1006.35
547.01	1008.42
547.36	1010.68
547.72	1013.32
548.07	1015.50
548.43	1017.59
548.79	1019.90
549.14	1022.10
549.50	1024.40
549.86	1026.35
550.21	1028.94
550.57	1031.67
550.92	1033.52
551.28	1036.22
551.64	1038.24
551.99	1040.63
552.35	1043.10
552.70	1045.52
553.06	1047.84
553.41	1050.17
553.77	1052.94
554.13	1055.47
554.48	1057.79
554.84	1060.18
555.19	1062.41
555.55	1065.94
555.90	1068.09
556.26	1069.97
556.61	1071.69
556.97	1073.00
557.32	1074.97
557.68	1076.74
558.03	1078.06
558.39	1079.66
558.74	1081.36
559.10	1082.76
559.45	1084.12
559.81	1085.21
560.16	1086.32
560.52	1087.56
560.87	1089.01
561.23	1089.83
561.58	1091.53
561.94	1092.60
562.29	1093.18
562.64	1094.22
563.00	1093.84
563.35	1094.79
563.71	1095.76
564.06	1096.90
564.42	1098.14
564.77	1099.30
565.12	1100.46
565.48	1102.55
565.83	1103.82
566.19	1105.01
566.54	1106.03
566.89	1106.90
567.25	1108.47
567.60	1110.12
567.96	1111.52
568.31	1112.64
568.66	1113.84
569.02	1113.55
569.37	1114.08
569.72	1115.03
570.08	1115.12
570.43	1115.23
570.78	1115.90
571.14	1116.10
571.49	1115.81
571.84	1115.84
572.20	1115.58
572.55	1115.02
572.90	1113.65
573.26	1112.73
573.61	1111.52
573.96	1110.91
574.31	1109.64
574.67	1108.00
575.02	1106.09
575.37	1103.97
575.72	1102.11
576.08	1100.30
576.43	1098.90
576.78	1097.00
577.13	1094.98
577.49	1093.46
577.84	1092.16
578.19	1090.45
578.54	1088.89
578.90	1087.84
579.25	1086.31
579.60	1084.54
579.95	1082.38
580.30	1080.57
580.66	1078.76
581.01	1076.77
581.36	1074.13
581.71	1072.09
582.06	1070.50
582.42	1068.68
582.77	1066.71
583.12	1064.88
583.47	1063.02
583.82	1061.23
584.17	1059.49
584.53	1058.04
584.88	1055.56
585.23	1053.46
585.58	1050.60
585.93	1047.90
586.28	1045.09
586.63	1042.07
586.98	1039.15
587.34	1036.73
587.69	1033.71
588.04	1031.22
588.39	1028.96
588.74	1026.53
589.09	1024.19
589.44	1020.75
589.79	1018.01
590.14	1015.34
590.49	1012.49
590.84	1009.62
591.19	1007.06
591.54	1004.46
591.89	1001.21
592.25	999.79
592.60	997.07
592.95	994.44
593.30	991.81
593.65	988.82
594.00	985.55
594.35	985.56
594.70	982.36
595.05	979.63
595.40	976.25
595.75	972.87
596.10	969.95
596.45	966.57
596.80	963.70
597.15	960.69
597.50	957.63
597.85	954.61
598.19	951.30
598.54	947.65
598.89	944.01
599.24	941.03
599.59	937.05
599.94	933.19
600.29	930.10
600.64	926.78
600.99	923.70
601.34	921.28
601.69	915.31
602.04	912.04
602.39	908.54
602.74	905.70
603.08	902.70
603.43	900.14
603.78	897.21
604.13	894.12
604.48	890.47
604.83	886.92
605.18	883.44
605.53	880.33
605.87	877.35
606.22	874.62
606.57	871.22
606.92	867.70
607.27	864.56
607.62	861.40
607.96	858.44
608.31	855.31
608.66	851.90
609.01	848.66
609.36	845.71
609.70	842.83
610.05	839.36
610.40	836.20
610.75	832.51
611.10	829.09
611.44	825.75
611.79	822.70
612.14	819.69
612.49	816.20
612.83	812.91
613.18	809.61
613.53	806.11
613.88	802.74
614.22	799.28
614.57	795.81
614.92	791.92
615.27	788.34
615.61	784.84
615.96	781.23
616.31	777.80
616.65	774.53
617.00	771.18
617.35	767.80
617.70	764.02
618.04	760.40
618.39	756.77
618.74	753.80
619.08	750.22
619.43	746.71
619.78	743.31
620.12	739.68
620.47	736.03
620.82	732.30
621.16	728.80
621.51	725.88
621.85	722.64
622.20	719.35
622.55	715.69
622.89	712.30
623.24	709.22
623.59	705.76
623.93	702.60
624.28	699.11
624.62	696.76
624.97	694.16
625.32	691.11
625.66	688.26
626.01	684.55
626.35	681.50
626.70	678.27
627.04	675.40
627.39	672.16
627.73	669.40
628.08	666.55
628.43	663.37
628.77	659.97
629.12	657.02
629.46	654.47
629.81	652.13
630.15	649.19
630.50	646.10
630.84	643.38
631.19	640.12
631.53	637.40
631.88	633.53
632.22	630.13
632.57	627.49
632.91	624.38
633.26	621.68
633.60	618.66
633.95	615.73
634.29	612.43
634.64	609.69
634.98	606.30
635.32	603.48
635.67	600.95
636.01	598.03
636.36	595.16
636.70	592.55
637.05	589.60
637.39	587.00
637.73	584.31
638.08	581.70
638.42	578.80
638.77	575.88
639.11	572.78
639.45	569.66
639.80	566.51
640.14	563.70
640.49	560.90
640.83	558.44
641.17	555.93
641.52	553.30
641.86	550.79
642.20	549.06
642.55	546.45
642.89	543.69
643.23	541.27
643.58	539.02
643.92	536.00
644.26	533.41
644.61	531.00
644.95	528.55
645.29	525.74
645.64	523.60
645.98	521.34
646.32	519.44
646.66	517.20
647.01	514.82
647.35	512.66
647.69	510.43
648.04	508.07
648.38	505.90
648.72	503.63
649.06	500.95
649.41	498.01
649.75	495.55
650.09	493.16
650.43	490.86
650.78	488.25
651.12	485.96
651.46	483.52
651.80	481.01
652.14	478.75
652.49	476.89
652.83	474.55
653.17	472.06
653.51	469.54
653.85	467.70
654.20	465.60
654.54	463.41
654.88	461.12
655.22	459.49
655.56	457.43
655.90	455.49
656.25	453.55
656.59	451.66
656.93	449.90
657.27	448.30
657.61	446.03
657.95	444.19
658.29	442.20
658.64	440.58
658.98	438.55
659.32	436.41
659.66	434.29
660.00	432.46
660.34	430.77
660.68	429.03
661.02	426.95
661.36	425.04
661.70	422.99
662.05	421.19
662.39	419.27
662.73	417.50
663.07	416.45
663.41	414.83
663.75	413.07
664.09	411.30
664.43	409.07
664.77	407.52
665.11	405.82
665.45	404.36
665.79	402.74
666.13	401.06
666.47	399.59
666.81	397.99
667.15	396.05
667.49	394.59
667.83	393.46
668.17	391.92
668.51	390.46
668.85	389.35
669.19	388.51
669.53	386.72
669.87	385.10
670.21	382.90
670.55	381.36
670.89	380.28
671.23	378.73
671.57	377.52
671.91	376.18
672.25	374.79
672.58	373.66
672.92	372.03
673.26	370.68
673.60	369.38
673.94	368.04
674.28	367.11
674.62	365.86
674.96	364.31
675.30	363.09
675.64	361.86
675.97	360.43
676.31	358.72
676.65	357.44
676.99	356.40
677.33	355.23
677.67	354.24
678.01	352.55
678.34	351.31
678.68	350.27
679.02	348.99
679.36	347.76
679.70	346.33
680.04	345.07
680.37	344.11
680.71	342.99
681.05	341.93
681.39	340.93
681.73	339.79
682.06	338.66
682.40	337.64
682.74	336.72
683.08	335.89
683.42	334.65
683.75	333.93
684.09	332.62
684.43	331.75
684.77	330.59
685.10	329.75
685.44	328.79
685.78	327.77
686.12	326.74
686.45	325.75
686.79	324.75
687.13	323.99
687.46	323.06
687.80	322.39
688.14	321.46
688.48	320.46
688.81	319.53
689.15	318.71
689.49	317.74
689.82	316.81
690.16	315.78
690.50	314.97
690.83	313.86
691.17	313.09
691.51	312.16
691.84	311.58
692.18	310.60
692.52	309.77
692.85	309.01
693.19	308.69
693.52	307.92
693.86	307.04
694.20	306.29
694.53	305.55
694.87	304.54
695.21	303.69
695.54	302.86
695.88	302.03
696.21	301.05
696.55	300.30
696.88	299.43
697.22	298.55
697.56	298.01
697.89	297.22
698.23	296.65
698.56	295.83
698.90	294.96
699.23	294.32
699.57	293.66
699.90	292.78
700.24	291.70
700.58	290.99
700.91	290.56
701.25	290.69
701.58	290.69
701.92	290.36
702.25	289.92
702.59	289.25
702.92	288.74
703.26	288.37
703.59	287.89
703.93	288.18
704.26	287.83
704.60	287.25
704.93	286.63
705.26	285.89
705.60	285.59
705.93	284.91
706.27	284.69
706.60	284.36
706.94	284.31
707.27	283.86
707.61	283.44
707.94	282.95
708.27	281.73
708.61	280.42
708.94	279.69
709.28	279.09
709.61	278.51
709.94	278.00
710.28	277.36
710.61	276.86
710.95	275.42
711.28	275.39
711.61	274.82
711.95	274.66
712.28	274.15
712.61	273.51
712.95	273.61
713.28	273.46
713.61	272.80
713.95	272.05
714.28	271.75
714.61	271.12
714.95	270.55
715.28	269.86
715.61	269.40
715.95	269.02
716.28	268.51
716.61	268.26
716.95	267.65
717.28	267.30
717.61	266.81
717.94	266.47
718.28	265.40
718.61	264.89
718.94	264.29
719.27	263.79
719.61	263.53
719.94	262.90
720.27	261.98
720.60	261.59
720.94	261.29
721.27	260.82
721.60	260.74
721.93	260.33
722.27	260.35
722.60	260.17
722.93	259.77
723.26	259.55
723.59	259.13
723.93	259.04
724.26	258.77
724.59	258.32
724.92	258.11
725.25	258.07
725.59	257.77
725.92	257.64
726.25	257.46
726.58	257.28
726.91	256.93
727.24	256.79
727.57	256.56
727.91	256.07
728.24	255.96
728.57	255.56
728.90	255.42
729.23	254.89
729.56	255.14
729.89	254.89
730.22	254.56
730.55	254.30
730.89	254.04
731.22	253.73
731.55	253.64
731.88	253.48
732.21	253.19
732.54	252.90
732.87	252.66
733.20	252.39
733.53	252.14
733.86	251.98
734.19	251.70
734.52	251.55
734.85	252.04
735.18	251.61
735.51	251.72
735.84	251.63
736.17	251.71
736.50	251.03
736.83	251.88
737.16	251.74
737.49	251.52
737.82	251.24
738.15	251.16
738.48	250.89
738.81	250.63
739.14	250.20
739.47	250.06
739.80	249.82
740.13	249.80
740.46	249.40
740.79	249.16
741.12	248.86
741.45	248.64
741.78	247.90
742.11	248.00
742.44	247.60
742.77	247.58
743.10	247.15
743.43	246.85
743.75	245.79
744.08	246.82
744.41	246.53
744.74	246.30
745.07	245.89
745.40	245.84
745.73	246.02
746.06	245.80
746.39	245.78
746.71	245.53
747.04	245.15
747.37	245.06
747.70	244.95
748.03	244.85
748.36	244.74
748.68	244.52
749.01	244.22
749.34	244.06
749.67	243.75
750.00	243.86
750.33	244.43
750.65	244.31
750.98	243.00
751.31	243.01
751.64	242.97
751.97	243.31
752.29	243.12
752.62	242.59
752.95	242.45
753.28	242.19
753.60	242.08
753.93	242.27
754.26	242.31
754.59	241.85
754.91	241.74
755.24	241.51
755.57	241.48
755.90	241.17
756.22	241.03
756.55	240.73
756.88	240.33
757.20	239.59
757.53	239.16
757.86	238.99
758.19	238.89
758.51	238.76
758.84	238.31
759.17	238.03
759.49	237.99
759.82	238.33
760.15	238.36
760.47	238.23
760.80	237.86
761.13	237.81
761.45	237.71
761.78	237.58
762.11	237.60
762.43	237.35
762.76	237.22
763.08	237.20
763.41	237.28
763.74	237.21
764.06	237.14
764.39	237.08
764.71	237.01
765.04	236.78
765.37	236.54
765.69	236.43
766.02	236.41
766.34	236.27
766.67	236.00
767.00	235.99
767.32	236.42
767.65	236.97
767.97	236.74
768.30	236.81
768.62	236.82
768.95	236.52
769.27	236.55
769.60	236.70
769.92	236.47
770.25	236.26
770.57	236.08
770.90	235.92
771.22	235.76
771.55	235.70
771.87	235.72
772.20	235.78
772.52	236.52
772.85	237.71
773.17	237.72
773.50	237.54
773.82	237.37
774.15	236.81
774.47	236.14
774.80	235.90
775.12	235.87
775.45	235.65
775.77	235.68
776.09	235.61
776.42	235.50
776.74	235.79
777.07	235.64
777.39	235.66
777.72	235.49
778.04	235.61
778.36	235.42
778.69	235.45
779.01	235.48
779.33	234.60
779.66	233.44
779.98	233.28
780.31	233.25
780.63	233.52
780.95	233.61
781.28	233.58
781.60	233.56
781.92	233.51
782.25	233.49
782.57	233.45
782.89	233.19
783.22	233.14
783.54	232.84
783.86	232.81
784.19	232.68
784.51	233.05
784.83	232.87
785.16	232.73
785.48	232.66
785.80	232.50
786.12	232.48
786.45	232.31
786.77	232.40
787.09	232.30
787.42	231.94
787.74	231.89
788.06	231.81
788.38	231.68
788.71	231.51
789.03	231.43
789.35	231.47
789.67	231.47
789.99	231.50
790.32	231.28
790.64	231.39
790.96	232.16
791.28	231.76
791.61	231.70
791.93	231.78
792.25	231.67
792.57	232.34
792.89	232.13
793.21	232.18
793.54	232.00
793.86	231.91
794.18	231.83
794.50	231.60
794.82	231.59
795.14	231.76
795.47	231.94
795.79	231.97
796.11	231.73
796.43	231.66
796.75	231.56
797.07	231.70
797.39	231.58
797.71	230.84
798.04	230.86
798.36	230.85
798.68	230.83
799.00	230.90
799.32	230.34
799.64	230.50
799.96	230.53
800.28	230.66
800.60	230.59
800.92	230.72
801.24	230.70
801.56	230.83
801.89	230.71
802.21	230.71
802.53	230.57
802.85	230.88
803.17	231.35
803.49	231.10
803.81	230.99
804.13	230.97
804.45	230.97
804.77	231.06
805.09	231.06
805.41	230.97
805.73	230.78
806.05	230.60
806.37	230.58
806.69	230.40
807.01	230.39
807.33	230.46
807.65	230.16
807.97	230.64
808.28	230.46
808.60	230.42
808.92	230.27
809.24	230.90
809.56	230.67
809.88	230.33
810.20	230.51
810.52	230.68
810.84	230.48
811.16	230.30
811.48	230.18
811.80	230.53
812.12	230.48
812.43	230.72
812.75	230.74
813.07	230.75
813.39	230.89
813.71	230.74
814.03	230.72
814.35	230.80
814.67	230.38
814.98	230.31
815.30	230.38
815.62	230.26
815.94	229.65
816.26	230.04
816.58	229.81
816.89	229.83
817.21	229.61
817.53	229.72
817.85	229.70
818.17	229.80
818.48	229.45
818.80	229.65
819.12	229.45
819.44	229.40
819.76	229.19
820.07	229.04
820.39	228.97
820.71	229.01
821.03	229.01
