SpectraSuite Data File
++++++++++++++++++++++++++++++++++++
Date: Wed Sep 04 17:31:55 EDT 2013
User: lab3
Dark Spectrum Present: Yes
Reference Spectrum Present: No
Number of Sampled Component Spectra: 1
Spectrometers: USB2E7196
Integration Time (usec): 337000 (USB2E7196)
Spectra Averaged: 10 (USB2E7196)
Boxcar Smoothing: 10 (USB2E7196)
Correct for Electrical Dark: No (USB2E7196)
Strobe/Lamp Enabled: No (USB2E7196)
Correct for Detector Non-linearity: No (USB2E7196)
Correct for Stray Light: No (USB2E7196)
Number of Pixels in Processed Spectrum: 2048
>>>>>Begin Processed Spectral Data<<<<<
339.09	0.00
339.48	212.20
339.86	213.20
340.24	217.30
340.63	218.10
341.01	231.30
341.39	221.10
341.78	222.90
342.16	224.00
342.54	226.00
342.93	213.39
343.31	224.07
343.69	224.69
344.07	225.22
344.46	225.73
344.84	226.16
345.22	225.81
345.60	226.12
345.99	226.39
346.37	226.52
346.75	226.43
347.13	226.50
347.52	226.55
347.90	226.88
348.28	226.96
348.66	227.27
349.05	226.83
349.43	226.93
349.81	226.94
350.19	226.98
350.57	226.99
350.96	227.12
351.34	227.28
351.72	227.31
352.10	227.36
352.48	227.40
352.87	227.37
353.25	227.45
353.63	227.44
354.01	227.42
354.39	227.45
354.77	227.63
355.15	227.93
355.54	227.89
355.92	227.65
356.30	227.60
356.68	228.13
357.06	228.30
357.44	228.30
357.82	228.39
358.20	229.20
358.58	229.27
358.97	229.37
359.35	229.64
359.73	229.99
360.11	230.04
360.49	230.02
360.87	230.08
361.25	230.27
361.63	230.56
362.01	230.64
362.39	230.68
362.77	230.79
363.15	230.70
363.53	230.89
363.91	230.99
364.29	231.09
364.67	230.29
365.05	230.49
365.43	230.55
365.81	230.81
366.19	230.48
366.57	230.78
366.95	230.69
367.33	230.42
367.71	230.39
368.09	230.54
368.47	230.61
368.85	230.61
369.23	230.78
369.61	230.50
369.99	230.78
370.37	230.88
370.75	231.26
371.13	231.05
371.51	230.76
371.89	230.82
372.27	230.89
372.65	230.85
373.03	230.77
373.41	230.72
373.78	230.52
374.16	230.00
374.54	229.66
374.92	229.52
375.30	229.45
375.68	229.11
376.06	229.13
376.44	228.91
376.82	228.88
377.19	228.80
377.57	228.68
377.95	228.28
378.33	228.11
378.71	227.47
379.09	227.54
379.47	227.66
379.84	227.40
380.22	227.09
380.60	226.93
380.98	226.82
381.36	226.67
381.73	226.43
382.11	226.55
382.49	226.60
382.87	226.49
383.25	226.47
383.62	227.59
384.00	227.32
384.38	227.38
384.76	227.43
385.13	227.64
385.51	227.61
385.89	227.49
386.27	227.40
386.64	227.50
387.02	227.36
387.40	227.22
387.78	227.29
388.15	227.35
388.53	227.32
388.91	227.38
389.29	227.33
389.66	227.58
390.04	227.47
390.42	227.55
390.79	227.62
391.17	227.60
391.55	226.53
391.92	226.61
392.30	226.80
392.68	226.64
393.05	226.61
393.43	226.67
393.81	226.75
394.18	226.75
394.56	226.79
394.94	227.10
395.31	227.03
395.69	227.35
396.06	227.70
396.44	227.81
396.82	227.71
397.19	228.25
397.57	228.10
397.95	228.35
398.32	228.27
398.70	228.33
399.07	228.77
399.45	228.76
399.82	228.77
400.20	228.68
400.58	228.80
400.95	228.50
401.33	228.83
401.70	229.67
402.08	229.82
402.45	230.01
402.83	230.36
403.20	230.72
403.58	230.76
403.95	230.96
404.33	231.28
404.71	231.58
405.08	232.29
405.46	232.59
405.83	232.90
406.21	233.25
406.58	233.71
406.96	233.93
407.33	234.45
407.70	235.09
408.08	236.20
408.45	236.82
408.83	237.60
409.20	237.92
409.58	237.83
409.95	238.67
410.33	239.40
410.70	239.74
411.08	240.61
411.45	241.45
411.82	242.05
412.20	243.13
412.57	244.49
412.95	244.61
413.32	245.80
413.69	246.79
414.07	247.91
414.44	249.10
414.82	250.35
415.19	251.93
415.56	253.37
415.94	254.60
416.31	256.50
416.68	258.34
417.06	260.64
417.43	262.91
417.81	265.01
418.18	267.40
418.55	269.98
418.93	272.61
419.30	275.20
419.67	278.27
420.04	281.18
420.42	284.13
420.79	288.62
421.16	292.30
421.54	296.63
421.91	300.68
422.28	304.84
422.66	309.16
423.03	313.90
423.40	318.36
423.77	322.95
424.15	327.67
424.52	332.61
424.89	338.10
425.26	343.30
425.64	348.42
426.01	353.85
426.38	359.61
426.75	365.82
427.13	372.05
427.50	378.25
427.87	384.80
428.24	391.55
428.61	397.25
428.99	404.56
429.36	411.83
429.73	419.17
430.10	426.76
430.47	434.59
430.85	442.14
431.22	450.69
431.59	460.36
431.96	468.86
432.33	478.41
432.70	487.48
433.08	498.00
433.45	508.18
433.82	518.45
434.19	529.85
434.56	540.76
434.93	551.35
435.30	562.09
435.68	573.97
436.05	585.66
436.42	597.35
436.79	607.90
437.16	619.41
437.53	631.61
437.90	643.75
438.27	655.83
438.64	668.14
439.01	679.79
439.38	689.65
439.75	699.77
440.13	711.01
440.50	721.87
440.87	730.90
441.24	740.25
441.61	750.52
441.98	757.98
442.35	766.61
442.72	775.49
443.09	784.40
443.46	789.54
443.83	792.99
444.20	795.93
444.57	800.40
444.94	802.38
445.31	804.50
445.68	807.41
446.05	808.24
446.42	807.11
446.79	805.79
447.16	804.08
447.53	802.94
447.90	798.59
448.27	794.03
448.64	787.81
449.01	783.29
449.37	775.08
449.74	767.02
450.11	758.22
450.48	747.90
450.85	736.79
451.22	727.96
451.59	719.42
451.96	711.31
452.33	700.31
452.70	690.76
453.07	679.16
453.43	666.19
453.80	654.59
454.17	643.75
454.54	633.06
454.91	622.08
455.28	611.30
455.65	600.99
456.02	592.07
456.38	583.26
456.75	572.55
457.12	563.40
457.49	554.85
457.86	545.88
458.23	538.92
458.59	531.43
458.96	523.34
459.33	516.21
459.70	509.01
460.07	503.38
460.43	496.70
460.80	490.72
461.17	485.78
461.54	480.43
461.91	475.00
462.27	469.77
462.64	464.93
463.01	459.90
463.38	455.44
463.74	449.33
464.11	445.30
464.48	441.55
464.85	437.52
465.21	434.67
465.58	431.29
465.95	427.20
466.32	423.83
466.68	420.59
467.05	417.48
467.42	414.40
467.78	411.07
468.15	408.07
468.52	405.93
468.88	402.67
469.25	399.89
469.62	397.84
469.98	395.48
470.35	393.49
470.72	391.40
471.08	388.82
471.45	387.07
471.82	385.26
472.18	383.07
472.55	381.70
472.92	379.54
473.28	377.95
473.65	376.26
474.02	374.70
474.38	373.50
474.75	372.34
475.11	371.05
475.48	370.10
475.85	368.93
476.21	367.76
476.58	367.02
476.94	366.26
477.31	365.54
477.67	364.93
478.04	364.18
478.41	363.71
478.77	364.18
479.14	363.42
479.50	363.07
479.87	362.91
480.23	362.64
480.60	362.34
480.96	362.05
481.33	362.34
481.69	362.24
482.06	362.21
482.42	362.22
482.79	362.39
483.15	362.38
483.52	362.81
483.88	362.98
484.25	363.08
484.61	363.45
484.98	363.67
485.34	364.30
485.71	365.01
486.07	365.60
486.44	365.40
486.80	366.20
487.17	366.70
487.53	367.84
487.90	368.90
488.26	370.35
488.62	371.79
488.99	372.66
489.35	373.90
489.72	375.17
490.08	376.66
490.44	378.03
490.81	379.73
491.17	381.20
491.54	383.00
491.90	384.89
492.26	386.71
492.63	388.66
492.99	390.28
493.36	392.28
493.72	394.60
494.08	397.01
494.45	399.54
494.81	402.19
495.17	404.52
495.54	407.30
495.90	409.69
496.26	412.20
496.63	415.23
496.99	418.16
497.35	421.15
497.72	424.13
498.08	427.28
498.44	430.21
498.80	433.46
499.17	436.56
499.53	439.71
499.89	443.12
500.26	446.52
500.62	449.98
500.98	453.58
501.34	456.85
501.71	460.51
502.07	463.90
502.43	467.37
502.79	471.00
503.16	474.49
503.52	478.30
503.88	481.89
504.24	485.68
504.60	489.61
504.97	493.51
505.33	497.24
505.69	501.49
506.05	505.67
506.41	509.68
506.78	513.67
507.14	517.90
507.50	522.03
507.86	526.20
508.22	530.56
508.59	534.56
508.95	538.80
509.31	543.30
509.67	547.57
510.03	551.64
510.39	555.82
510.75	559.85
511.12	563.94
511.48	568.10
511.84	572.03
512.20	576.17
512.56	580.43
512.92	584.82
513.28	588.75
513.64	592.89
514.00	597.14
514.37	601.38
514.73	605.73
515.09	610.30
515.45	614.42
515.81	618.52
516.17	622.92
516.53	627.33
516.89	631.13
517.25	635.67
517.61	640.70
517.97	645.27
518.33	650.00
518.69	655.02
519.05	659.95
519.41	664.86
519.77	670.06
520.13	674.68
520.49	679.29
520.85	686.92
521.21	692.24
521.57	697.28
521.93	701.97
522.29	706.64
522.65	711.12
523.01	716.17
523.37	720.92
523.73	725.74
524.09	730.28
524.45	735.02
524.81	739.74
525.17	744.56
525.53	749.45
525.89	754.20
526.25	759.05
526.61	763.85
526.97	768.89
527.33	773.97
527.68	780.44
528.04	785.96
528.40	788.80
528.76	794.22
529.12	799.59
529.48	805.55
529.84	811.09
530.20	817.16
530.56	823.11
530.91	829.52
531.27	835.65
531.63	841.98
531.99	848.38
532.35	854.69
532.71	860.96
533.07	867.38
533.42	874.92
533.78	881.06
534.14	887.86
534.50	894.36
534.86	901.02
535.21	906.45
535.57	913.01
535.93	919.02
536.29	925.60
536.65	932.65
537.00	939.00
537.36	945.62
537.72	951.80
538.08	958.50
538.44	964.65
538.79	971.06
539.15	977.50
539.51	984.05
539.87	990.23
540.22	995.91
540.58	1002.14
540.94	1007.28
541.29	1013.51
541.65	1019.15
542.01	1025.39
542.37	1030.69
542.72	1036.13
543.08	1041.32
543.44	1047.16
543.79	1051.87
544.15	1057.09
544.51	1062.63
544.87	1067.86
545.22	1072.89
545.58	1077.33
545.94	1082.34
546.29	1086.91
546.65	1091.58
547.01	1095.94
547.36	1100.70
547.72	1105.54
548.07	1109.74
548.43	1114.06
548.79	1118.23
549.14	1122.22
549.50	1126.28
549.86	1130.40
550.21	1134.63
550.57	1138.92
550.92	1142.44
551.28	1146.37
551.64	1150.14
551.99	1154.08
552.35	1157.86
552.70	1161.62
553.06	1165.84
553.41	1169.37
553.77	1173.46
554.13	1177.20
554.48	1181.15
554.84	1184.60
555.19	1188.21
555.55	1192.95
555.90	1196.15
556.26	1199.01
556.61	1201.91
556.97	1203.93
557.32	1206.90
557.68	1209.52
558.03	1212.17
558.39	1214.98
558.74	1217.80
559.10	1219.90
559.45	1221.86
559.81	1223.87
560.16	1225.65
560.52	1227.43
560.87	1229.42
561.23	1230.86
561.58	1233.10
561.94	1234.03
562.29	1234.98
562.64	1235.85
563.00	1235.87
563.35	1237.17
563.71	1238.40
564.06	1239.85
564.42	1241.60
564.77	1242.83
565.12	1244.16
565.48	1246.24
565.83	1247.47
566.19	1248.59
566.54	1249.91
566.89	1250.76
567.25	1251.86
567.60	1253.60
567.96	1255.10
568.31	1256.52
568.66	1257.27
569.02	1257.08
569.37	1257.54
569.72	1258.43
570.08	1258.75
570.43	1258.40
570.78	1258.27
571.14	1258.32
571.49	1257.55
571.84	1257.12
572.20	1256.65
572.55	1255.85
572.90	1254.04
573.26	1252.92
573.61	1251.63
573.96	1250.00
574.31	1248.48
574.67	1246.62
575.02	1244.06
575.37	1241.40
575.72	1238.45
576.08	1236.61
576.43	1234.23
576.78	1231.76
577.13	1228.97
577.49	1226.45
577.84	1224.60
578.19	1222.58
578.54	1220.27
578.90	1218.66
579.25	1216.49
579.60	1213.74
579.95	1211.20
580.30	1208.40
580.66	1205.25
581.01	1202.14
581.36	1198.65
581.71	1195.71
582.06	1193.29
582.42	1190.45
582.77	1187.31
583.12	1184.77
583.47	1181.59
583.82	1179.10
584.17	1176.57
584.53	1174.09
584.88	1171.09
585.23	1167.88
585.58	1163.96
585.93	1159.96
586.28	1156.16
586.63	1151.92
586.98	1147.97
587.34	1144.13
587.69	1140.46
588.04	1137.52
588.39	1134.47
588.74	1131.20
589.09	1128.32
589.44	1123.99
589.79	1120.62
590.14	1117.36
590.49	1113.67
590.84	1109.93
591.19	1106.32
591.54	1102.76
591.89	1098.69
592.25	1096.38
592.60	1092.65
592.95	1089.28
593.30	1086.06
593.65	1082.00
594.00	1078.60
594.35	1077.60
594.70	1073.70
595.05	1070.03
595.40	1065.73
595.75	1061.29
596.10	1057.98
596.45	1053.52
596.80	1050.06
597.15	1046.12
597.50	1041.94
597.85	1037.98
598.19	1034.01
598.54	1029.45
598.89	1025.05
599.24	1021.68
599.59	1016.83
599.94	1012.54
600.29	1008.60
600.64	1004.57
600.99	1001.03
601.34	997.20
601.69	990.77
602.04	987.17
602.39	983.23
602.74	979.91
603.08	976.34
603.43	972.54
603.78	968.78
604.13	964.77
604.48	960.69
604.83	956.64
605.18	952.61
605.53	948.77
605.87	944.75
606.22	941.52
606.57	937.18
606.92	933.05
607.27	929.42
607.62	925.67
607.96	922.06
608.31	918.31
608.66	914.71
609.01	910.84
609.36	906.99
609.70	903.08
610.05	898.90
610.40	895.14
610.75	890.90
611.10	887.05
611.44	883.14
611.79	879.41
612.14	875.58
612.49	871.44
612.83	867.53
613.18	864.09
613.53	859.82
613.88	855.80
614.22	851.69
614.57	847.47
614.92	843.31
615.27	839.38
615.61	835.22
615.96	830.92
616.31	826.91
616.65	823.05
617.00	819.01
617.35	815.13
617.70	810.92
618.04	806.82
618.39	803.01
618.74	799.59
619.08	795.50
619.43	791.56
619.78	787.67
620.12	783.56
620.47	779.83
620.82	775.78
621.16	771.76
621.51	768.67
621.85	765.12
622.20	761.34
622.55	757.13
622.89	753.46
623.24	749.85
623.59	746.05
623.93	742.23
624.28	738.71
624.62	736.19
624.97	733.23
625.32	729.78
625.66	726.02
626.01	721.79
626.35	718.47
626.70	715.05
627.04	711.78
627.39	708.31
627.73	704.78
628.08	701.42
628.43	698.12
628.77	693.94
629.12	690.40
629.46	687.35
629.81	684.52
630.15	681.12
630.50	677.68
630.84	674.64
631.19	671.48
631.53	668.37
631.88	664.12
632.22	660.30
632.57	657.54
632.91	654.27
633.26	651.67
633.60	648.40
633.95	645.22
634.29	641.59
634.64	638.53
634.98	634.93
635.32	631.99
635.67	629.17
636.01	626.35
636.36	623.33
636.70	620.33
637.05	617.15
637.39	614.39
637.73	611.46
638.08	608.52
638.42	605.25
638.77	602.08
639.11	598.64
639.45	595.33
639.80	591.69
640.14	588.54
640.49	585.21
640.83	581.97
641.17	579.08
641.52	576.39
641.86	573.49
642.20	571.24
642.55	568.21
642.89	565.28
643.23	562.32
643.58	559.90
643.92	556.63
644.26	553.93
644.61	551.06
644.95	548.35
645.29	545.46
645.64	543.09
645.98	540.30
646.32	538.00
646.66	535.36
647.01	532.78
647.35	530.63
647.69	528.22
648.04	526.02
648.38	523.53
648.72	521.08
649.06	518.34
649.41	515.47
649.75	512.92
650.09	510.31
650.43	507.79
650.78	504.96
651.12	502.60
651.46	499.89
651.80	497.47
652.14	495.22
652.49	493.01
652.83	490.57
653.17	488.39
653.51	485.64
653.85	483.66
654.20	481.49
654.54	478.95
654.88	476.42
655.22	474.39
655.56	472.04
655.90	469.99
656.25	467.94
656.59	465.89
656.93	463.80
657.27	461.92
657.61	459.58
657.95	457.50
658.29	455.34
658.64	453.40
658.98	451.27
659.32	448.79
659.66	446.47
660.00	444.44
660.34	442.39
660.68	440.51
661.02	438.33
661.36	436.06
661.70	434.10
662.05	432.34
662.39	430.30
662.73	428.78
663.07	427.27
663.41	425.47
663.75	423.36
664.09	421.49
664.43	419.46
664.77	417.86
665.11	416.01
665.45	414.22
665.79	412.62
666.13	410.70
666.47	408.97
666.81	407.34
667.15	405.39
667.49	403.77
667.83	402.55
668.17	400.98
668.51	399.69
668.85	398.16
669.19	396.98
669.53	395.18
669.87	393.28
670.21	391.23
670.55	389.59
670.89	388.63
671.23	387.09
671.57	385.47
671.91	384.05
672.25	382.62
672.58	381.50
672.92	379.63
673.26	378.35
673.60	377.11
673.94	375.80
674.28	374.69
674.62	373.37
674.96	371.77
675.30	370.50
675.64	368.99
675.97	367.65
676.31	366.00
676.65	364.61
676.99	363.77
677.33	362.42
677.67	361.29
678.01	359.48
678.34	358.19
678.68	357.29
679.02	355.92
679.36	354.77
679.70	353.43
680.04	352.54
680.37	351.46
680.71	350.14
681.05	348.87
681.39	347.68
681.73	346.58
682.06	345.36
682.40	344.22
682.74	343.34
683.08	342.53
683.42	341.29
683.75	340.35
684.09	338.88
684.43	338.02
684.77	336.85
685.10	335.80
685.44	334.78
685.78	333.45
686.12	332.56
686.45	331.34
686.79	330.11
687.13	329.13
687.46	328.00
687.80	327.29
688.14	326.24
688.48	325.28
688.81	324.25
689.15	323.48
689.49	322.47
689.82	321.58
690.16	320.33
690.50	319.43
690.83	318.44
691.17	317.50
691.51	316.58
691.84	315.81
692.18	314.92
692.52	313.99
692.85	313.26
693.19	312.66
693.52	311.97
693.86	311.12
694.20	310.29
694.53	309.53
694.87	308.53
695.21	307.62
695.54	306.75
695.88	305.73
696.21	304.60
696.55	303.93
696.88	302.90
697.22	301.92
697.56	301.25
697.89	300.32
698.23	299.67
698.56	298.69
698.90	297.99
699.23	297.10
699.57	296.45
699.90	295.61
700.24	294.60
700.58	293.91
700.91	293.42
701.25	293.46
701.58	293.49
701.92	293.01
702.25	292.56
702.59	291.86
702.92	291.20
703.26	290.73
703.59	290.01
703.93	290.20
704.26	289.88
704.60	289.26
704.93	288.66
705.26	287.83
705.60	287.48
705.93	286.61
706.27	286.49
706.60	286.10
706.94	286.02
707.27	285.43
707.61	284.94
707.94	284.35
708.27	282.93
708.61	281.66
708.94	281.05
709.28	280.48
709.61	279.90
709.94	279.41
710.28	278.82
710.61	278.28
710.95	276.97
711.28	276.96
711.61	276.30
711.95	276.04
712.28	275.59
712.61	274.96
712.95	275.08
713.28	274.86
713.61	274.17
713.95	273.27
714.28	272.86
714.61	272.25
714.95	271.64
715.28	271.19
715.61	270.71
715.95	270.16
716.28	269.57
716.61	269.26
716.95	268.78
717.28	268.24
717.61	267.78
717.94	267.30
718.28	266.12
718.61	265.78
718.94	265.19
719.27	264.80
719.61	264.53
719.94	263.86
720.27	263.06
720.60	262.55
720.94	262.12
721.27	261.80
721.60	261.65
721.93	261.30
722.27	261.25
722.60	260.85
722.93	260.62
723.26	260.34
723.59	259.85
723.93	259.65
724.26	259.51
724.59	259.23
724.92	259.14
725.25	259.19
725.59	258.93
725.92	258.82
726.25	258.45
726.58	258.12
726.91	257.66
727.24	257.43
727.57	257.24
727.91	256.85
728.24	256.61
728.57	256.08
728.90	256.00
729.23	255.43
729.56	255.63
729.89	255.27
730.22	255.00
730.55	254.73
730.89	254.46
731.22	254.01
731.55	253.67
731.88	253.41
732.21	252.93
732.54	252.51
732.87	252.21
733.20	252.02
733.53	251.82
733.86	251.75
734.19	251.36
734.52	251.30
734.85	251.73
735.18	251.22
735.51	251.42
735.84	251.21
736.17	251.29
736.50	250.60
736.83	251.57
737.16	251.42
737.49	251.32
737.82	251.10
738.15	251.15
738.48	251.07
738.81	250.77
739.14	250.52
739.47	250.34
739.80	250.15
740.13	250.14
740.46	249.77
740.79	249.45
741.12	249.24
741.45	248.82
741.78	248.10
742.11	248.27
742.44	247.77
742.77	247.70
743.10	247.33
743.43	247.11
743.75	245.84
744.08	246.87
744.41	246.58
744.74	246.32
745.07	245.96
745.40	245.85
745.73	246.06
746.06	245.92
746.39	245.89
746.71	245.59
747.04	245.19
747.37	244.97
747.70	244.99
748.03	244.86
748.36	245.02
748.68	244.84
749.01	244.36
749.34	244.22
749.67	244.07
750.00	244.03
750.33	244.68
750.65	244.63
750.98	243.17
751.31	243.01
751.64	242.91
751.97	243.25
752.29	243.05
752.62	242.47
752.95	242.24
753.28	242.08
753.60	241.98
753.93	242.10
754.26	242.16
754.59	241.76
754.91	241.62
755.24	241.32
755.57	241.25
755.90	241.19
756.22	240.95
756.55	240.65
756.88	240.34
757.20	239.50
757.53	239.15
757.86	239.13
758.19	239.14
758.51	239.02
758.84	238.46
759.17	238.25
759.49	238.16
759.82	238.49
760.15	238.39
760.47	238.28
760.80	237.93
761.13	237.92
761.45	237.81
761.78	237.74
762.11	237.62
762.43	237.41
762.76	237.35
763.08	237.43
763.41	237.42
763.74	237.38
764.06	237.33
764.39	237.28
764.71	237.16
765.04	236.93
765.37	236.73
765.69	236.59
766.02	236.44
766.34	236.29
766.67	235.88
767.00	235.90
767.32	236.28
767.65	236.70
767.97	236.51
768.30	236.53
768.62	236.48
768.95	236.34
769.27	236.34
769.60	236.37
769.92	236.12
770.25	235.82
770.57	235.60
770.90	235.52
771.22	235.35
771.55	235.31
771.87	235.35
772.20	235.30
772.52	236.06
772.85	237.22
773.17	237.19
773.50	237.09
773.82	236.85
774.15	236.34
774.47	235.71
774.80	235.53
775.12	235.51
775.45	235.39
775.77	235.44
776.09	235.42
776.42	235.37
776.74	235.59
777.07	235.54
777.39	235.48
777.72	235.33
778.04	235.42
778.36	235.30
778.69	235.38
779.01	235.40
779.33	234.47
779.66	233.32
779.98	233.27
780.31	233.30
780.63	233.74
780.95	233.87
781.28	233.90
781.60	233.89
781.92	233.71
782.25	233.71
782.57	233.60
782.89	233.52
783.22	233.38
783.54	233.11
783.86	233.20
784.19	233.12
784.51	233.48
784.83	233.20
785.16	233.13
785.48	232.92
785.80	232.92
786.12	232.99
786.45	232.95
786.77	232.90
787.09	232.79
787.42	232.36
787.74	232.35
788.06	232.28
788.38	232.18
788.71	232.18
789.03	232.17
789.35	232.24
789.67	232.02
789.99	232.02
790.32	231.98
790.64	232.08
790.96	232.92
791.28	232.46
791.61	232.48
791.93	232.53
792.25	232.51
792.57	233.15
792.89	232.96
793.21	232.94
793.54	232.93
793.86	232.82
794.18	232.73
794.50	232.44
794.82	232.43
795.14	232.49
795.47	232.60
795.79	232.59
796.11	232.29
796.43	232.31
796.75	232.28
797.07	232.29
797.39	232.22
797.71	231.39
798.04	231.40
798.36	231.42
798.68	231.31
799.00	231.31
799.32	230.72
799.64	230.95
799.96	231.00
800.28	231.15
800.60	231.08
800.92	231.22
801.24	231.27
801.56	231.42
801.89	231.25
802.21	231.30
802.53	231.10
802.85	231.44
803.17	231.85
803.49	231.64
803.81	231.56
804.13	231.44
804.45	231.41
804.77	231.58
805.09	231.61
805.41	231.51
805.73	231.34
806.05	231.09
806.37	231.00
806.69	230.83
807.01	230.66
807.33	230.70
807.65	230.32
807.97	230.61
808.28	230.45
808.60	230.47
808.92	230.20
809.24	230.80
809.56	230.48
809.88	230.08
810.20	230.19
810.52	230.41
810.84	230.22
811.16	230.15
811.48	229.97
811.80	230.30
812.12	230.32
812.43	230.54
812.75	230.77
813.07	230.60
813.39	230.68
813.71	230.58
814.03	230.56
814.35	230.63
814.67	230.24
814.98	230.12
815.30	230.15
815.62	230.10
815.94	229.45
816.26	229.92
816.58	229.83
816.89	229.92
817.21	229.72
817.53	229.82
817.85	229.80
818.17	229.76
818.48	229.35
818.80	229.55
819.12	229.38
819.44	229.10
819.76	229.10
820.07	229.10
820.39	229.11
