SpectraSuite Data File
++++++++++++++++++++++++++++++++++++
Date: Wed Sep 04 17:31:41 EDT 2013
User: lab3
Dark Spectrum Present: Yes
Reference Spectrum Present: No
Number of Sampled Component Spectra: 1
Spectrometers: USB2E7196
Integration Time (usec): 337000 (USB2E7196)
Spectra Averaged: 10 (USB2E7196)
Boxcar Smoothing: 10 (USB2E7196)
Correct for Electrical Dark: No (USB2E7196)
Strobe/Lamp Enabled: No (USB2E7196)
Correct for Detector Non-linearity: No (USB2E7196)
Correct for Stray Light: No (USB2E7196)
Number of Pixels in Processed Spectrum: 2048
>>>>>Begin Processed Spectral Data<<<<<
339.09	0.00
339.48	212.40
339.86	213.80
340.24	215.80
340.63	217.00
341.01	231.00
341.39	218.60
341.78	223.00
342.16	226.00
342.54	223.80
342.93	212.79
343.31	223.56
343.69	224.15
344.07	224.64
344.46	225.18
344.84	225.61
345.22	225.31
345.60	225.69
345.99	225.82
346.37	225.90
346.75	226.02
347.13	226.10
347.52	226.24
347.90	226.55
348.28	226.62
348.66	226.88
349.05	226.59
349.43	226.69
349.81	226.75
350.19	226.78
350.57	226.86
350.96	226.94
351.34	227.02
351.72	227.10
352.10	227.23
352.48	227.23
352.87	227.24
353.25	227.44
353.63	227.40
354.01	227.52
354.39	227.58
354.77	227.61
355.15	227.94
355.54	227.81
355.92	227.55
356.30	227.57
356.68	228.18
357.06	228.34
357.44	228.30
357.82	228.32
358.20	229.18
358.58	229.16
358.97	229.25
359.35	229.48
359.73	229.71
360.11	229.70
360.49	229.72
360.87	229.83
361.25	229.91
361.63	230.31
362.01	230.35
362.39	230.38
362.77	230.43
363.15	230.38
363.53	230.48
363.91	230.63
364.29	230.70
364.67	229.87
365.05	229.80
365.43	229.97
365.81	230.10
366.19	230.01
366.57	230.41
366.95	230.42
367.33	230.23
367.71	230.21
368.09	230.48
368.47	230.51
368.85	230.46
369.23	230.58
369.61	230.20
369.99	230.53
370.37	230.55
370.75	231.00
371.13	230.85
371.51	230.73
371.89	230.75
372.27	230.69
372.65	230.66
373.03	230.76
373.41	230.65
373.78	230.56
374.16	229.83
374.54	229.57
374.92	229.50
375.30	229.38
375.68	229.15
376.06	229.11
376.44	229.00
376.82	228.99
377.19	228.92
377.57	228.84
377.95	228.52
378.33	228.50
378.71	227.89
379.09	227.92
379.47	228.00
379.84	227.92
380.22	227.95
380.60	227.78
380.98	227.71
381.36	227.65
381.73	227.54
382.11	227.76
382.49	227.75
382.87	227.57
383.25	227.62
383.62	228.72
384.00	228.46
384.38	228.38
384.76	228.67
385.13	228.92
385.51	228.94
385.89	228.65
386.27	228.60
386.64	228.77
387.02	228.65
387.40	228.52
387.78	228.50
388.15	228.42
388.53	228.45
388.91	228.33
389.29	228.27
389.66	228.43
390.04	228.24
390.42	228.36
390.79	228.38
391.17	228.30
391.55	227.24
391.92	227.27
392.30	227.49
392.68	227.16
393.05	227.15
393.43	227.20
393.81	227.40
394.18	227.25
394.56	227.28
394.94	227.55
395.31	227.42
395.69	227.73
396.06	227.96
396.44	228.03
396.82	228.08
397.19	228.58
397.57	228.52
397.95	228.74
398.32	228.54
398.70	228.68
399.07	228.96
399.45	228.99
399.82	229.03
400.20	228.87
400.58	228.87
400.95	228.48
401.33	228.76
401.70	229.46
402.08	229.65
402.45	229.72
402.83	230.07
403.20	230.40
403.58	230.44
403.95	230.73
404.33	231.00
404.71	231.28
405.08	231.91
405.46	232.08
405.83	232.45
406.21	232.72
406.58	233.16
406.96	233.38
407.33	233.88
407.70	234.40
408.08	235.72
408.45	236.44
408.83	237.17
409.20	237.47
409.58	237.48
409.95	238.21
410.33	238.93
410.70	239.25
411.08	240.14
411.45	240.88
411.82	241.51
412.20	242.59
412.57	244.13
412.95	244.35
413.32	245.66
413.69	246.61
414.07	247.95
414.44	249.22
414.82	250.70
415.19	252.24
415.56	253.76
415.94	255.00
416.31	256.99
416.68	258.83
417.06	261.14
417.43	263.37
417.81	265.75
418.18	268.16
418.55	270.81
418.93	273.52
419.30	276.34
419.67	279.39
420.04	282.33
420.42	285.26
420.79	289.69
421.16	293.43
421.54	297.80
421.91	301.96
422.28	306.20
422.66	310.62
423.03	315.72
423.40	320.36
423.77	325.13
424.15	329.87
424.52	335.27
424.89	341.08
425.26	346.60
425.64	351.76
426.01	357.52
426.38	363.64
426.75	370.15
427.13	376.50
427.50	383.20
427.87	390.21
428.24	396.92
428.61	402.86
428.99	410.53
429.36	418.08
429.73	425.68
430.10	433.41
430.47	441.33
430.85	448.94
431.22	457.73
431.59	467.68
431.96	476.70
432.33	486.46
432.70	495.98
433.08	507.17
433.45	517.69
433.82	528.34
434.19	540.05
434.56	551.52
434.93	562.41
435.30	573.44
435.68	585.93
436.05	597.99
436.42	610.18
436.79	621.41
437.16	633.26
437.53	645.93
437.90	658.53
438.27	671.38
438.64	684.43
439.01	696.52
439.38	706.77
439.75	717.09
440.13	728.90
440.50	739.95
440.87	748.91
441.24	758.80
441.61	769.16
441.98	776.89
442.35	785.40
442.72	794.80
443.09	803.83
443.46	809.08
443.83	813.33
444.20	816.83
444.57	820.82
444.94	823.06
445.31	825.50
445.68	828.61
446.05	829.19
446.42	827.93
446.79	826.68
447.16	824.93
447.53	824.10
447.90	819.45
448.27	814.87
448.64	808.52
449.01	803.63
449.37	795.32
449.74	787.04
450.11	778.20
450.48	767.45
450.85	756.26
451.22	746.90
451.59	737.70
451.96	728.94
452.33	717.82
452.70	707.59
453.07	695.27
453.43	681.88
453.80	670.15
454.17	658.76
454.54	647.68
454.91	636.28
455.28	624.77
455.65	614.11
456.02	604.78
456.38	595.90
456.75	584.66
457.12	575.36
457.49	566.47
457.86	557.04
458.23	549.71
458.59	541.54
458.96	533.23
459.33	525.76
459.70	518.39
460.07	512.40
460.43	505.65
460.80	499.52
461.17	494.30
461.54	488.40
461.91	482.81
462.27	477.28
462.64	472.17
463.01	467.06
463.38	462.38
463.74	456.00
464.11	451.44
464.48	447.75
464.85	443.69
465.21	440.69
465.58	437.38
465.95	433.12
466.32	429.91
466.68	426.58
467.05	423.40
467.42	420.23
467.78	416.86
468.15	413.74
468.52	411.47
468.88	407.97
469.25	405.13
469.62	403.11
469.98	400.78
470.35	398.88
470.72	396.60
471.08	393.92
471.45	392.29
471.82	390.47
472.18	388.19
472.55	386.68
472.92	384.64
473.28	382.82
473.65	381.16
474.02	379.49
474.38	378.10
474.75	377.00
475.11	375.44
475.48	374.37
475.85	373.43
476.21	372.17
476.58	371.29
476.94	370.58
477.31	369.70
477.67	368.84
478.04	368.08
478.41	367.64
478.77	368.05
479.14	367.20
479.50	366.80
479.87	366.87
480.23	366.54
480.60	366.11
480.96	365.93
481.33	366.51
481.69	366.52
482.06	366.51
482.42	366.50
482.79	366.70
483.15	366.92
483.52	367.39
483.88	367.61
484.25	368.11
484.61	368.52
484.98	368.76
485.34	369.63
485.71	370.29
486.07	370.84
486.44	370.85
486.80	371.66
487.17	372.34
487.53	373.40
487.90	374.50
488.26	376.05
488.62	377.53
488.99	378.41
489.35	379.79
489.72	381.21
490.08	382.71
490.44	384.16
490.81	385.98
491.17	387.39
491.54	389.40
491.90	391.36
492.26	393.37
492.63	395.55
492.99	397.45
493.36	399.60
493.72	402.21
494.08	404.45
494.45	406.98
494.81	409.70
495.17	412.01
495.54	414.75
495.90	417.02
496.26	419.77
496.63	422.53
496.99	425.39
497.35	428.31
497.72	431.49
498.08	434.73
498.44	437.75
498.80	441.26
499.17	444.35
499.53	447.32
499.89	450.84
500.26	454.25
500.62	457.41
500.98	460.95
501.34	464.20
501.71	468.02
502.07	471.48
502.43	474.92
502.79	478.39
503.16	482.05
503.52	485.97
503.88	489.39
504.24	493.27
504.60	497.16
504.97	501.08
505.33	504.78
505.69	509.00
506.05	512.71
506.41	516.57
506.78	520.43
507.14	524.47
507.50	528.39
507.86	532.37
508.22	536.56
508.59	540.42
508.95	544.56
509.31	548.63
509.67	552.60
510.03	556.40
510.39	560.36
510.75	564.01
511.12	567.71
511.48	571.46
511.84	575.03
512.20	578.40
512.56	582.07
512.92	585.84
513.28	589.20
513.64	593.00
514.00	596.60
514.37	600.33
514.73	604.05
515.09	607.57
515.45	610.89
515.81	614.47
516.17	617.85
516.53	621.30
516.89	624.57
517.25	628.34
517.61	632.61
517.97	636.73
518.33	640.73
518.69	644.93
519.05	649.22
519.41	653.25
519.77	658.33
520.13	662.49
520.49	666.30
520.85	673.19
521.21	677.88
521.57	682.14
521.93	685.83
522.29	690.02
522.65	693.85
523.01	698.20
523.37	701.81
523.73	705.80
524.09	709.74
524.45	713.61
524.81	717.73
525.17	721.35
525.53	725.26
525.89	729.30
526.25	733.20
526.61	736.85
526.97	740.99
527.33	744.69
527.68	749.58
528.04	754.12
528.40	755.80
528.76	760.05
529.12	764.35
529.48	769.68
529.84	774.17
530.20	779.32
530.56	784.38
530.91	790.04
531.27	795.72
531.63	801.27
531.99	806.92
532.35	811.95
532.71	817.57
533.07	823.35
533.42	829.81
533.78	835.30
534.14	841.43
534.50	847.00
534.86	853.32
535.21	858.35
535.57	864.18
535.93	869.70
536.29	875.67
536.65	881.73
537.00	887.03
537.36	893.21
537.72	898.77
538.08	904.72
538.44	910.25
538.79	915.85
539.15	921.10
539.51	926.89
539.87	932.96
540.22	938.17
540.58	943.42
540.94	947.87
541.29	953.05
541.65	958.07
542.01	963.78
542.37	968.30
542.72	973.26
543.08	977.86
543.44	983.01
543.79	987.14
544.15	991.95
544.51	997.11
544.87	1001.90
545.22	1006.60
545.58	1011.05
545.94	1015.34
546.29	1019.86
546.65	1024.36
547.01	1028.38
547.36	1032.25
547.72	1036.69
548.07	1040.77
548.43	1044.74
548.79	1048.75
549.14	1052.87
549.50	1056.87
549.86	1060.49
550.21	1064.70
550.57	1068.72
550.92	1072.32
551.28	1076.13
551.64	1079.97
551.99	1083.56
552.35	1086.90
552.70	1090.49
553.06	1094.00
553.41	1097.71
553.77	1101.80
554.13	1105.50
554.48	1109.34
554.84	1113.05
555.19	1116.61
555.55	1120.86
555.90	1124.11
556.26	1127.38
556.61	1130.14
556.97	1132.20
557.32	1135.06
557.68	1137.56
558.03	1140.41
558.39	1142.86
558.74	1145.60
559.10	1147.66
559.45	1149.90
559.81	1152.06
560.16	1153.92
560.52	1155.96
560.87	1158.07
561.23	1158.91
561.58	1161.15
561.94	1162.05
562.29	1163.14
562.64	1164.62
563.00	1164.88
563.35	1166.14
563.71	1167.62
564.06	1169.19
564.42	1171.16
564.77	1172.92
565.12	1174.35
565.48	1176.59
565.83	1178.24
566.19	1179.68
566.54	1181.07
566.89	1182.07
567.25	1183.54
567.60	1185.43
567.96	1187.34
568.31	1188.53
568.66	1189.77
569.02	1189.47
569.37	1190.53
569.72	1191.79
570.08	1192.17
570.43	1192.43
570.78	1192.82
571.14	1192.88
571.49	1192.50
571.84	1192.05
572.20	1191.43
572.55	1190.88
572.90	1189.22
573.26	1188.41
573.61	1187.36
573.96	1186.29
574.31	1185.17
574.67	1183.35
575.02	1181.21
575.37	1178.82
575.72	1176.85
576.08	1174.99
576.43	1173.55
576.78	1171.45
577.13	1168.84
577.49	1166.89
577.84	1165.39
578.19	1163.72
578.54	1162.02
578.90	1160.54
579.25	1158.67
579.60	1156.79
579.95	1154.68
580.30	1152.47
580.66	1150.12
581.01	1147.37
581.36	1144.60
581.71	1142.08
582.06	1140.12
582.42	1138.17
582.77	1135.65
583.12	1133.36
583.47	1131.01
583.82	1128.48
584.17	1126.02
584.53	1124.08
584.88	1120.98
585.23	1118.24
585.58	1114.78
585.93	1111.36
586.28	1108.37
586.63	1105.02
586.98	1101.10
587.34	1098.15
587.69	1094.89
588.04	1091.90
588.39	1089.18
588.74	1086.25
589.09	1083.60
589.44	1079.84
589.79	1076.46
590.14	1073.28
590.49	1069.82
590.84	1066.48
591.19	1063.60
591.54	1060.39
591.89	1056.96
592.25	1055.06
592.60	1051.63
592.95	1048.83
593.30	1045.76
593.65	1041.88
594.00	1038.37
594.35	1037.91
594.70	1034.02
595.05	1030.70
595.40	1027.19
595.75	1023.51
596.10	1019.99
596.45	1016.30
596.80	1013.32
597.15	1009.49
597.50	1005.62
597.85	1002.36
598.19	998.76
598.54	994.55
598.89	990.80
599.24	987.35
599.59	982.80
599.94	978.78
600.29	975.21
600.64	971.40
600.99	967.82
601.34	964.66
601.69	958.80
602.04	955.40
602.39	951.73
602.74	948.40
603.08	945.00
603.43	942.02
603.78	938.40
604.13	934.75
604.48	931.08
604.83	927.38
605.18	923.60
605.53	919.92
605.87	916.28
606.22	912.88
606.57	909.16
606.92	905.42
607.27	902.14
607.62	898.49
607.96	895.21
608.31	892.15
608.66	888.92
609.01	885.19
609.36	881.80
609.70	878.43
610.05	874.66
610.40	870.84
610.75	866.64
611.10	863.02
611.44	858.89
611.79	855.48
612.14	851.92
612.49	848.10
612.83	844.57
613.18	841.07
613.53	837.60
613.88	833.56
614.22	829.65
614.57	825.69
614.92	821.36
615.27	817.28
615.61	813.11
615.96	809.13
616.31	805.35
616.65	801.80
617.00	797.85
617.35	793.96
617.70	790.27
618.04	786.48
618.39	782.50
618.74	779.45
619.08	775.84
619.43	772.22
619.78	768.30
620.12	764.46
620.47	760.89
620.82	756.59
621.16	752.82
621.51	749.64
621.85	746.06
622.20	742.73
622.55	739.03
622.89	735.30
623.24	731.61
623.59	728.02
623.93	724.19
624.28	720.65
624.62	718.01
624.97	715.03
625.32	711.54
625.66	708.18
626.01	704.12
626.35	700.44
626.70	696.80
627.04	693.97
627.39	690.47
627.73	687.34
628.08	684.37
628.43	680.84
628.77	677.16
629.12	673.75
629.46	670.72
629.81	668.10
630.15	665.12
630.50	661.83
630.84	658.86
631.19	655.82
631.53	652.87
631.88	648.91
632.22	645.55
632.57	642.90
632.91	639.96
633.26	637.23
633.60	634.24
633.95	631.39
634.29	627.70
634.64	625.02
634.98	621.62
635.32	618.74
635.67	616.25
636.01	613.69
636.36	610.82
636.70	607.99
637.05	604.93
637.39	602.12
637.73	599.32
638.08	596.66
638.42	593.51
638.77	590.48
639.11	587.41
639.45	584.04
639.80	580.76
640.14	577.60
640.49	574.52
640.83	571.62
641.17	568.94
641.52	566.46
641.86	563.59
642.20	561.30
642.55	558.41
642.89	555.78
643.23	552.81
643.58	550.63
643.92	547.66
644.26	544.98
644.61	542.36
644.95	539.74
645.29	536.67
645.64	534.46
645.98	531.82
646.32	529.54
646.66	526.93
647.01	524.38
647.35	522.17
647.69	519.92
648.04	517.70
648.38	515.31
648.72	512.82
649.06	510.15
649.41	507.34
649.75	504.80
650.09	502.30
650.43	499.81
650.78	496.91
651.12	494.47
651.46	491.85
651.80	489.47
652.14	487.07
652.49	485.15
652.83	482.57
653.17	480.36
653.51	477.80
653.85	475.96
654.20	473.88
654.54	471.35
654.88	468.96
655.22	467.07
655.56	464.85
655.90	462.63
656.25	460.64
656.59	458.76
656.93	456.79
657.27	455.10
657.61	452.85
657.95	451.05
658.29	449.05
658.64	447.19
658.98	445.01
659.32	442.85
659.66	440.78
660.00	438.90
660.34	436.87
660.68	434.97
661.02	433.02
661.36	431.16
661.70	429.47
662.05	427.73
662.39	425.83
662.73	424.36
663.07	423.24
663.41	421.31
663.75	419.29
664.09	417.58
664.43	415.28
664.77	413.73
665.11	411.85
665.45	410.21
665.79	408.65
666.13	406.99
666.47	405.30
666.81	403.40
667.15	401.60
667.49	400.09
667.83	398.96
668.17	397.38
668.51	395.78
668.85	394.39
669.19	393.40
669.53	391.48
669.87	389.49
670.21	387.44
670.55	386.20
670.89	385.07
671.23	383.56
671.57	382.10
671.91	380.79
672.25	379.36
672.58	378.32
672.92	376.62
673.26	375.29
673.60	374.06
673.94	372.86
674.28	371.87
674.62	370.89
674.96	369.25
675.30	367.94
675.64	366.60
675.97	365.04
676.31	363.15
676.65	361.81
676.99	360.87
677.33	359.60
677.67	358.38
678.01	356.87
678.34	355.69
678.68	354.72
679.02	353.34
679.36	352.18
679.70	350.73
680.04	349.86
680.37	348.79
680.71	347.54
681.05	346.53
681.39	345.23
681.73	343.89
682.06	342.81
682.40	341.85
682.74	340.90
683.08	340.45
683.42	339.51
683.75	338.73
684.09	337.42
684.43	336.40
684.77	335.10
685.10	334.15
685.44	333.22
685.78	332.14
686.12	331.12
686.45	330.20
686.79	329.15
687.13	328.17
687.46	327.08
687.80	326.46
688.14	325.25
688.48	324.35
688.81	323.36
689.15	322.63
689.49	321.65
689.82	320.76
690.16	319.19
690.50	318.20
690.83	317.17
691.17	316.25
691.51	315.30
691.84	314.58
692.18	313.64
692.52	312.61
692.85	311.86
693.19	311.44
693.52	310.56
693.86	309.62
694.20	308.67
694.53	307.80
694.87	306.62
695.21	305.70
695.54	304.76
695.88	303.79
696.21	302.60
696.55	301.63
696.88	300.76
697.22	300.04
697.56	299.31
697.89	298.43
698.23	297.63
698.56	296.82
698.90	296.11
699.23	295.11
699.57	294.41
699.90	293.42
700.24	292.27
700.58	291.48
700.91	290.99
701.25	291.10
701.58	291.12
701.92	290.84
702.25	290.36
702.59	289.71
702.92	289.13
703.26	288.67
703.59	288.28
703.93	288.32
704.26	287.87
704.60	287.38
704.93	286.70
705.26	286.11
705.60	285.67
705.93	284.87
706.27	284.81
706.60	284.54
706.94	284.53
707.27	284.01
707.61	283.46
707.94	282.88
708.27	281.56
708.61	280.35
708.94	279.61
709.28	279.01
709.61	278.45
709.94	278.09
710.28	277.58
710.61	276.92
710.95	275.80
711.28	275.89
711.61	275.24
711.95	275.14
712.28	274.60
712.61	274.05
712.95	274.19
713.28	274.03
713.61	273.29
713.95	272.36
714.28	272.00
714.61	271.62
714.95	271.15
715.28	270.57
715.61	270.10
715.95	269.68
716.28	269.20
716.61	268.85
716.95	268.28
717.28	267.83
717.61	267.32
717.94	266.79
718.28	265.64
718.61	265.42
718.94	264.79
719.27	264.48
719.61	264.14
719.94	263.42
720.27	262.50
720.60	262.13
720.94	261.85
721.27	261.52
721.60	261.33
721.93	261.00
722.27	261.08
722.60	260.89
722.93	260.39
723.26	260.13
723.59	259.71
723.93	259.50
724.26	259.35
724.59	259.06
724.92	258.94
725.25	259.00
725.59	258.53
725.92	258.27
726.25	257.95
726.58	257.73
726.91	257.45
727.24	257.44
727.57	257.14
727.91	256.77
728.24	256.52
728.57	256.18
728.90	255.94
729.23	255.33
729.56	255.45
729.89	255.23
730.22	254.96
730.55	254.83
730.89	254.60
731.22	254.18
731.55	253.97
731.88	253.63
732.21	253.17
732.54	252.89
732.87	252.67
733.20	252.37
733.53	252.20
733.86	252.03
734.19	251.53
734.52	251.50
734.85	251.87
735.18	251.47
735.51	251.50
735.84	251.40
736.17	251.60
736.50	250.88
736.83	252.01
737.16	251.84
737.49	251.54
737.82	251.24
738.15	251.16
738.48	250.96
738.81	250.72
739.14	250.50
739.47	250.31
739.80	250.20
740.13	250.17
740.46	249.77
740.79	249.36
741.12	249.18
741.45	248.80
741.78	248.13
742.11	248.28
742.44	247.78
742.77	247.66
743.10	247.19
743.43	246.96
743.75	245.60
744.08	246.64
744.41	246.45
744.74	246.28
745.07	245.93
745.40	245.95
745.73	246.11
746.06	246.01
746.39	245.94
746.71	245.61
747.04	245.39
747.37	245.22
747.70	245.34
748.03	245.29
748.36	245.36
748.68	245.20
749.01	244.78
749.34	244.64
749.67	244.42
750.00	244.37
750.33	245.05
750.65	244.95
750.98	243.64
751.31	243.44
751.64	243.42
751.97	243.75
752.29	243.52
752.62	242.96
752.95	242.73
753.28	242.53
753.60	242.44
753.93	242.50
754.26	242.60
754.59	242.17
754.91	241.98
755.24	241.66
755.57	241.55
755.90	241.42
756.22	241.24
756.55	241.05
756.88	240.79
757.20	240.04
757.53	239.76
757.86	239.67
758.19	239.71
758.51	239.46
758.84	238.88
759.17	238.57
759.49	238.58
759.82	239.00
760.15	238.92
760.47	238.76
760.80	238.43
761.13	238.36
761.45	238.21
761.78	238.00
762.11	237.93
762.43	237.81
762.76	237.71
763.08	237.85
763.41	237.78
763.74	237.72
764.06	237.58
764.39	237.47
764.71	237.36
765.04	237.19
765.37	237.11
765.69	237.07
766.02	237.02
766.34	236.90
766.67	236.33
767.00	236.41
767.32	236.82
767.65	237.32
767.97	237.17
768.30	237.16
768.62	237.20
768.95	237.00
769.27	236.90
769.60	237.01
769.92	236.79
770.25	236.56
770.57	236.32
770.90	236.20
771.22	236.14
771.55	236.00
771.87	235.93
772.20	235.82
772.52	236.67
772.85	237.76
773.17	237.64
773.50	237.64
773.82	237.42
774.15	236.99
774.47	236.36
774.80	236.23
775.12	236.21
775.45	236.12
775.77	236.20
776.09	236.15
776.42	236.04
776.74	236.16
777.07	236.16
777.39	236.22
777.72	236.18
778.04	236.23
778.36	236.16
778.69	236.13
779.01	236.10
779.33	235.07
779.66	233.96
779.98	233.97
780.31	233.76
780.63	234.02
780.95	234.06
781.28	233.95
781.60	233.80
781.92	233.78
782.25	233.61
782.57	233.51
782.89	233.46
783.22	233.35
783.54	233.07
783.86	233.11
784.19	233.02
784.51	233.23
784.83	233.04
785.16	232.88
785.48	232.78
785.80	232.84
786.12	232.87
786.45	232.71
786.77	232.76
787.09	232.91
787.42	232.54
787.74	232.60
788.06	232.60
788.38	232.56
788.71	232.36
789.03	232.39
789.35	232.40
789.67	232.19
789.99	232.11
790.32	231.97
790.64	231.91
790.96	232.71
791.28	232.23
791.61	232.10
791.93	232.22
792.25	232.18
792.57	232.69
792.89	232.46
793.21	232.47
793.54	232.23
793.86	231.95
794.18	232.02
794.50	231.74
794.82	231.73
795.14	231.85
795.47	232.02
795.79	232.05
796.11	231.82
796.43	231.83
796.75	231.88
797.07	232.00
797.39	231.95
797.71	231.06
798.04	231.22
798.36	231.26
798.68	231.15
799.00	231.17
799.32	230.62
799.64	230.82
799.96	230.84
800.28	231.02
800.60	230.98
800.92	230.99
801.24	230.94
801.56	231.00
801.89	230.86
802.21	230.88
802.53	230.75
802.85	230.93
803.17	231.27
803.49	231.04
803.81	230.97
804.13	230.92
804.45	230.80
804.77	230.75
805.09	230.75
805.41	230.63
805.73	230.50
806.05	230.40
806.37	230.33
806.69	230.24
807.01	230.18
807.33	230.19
807.65	229.92
807.97	230.27
808.28	230.24
808.60	230.24
808.92	230.11
809.24	230.66
809.56	230.54
809.88	230.24
810.20	230.32
810.52	230.44
810.84	230.30
811.16	230.34
811.48	230.31
811.80	230.68
812.12	230.74
812.43	230.94
812.75	230.90
813.07	230.89
813.39	230.92
813.71	230.76
814.03	230.77
814.35	230.82
814.67	230.48
814.98	230.30
815.30	230.29
815.62	230.11
815.94	229.50
816.26	229.90
816.58	229.73
816.89	229.78
817.21	229.57
817.53	229.58
817.85	229.60
818.17	229.58
818.48	229.30
818.80	229.42
819.12	229.21
819.44	229.10
819.76	228.90
820.07	228.92
820.39	228.87
820.71	228.86
