SpectraSuite Data File
++++++++++++++++++++++++++++++++++++
Date: Wed Sep 04 17:33:38 EDT 2013
User: lab3
Dark Spectrum Present: Yes
Reference Spectrum Present: No
Number of Sampled Component Spectra: 1
Spectrometers: USB2E7196
Integration Time (usec): 337000 (USB2E7196)
Spectra Averaged: 10 (USB2E7196)
Boxcar Smoothing: 10 (USB2E7196)
Correct for Electrical Dark: No (USB2E7196)
Strobe/Lamp Enabled: No (USB2E7196)
Correct for Detector Non-linearity: No (USB2E7196)
Correct for Stray Light: No (USB2E7196)
Number of Pixels in Processed Spectrum: 2048
>>>>>Begin Processed Spectral Data<<<<<
339.09	0.00
339.48	213.90
339.86	212.90
340.24	214.60
340.63	216.30
341.01	232.40
341.39	219.70
341.78	222.20
342.16	225.50
342.54	222.30
342.93	212.78
343.31	223.45
343.69	223.97
344.07	224.42
344.46	225.08
344.84	225.63
345.22	225.22
345.60	225.63
345.99	225.88
346.37	225.94
346.75	226.05
347.13	226.10
347.52	226.19
347.90	226.57
348.28	226.64
348.66	226.87
349.05	226.53
349.43	226.75
349.81	226.95
350.19	227.06
350.57	227.14
350.96	227.30
351.34	227.40
351.72	227.54
352.10	227.64
352.48	227.60
352.87	227.58
353.25	227.73
353.63	227.78
354.01	227.78
354.39	227.90
354.77	227.99
355.15	228.28
355.54	228.28
355.92	228.01
356.30	228.05
356.68	228.69
357.06	228.85
357.44	228.68
357.82	228.70
358.20	229.53
358.58	229.51
358.97	229.67
359.35	230.05
359.73	230.29
360.11	230.40
360.49	230.43
360.87	230.46
361.25	230.69
361.63	231.00
362.01	231.15
362.39	231.09
362.77	231.26
363.15	231.26
363.53	231.26
363.91	231.38
364.29	231.44
364.67	230.63
365.05	230.70
365.43	230.84
365.81	230.90
366.19	230.62
366.57	231.09
366.95	230.97
367.33	230.70
367.71	230.58
368.09	230.85
368.47	230.83
368.85	230.82
369.23	230.94
369.61	230.65
369.99	230.89
370.37	231.17
370.75	231.62
371.13	231.52
371.51	231.51
371.89	231.59
372.27	231.66
372.65	231.76
373.03	231.76
373.41	231.74
373.78	231.76
374.16	231.23
374.54	230.88
374.92	230.77
375.30	230.78
375.68	230.65
376.06	230.65
376.44	230.61
376.82	230.65
377.19	230.57
377.57	230.45
377.95	230.20
378.33	229.99
378.71	229.40
379.09	229.45
379.47	229.55
379.84	229.40
380.22	229.20
380.60	228.93
380.98	228.90
381.36	228.74
381.73	228.60
382.11	228.80
382.49	228.87
382.87	228.68
383.25	228.62
383.62	229.70
384.00	229.40
384.38	229.46
384.76	229.59
385.13	229.87
385.51	229.80
385.89	229.62
386.27	229.54
386.64	229.66
387.02	229.45
387.40	229.13
387.78	229.17
388.15	229.30
388.53	229.19
388.91	229.04
389.29	229.07
389.66	229.24
390.04	229.01
390.42	229.12
390.79	229.25
391.17	229.25
391.55	228.11
391.92	228.10
392.30	228.19
392.68	228.01
393.05	227.89
393.43	227.94
393.81	227.99
394.18	227.89
394.56	227.85
394.94	228.08
395.31	228.21
395.69	228.40
396.06	228.53
396.44	228.75
396.82	228.77
397.19	229.28
397.57	229.06
397.95	229.31
398.32	229.00
398.70	229.14
399.07	229.40
399.45	229.50
399.82	229.66
400.20	229.62
400.58	229.79
400.95	229.58
401.33	229.89
401.70	230.68
402.08	230.91
402.45	231.14
402.83	231.53
403.20	231.60
403.58	231.57
403.95	231.87
404.33	232.18
404.71	232.40
405.08	233.08
405.46	233.44
405.83	233.80
406.21	234.30
406.58	234.70
406.96	234.98
407.33	235.33
407.70	235.85
408.08	236.99
408.45	237.57
408.83	238.24
409.20	238.70
409.58	238.57
409.95	239.33
410.33	239.92
410.70	240.26
411.08	241.28
411.45	242.20
411.82	242.85
412.20	243.85
412.57	245.29
412.95	245.40
413.32	246.57
413.69	247.56
414.07	248.75
414.44	249.97
414.82	251.31
415.19	253.02
415.56	254.60
415.94	255.80
416.31	257.70
416.68	259.59
417.06	261.70
417.43	264.14
417.81	266.47
418.18	268.93
418.55	271.64
418.93	274.29
419.30	276.90
419.67	279.87
420.04	283.01
420.42	286.04
420.79	290.44
421.16	294.15
421.54	298.41
421.91	302.32
422.28	306.46
422.66	310.87
423.03	315.67
423.40	320.09
423.77	324.86
424.15	329.62
424.52	334.62
424.89	340.32
425.26	345.48
425.64	350.57
426.01	356.18
426.38	361.93
426.75	368.17
427.13	374.65
427.50	381.03
427.87	387.57
428.24	394.27
428.61	399.92
428.99	407.24
429.36	414.44
429.73	422.01
430.10	429.55
430.47	437.34
430.85	444.75
431.22	453.09
431.59	462.46
431.96	470.80
432.33	480.19
432.70	488.92
433.08	499.58
433.45	509.64
433.82	519.55
434.19	530.65
434.56	541.58
434.93	551.73
435.30	562.12
435.68	573.60
436.05	584.89
436.42	596.38
436.79	606.83
437.16	618.27
437.53	630.11
437.90	641.84
438.27	653.40
438.64	665.15
439.01	676.38
439.38	685.90
439.75	695.75
440.13	706.55
440.50	717.17
440.87	725.65
441.24	734.30
441.61	743.92
441.98	750.74
442.35	758.33
442.72	766.71
443.09	774.98
443.46	779.65
443.83	782.78
444.20	785.46
444.57	789.12
444.94	790.69
445.31	792.48
445.68	794.94
446.05	795.32
446.42	794.10
446.79	792.45
447.16	790.30
447.53	788.90
447.90	784.02
448.27	779.00
448.64	772.27
449.01	767.53
449.37	759.35
449.74	751.50
450.11	742.89
450.48	732.35
450.85	721.48
451.22	712.44
451.59	703.90
451.96	695.57
452.33	684.80
452.70	674.95
453.07	663.16
453.43	650.56
453.80	639.44
454.17	628.50
454.54	618.04
454.91	607.18
455.28	596.31
455.65	586.41
456.02	577.64
456.38	569.18
456.75	558.52
457.12	549.61
457.49	540.90
457.86	531.91
458.23	525.34
458.59	517.63
458.96	509.83
459.33	502.80
459.70	495.93
460.07	490.34
460.43	483.97
460.80	478.27
461.17	473.21
461.54	467.60
461.91	462.55
462.27	457.30
462.64	452.80
463.01	447.98
463.38	443.72
463.74	437.80
464.11	433.76
464.48	430.32
464.85	426.41
465.21	423.88
465.58	420.91
465.95	416.94
466.32	414.02
466.68	411.00
467.05	408.09
467.42	405.18
467.78	401.92
468.15	398.99
468.52	396.80
468.88	393.74
469.25	391.15
469.62	389.18
469.98	387.04
470.35	384.99
470.72	382.93
471.08	380.48
471.45	378.84
471.82	377.26
472.18	375.36
472.55	374.14
472.92	372.28
473.28	370.86
473.65	369.35
474.02	367.88
474.38	366.75
474.75	365.66
475.11	364.45
475.48	363.63
475.85	362.75
476.21	361.76
476.58	361.01
476.94	360.54
477.31	359.85
477.67	359.30
478.04	358.84
478.41	358.66
478.77	359.24
479.14	358.78
479.50	358.31
479.87	358.20
480.23	358.07
480.60	357.86
480.96	357.72
481.33	358.25
481.69	358.27
482.06	358.63
482.42	358.96
482.79	359.15
483.15	359.56
483.52	360.22
483.88	360.73
484.25	361.34
484.61	362.05
484.98	362.69
485.34	363.86
485.71	364.90
486.07	365.91
486.44	366.18
486.80	367.42
487.17	368.76
487.53	370.45
487.90	372.22
488.26	374.30
488.62	376.27
488.99	377.83
489.35	379.95
489.72	381.97
490.08	384.11
490.44	386.44
490.81	389.10
491.17	391.60
491.54	394.60
491.90	397.56
492.26	400.47
492.63	403.75
492.99	406.71
493.36	410.12
493.72	413.86
494.08	417.84
494.45	422.08
494.81	426.58
495.17	430.81
495.54	435.38
495.90	440.01
496.26	444.91
496.63	450.14
496.99	455.38
497.35	460.95
497.72	466.93
498.08	472.96
498.44	479.03
498.80	485.72
499.17	492.16
499.53	498.94
499.89	506.40
500.26	513.71
500.62	521.47
500.98	529.66
501.34	537.65
501.71	545.99
502.07	554.30
502.43	562.80
502.79	571.78
503.16	581.02
503.52	590.57
503.88	600.36
504.24	610.43
504.60	621.17
504.97	631.98
505.33	642.71
505.69	654.85
506.05	666.76
506.41	678.43
506.78	690.60
507.14	703.12
507.50	715.91
507.86	729.27
508.22	742.99
508.59	756.61
508.95	770.85
509.31	785.54
509.67	800.49
510.03	815.46
510.39	830.63
510.75	846.20
511.12	861.85
511.48	877.87
511.84	893.91
512.20	910.07
512.56	927.04
512.92	944.59
513.28	961.73
513.64	979.08
514.00	997.30
514.37	1015.61
514.73	1034.15
515.09	1052.92
515.45	1071.44
515.81	1090.22
516.17	1109.38
516.53	1128.36
516.89	1147.57
517.25	1167.50
517.61	1188.57
517.97	1209.41
518.33	1230.30
518.69	1251.20
519.05	1272.74
519.41	1294.27
519.77	1316.31
520.13	1337.80
520.49	1358.52
520.85	1382.70
521.21	1404.89
521.57	1426.60
521.93	1448.09
522.29	1470.25
522.65	1491.56
523.01	1513.36
523.37	1534.44
523.73	1556.20
524.09	1577.80
524.45	1598.90
524.81	1620.10
525.17	1640.75
525.53	1661.73
525.89	1682.76
526.25	1704.30
526.61	1724.92
526.97	1746.45
527.33	1768.13
527.68	1790.86
528.04	1813.18
528.40	1832.42
528.76	1853.86
529.12	1874.97
529.48	1896.70
529.84	1917.48
530.20	1939.29
530.56	1960.70
530.91	1982.59
531.27	2003.74
531.63	2024.80
531.99	2046.29
532.35	2067.53
532.71	2088.92
533.07	2110.75
533.42	2132.13
533.78	2152.88
534.14	2174.08
534.50	2194.35
534.86	2214.20
535.21	2231.91
535.57	2251.27
535.93	2269.55
536.29	2288.43
536.65	2308.17
537.00	2326.40
537.36	2344.73
537.72	2361.40
538.08	2379.49
538.44	2397.06
538.79	2413.94
539.15	2431.46
539.51	2448.33
539.87	2464.08
540.22	2479.01
540.58	2494.66
540.94	2508.79
541.29	2522.72
541.65	2536.02
542.01	2549.49
542.37	2562.02
542.72	2574.02
543.08	2585.32
543.44	2597.99
543.79	2609.05
544.15	2619.65
544.51	2631.12
544.87	2641.71
545.22	2652.46
545.58	2661.37
545.94	2669.70
546.29	2678.24
546.65	2685.67
547.01	2692.43
547.36	2699.81
547.72	2706.81
548.07	2711.58
548.43	2717.59
548.79	2723.24
549.14	2728.68
549.50	2733.90
549.86	2738.14
550.21	2743.63
550.57	2748.69
550.92	2751.22
551.28	2753.98
551.64	2757.62
551.99	2760.83
552.35	2763.57
552.70	2766.58
553.06	2769.90
553.41	2772.59
553.77	2776.00
554.13	2779.27
554.48	2782.54
554.84	2785.51
555.19	2787.79
555.55	2791.50
555.90	2792.75
556.26	2794.01
556.61	2794.45
556.97	2793.87
557.32	2795.35
557.68	2796.29
558.03	2796.70
558.39	2797.17
558.74	2798.30
559.10	2796.72
559.45	2794.98
559.81	2793.25
560.16	2790.38
560.52	2787.45
560.87	2785.32
561.23	2781.57
561.58	2778.13
561.94	2773.47
562.29	2767.89
562.64	2763.72
563.00	2757.20
563.35	2752.82
563.71	2747.93
564.06	2743.29
564.42	2738.69
564.77	2733.95
565.12	2728.90
565.48	2724.71
565.83	2719.73
566.19	2713.80
566.54	2708.37
566.89	2702.96
567.25	2697.54
567.60	2692.88
567.96	2688.34
568.31	2682.92
568.66	2677.18
569.02	2670.46
569.37	2664.67
569.72	2660.15
570.08	2653.19
570.43	2646.28
570.78	2639.70
571.14	2632.88
571.49	2625.32
571.84	2618.42
572.20	2610.00
572.55	2601.54
572.90	2591.93
573.26	2583.41
573.61	2574.51
573.96	2565.63
574.31	2555.56
574.67	2545.77
575.02	2534.49
575.37	2523.14
575.72	2512.06
576.08	2501.45
576.43	2490.48
576.78	2479.05
577.13	2466.96
577.49	2455.79
577.84	2445.79
578.19	2435.63
578.54	2424.82
578.90	2415.00
579.25	2404.24
579.60	2393.54
579.95	2382.27
580.30	2370.80
580.66	2359.30
581.01	2347.35
581.36	2335.15
581.71	2323.90
582.06	2312.76
582.42	2302.55
582.77	2291.83
583.12	2281.40
583.47	2271.00
583.82	2260.80
584.17	2250.49
584.53	2240.20
584.88	2229.18
585.23	2217.19
585.58	2204.40
585.93	2192.28
586.28	2179.98
586.63	2167.21
586.98	2154.10
587.34	2142.29
587.69	2130.30
588.04	2119.42
588.39	2108.79
588.74	2097.63
589.09	2087.00
589.44	2075.20
589.79	2063.84
590.14	2052.91
590.49	2041.54
590.84	2030.12
591.19	2019.20
591.54	2007.73
591.89	1996.10
592.25	1987.05
592.60	1976.71
592.95	1966.04
593.30	1954.69
593.65	1942.94
594.00	1931.90
594.35	1924.05
594.70	1912.66
595.05	1901.69
595.40	1889.40
595.75	1877.90
596.10	1867.25
596.45	1856.00
596.80	1845.27
597.15	1834.55
597.50	1822.86
597.85	1811.94
598.19	1800.44
598.54	1788.36
598.89	1777.11
599.24	1766.93
599.59	1754.99
599.94	1743.94
600.29	1733.59
600.64	1723.92
600.99	1713.21
601.34	1703.76
601.69	1691.39
602.04	1681.64
602.39	1671.74
602.74	1662.41
603.08	1652.95
603.43	1643.38
603.78	1633.35
604.13	1623.43
604.48	1613.10
604.83	1603.23
605.18	1592.64
605.53	1582.84
605.87	1573.48
606.22	1564.95
606.57	1554.86
606.92	1544.58
607.27	1535.10
607.62	1525.76
607.96	1516.39
608.31	1508.14
608.66	1498.93
609.01	1489.77
609.36	1480.32
609.70	1471.40
610.05	1462.03
610.40	1452.58
610.75	1443.11
611.10	1434.17
611.44	1424.91
611.79	1415.74
612.14	1406.75
612.49	1397.80
612.83	1389.51
613.18	1380.93
613.53	1372.08
613.88	1363.11
614.22	1354.49
614.57	1345.48
614.92	1336.31
615.27	1327.80
615.61	1318.70
615.96	1309.94
616.31	1301.07
616.65	1293.20
617.00	1284.32
617.35	1275.95
617.70	1267.47
618.04	1258.85
618.39	1250.24
618.74	1242.82
619.08	1234.71
619.43	1226.55
619.78	1218.23
620.12	1209.30
620.47	1200.98
620.82	1191.95
621.16	1183.31
621.51	1175.70
621.85	1168.04
622.20	1159.77
622.55	1151.23
622.89	1143.64
623.24	1135.62
623.59	1127.70
623.93	1119.59
624.28	1111.86
624.62	1105.22
624.97	1098.05
625.32	1090.80
625.66	1083.33
626.01	1075.34
626.35	1068.30
626.70	1060.93
627.04	1054.24
627.39	1047.24
627.73	1040.51
628.08	1033.98
628.43	1027.16
628.77	1019.65
629.12	1012.92
629.46	1006.84
629.81	1000.76
630.15	994.31
630.50	987.93
630.84	981.41
631.19	974.93
631.53	969.36
631.88	961.91
632.22	955.17
632.57	949.44
632.91	943.30
633.26	937.48
633.60	931.20
633.95	925.03
634.29	918.53
634.64	912.24
634.98	905.31
635.32	899.11
635.67	893.65
636.01	887.84
636.36	881.63
636.70	876.01
637.05	870.12
637.39	864.52
637.73	858.84
638.08	853.69
638.42	847.79
638.77	841.10
639.11	834.64
639.45	828.55
639.80	821.69
640.14	815.84
640.49	809.89
640.83	804.17
641.17	798.88
641.52	793.54
641.86	788.31
642.20	784.05
642.55	778.72
642.89	773.33
643.23	768.39
643.58	763.64
643.92	757.85
644.26	752.65
644.61	747.80
644.95	742.76
645.29	737.50
645.64	732.64
645.98	728.15
646.32	723.99
646.66	719.09
647.01	714.79
647.35	710.32
647.69	705.80
648.04	701.58
648.38	697.16
648.72	692.83
649.06	688.33
649.41	683.43
649.75	678.86
650.09	674.33
650.43	669.60
650.78	665.15
651.12	660.76
651.46	656.35
651.80	651.70
652.14	647.56
652.49	643.30
652.83	639.36
653.17	635.16
653.51	630.99
653.85	627.61
654.20	623.75
654.54	619.60
654.88	615.29
655.22	611.85
655.56	607.96
655.90	603.86
656.25	600.14
656.59	596.44
656.93	592.89
657.27	589.69
657.61	586.06
657.95	582.24
658.29	578.91
658.64	575.38
658.98	571.80
659.32	567.90
659.66	564.46
660.00	560.83
660.34	557.37
660.68	554.00
661.02	550.27
661.36	546.91
661.70	543.69
662.05	540.59
662.39	536.93
662.73	533.87
663.07	531.20
663.41	527.97
663.75	524.53
664.09	521.36
664.43	517.77
664.77	514.89
665.11	511.79
665.45	508.85
665.79	506.11
666.13	503.12
666.47	500.30
666.81	497.38
667.15	494.35
667.49	491.69
667.83	489.41
668.17	486.79
668.51	484.05
668.85	481.85
669.19	480.04
669.53	477.40
669.87	474.60
670.21	471.86
670.55	469.34
670.89	467.48
671.23	465.16
671.57	462.87
671.91	460.37
672.25	458.00
672.58	455.65
672.92	452.90
673.26	450.59
673.60	448.35
673.94	446.20
674.28	444.27
674.62	442.23
674.96	439.75
675.30	437.62
675.64	435.45
675.97	432.90
676.31	430.04
676.65	427.73
676.99	425.86
677.33	423.56
677.67	421.54
678.01	418.84
678.34	416.89
678.68	415.05
679.02	413.00
679.36	411.06
679.70	408.96
680.04	407.28
680.37	405.39
680.71	403.51
681.05	401.79
681.39	400.08
681.73	398.10
682.06	396.08
682.40	394.24
682.74	392.65
683.08	391.51
683.42	389.82
683.75	388.43
684.09	386.59
684.43	385.13
684.77	383.55
685.10	382.01
685.44	380.45
685.78	378.83
686.12	377.22
686.45	375.57
686.79	374.08
687.13	372.83
687.46	371.29
687.80	369.92
688.14	368.23
688.48	366.58
688.81	365.03
689.15	364.00
689.49	362.51
689.82	361.05
690.16	359.10
690.50	357.86
690.83	356.35
691.17	354.79
691.51	353.30
691.84	351.90
692.18	350.56
692.52	349.16
692.85	347.90
693.19	346.97
693.52	345.77
693.86	344.41
694.20	342.83
694.53	341.66
694.87	340.27
695.21	338.88
695.54	337.69
695.88	336.42
696.21	334.80
696.55	333.70
696.88	332.48
697.22	331.10
697.56	330.01
697.89	328.81
698.23	327.66
698.56	326.47
698.90	325.40
699.23	324.26
699.57	323.20
699.90	321.87
700.24	320.54
700.58	319.61
700.91	318.75
701.25	318.55
701.58	318.23
701.92	317.46
702.25	316.57
702.59	315.41
702.92	314.48
703.26	313.68
703.59	312.69
703.93	312.49
704.26	311.84
704.60	310.96
704.93	309.96
705.26	309.13
705.60	308.45
705.93	307.44
706.27	306.86
706.60	306.08
706.94	305.66
707.27	304.80
707.61	303.99
707.94	303.18
708.27	301.65
708.61	300.17
708.94	299.37
709.28	298.61
709.61	297.83
709.94	297.11
710.28	296.31
710.61	295.51
710.95	293.77
711.28	293.54
711.61	292.63
711.95	292.20
712.28	291.36
712.61	290.75
712.95	290.61
713.28	290.34
713.61	289.61
713.95	288.67
714.28	288.05
714.61	287.24
714.95	286.45
715.28	285.51
715.61	284.80
715.95	284.12
716.28	283.37
716.61	282.88
716.95	282.14
717.28	281.53
717.61	280.98
717.94	280.64
718.28	279.34
718.61	278.72
718.94	277.93
719.27	277.43
719.61	276.76
719.94	275.89
720.27	274.86
720.60	274.24
720.94	273.71
721.27	273.20
721.60	272.88
721.93	272.35
722.27	272.36
722.60	272.02
722.93	271.37
723.26	271.00
723.59	270.47
723.93	270.27
724.26	269.90
724.59	269.37
724.92	268.88
725.25	268.83
725.59	268.30
725.92	268.02
726.25	267.53
726.58	267.27
726.91	266.82
727.24	266.51
727.57	266.14
727.91	265.63
728.24	265.32
728.57	264.75
728.90	264.52
729.23	263.88
729.56	263.87
729.89	263.60
730.22	263.22
730.55	262.85
730.89	262.34
731.22	262.06
731.55	261.76
731.88	261.52
732.21	260.80
732.54	260.55
732.87	260.23
733.20	259.93
733.53	259.58
733.86	259.34
734.19	258.90
734.52	258.82
734.85	259.07
735.18	258.60
735.51	258.70
735.84	258.37
736.17	258.34
736.50	257.59
736.83	258.50
737.16	258.30
737.49	258.09
737.82	257.78
738.15	257.60
738.48	257.31
738.81	257.05
739.14	256.81
739.47	256.50
739.80	256.15
740.13	256.13
740.46	255.62
740.79	255.20
741.12	254.91
741.45	254.41
741.78	253.71
742.11	253.83
742.44	253.39
742.77	253.27
743.10	252.82
743.43	252.50
743.75	251.17
744.08	252.05
744.41	251.71
744.74	251.54
745.07	251.16
745.40	251.13
745.73	251.23
746.06	251.12
746.39	251.18
746.71	250.80
747.04	250.32
747.37	250.19
747.70	250.21
748.03	250.14
748.36	250.12
748.68	249.88
749.01	249.31
749.34	249.09
749.67	249.02
750.00	249.05
750.33	249.64
750.65	249.40
750.98	248.01
751.31	247.96
751.64	247.77
751.97	247.97
752.29	247.74
752.62	247.03
752.95	246.74
753.28	246.22
753.60	246.10
753.93	246.21
754.26	246.13
754.59	245.60
754.91	245.27
755.24	244.94
755.57	244.73
755.90	244.55
756.22	244.30
756.55	243.97
756.88	243.54
757.20	242.70
757.53	242.35
757.86	242.25
758.19	242.04
758.51	241.77
758.84	241.12
759.17	240.83
759.49	240.71
759.82	241.08
760.15	241.08
760.47	240.96
760.80	240.57
761.13	240.46
761.45	240.28
761.78	240.22
762.11	240.15
762.43	240.00
762.76	239.82
763.08	239.88
763.41	239.77
763.74	239.70
764.06	239.60
764.39	239.56
764.71	239.38
765.04	239.20
765.37	239.04
765.69	238.96
766.02	238.86
766.34	238.78
766.67	238.25
767.00	238.34
767.32	238.73
767.65	239.16
767.97	238.92
768.30	238.95
768.62	238.83
768.95	238.56
769.27	238.42
769.60	238.60
769.92	238.24
770.25	237.97
770.57	237.67
770.90	237.53
771.22	237.33
771.55	237.25
771.87	237.03
772.20	237.01
772.52	237.70
772.85	238.71
773.17	238.80
773.50	238.68
773.82	238.40
774.15	237.86
774.47	237.18
774.80	237.13
775.12	237.04
775.45	236.95
775.77	236.96
776.09	236.96
776.42	236.78
776.74	236.98
777.07	236.89
777.39	236.90
777.72	236.73
778.04	236.76
778.36	236.59
778.69	236.71
779.01	236.71
779.33	235.83
779.66	234.74
779.98	234.60
780.31	234.51
780.63	234.81
780.95	234.87
781.28	234.78
781.60	234.61
781.92	234.58
782.25	234.60
782.57	234.56
782.89	234.45
783.22	234.43
783.54	234.24
783.86	234.25
784.19	234.19
784.51	234.50
784.83	234.36
785.16	234.43
785.48	234.46
785.80	234.39
786.12	234.47
786.45	234.37
786.77	234.22
787.09	234.20
787.42	233.84
787.74	233.88
788.06	233.97
788.38	234.02
788.71	233.81
789.03	233.67
789.35	233.76
789.67	233.71
789.99	233.65
790.32	233.51
790.64	233.59
790.96	234.34
791.28	233.90
791.61	233.90
791.93	233.87
792.25	233.72
792.57	234.38
792.89	234.25
793.21	234.38
793.54	234.35
793.86	234.22
794.18	234.23
794.50	233.97
794.82	233.93
795.14	233.96
795.47	234.19
795.79	234.24
796.11	234.02
796.43	233.89
796.75	233.87
797.07	233.80
797.39	233.66
797.71	232.95
798.04	233.00
798.36	233.10
798.68	233.10
799.00	233.19
799.32	232.54
799.64	232.54
799.96	232.45
800.28	232.56
800.60	232.58
800.92	232.64
801.24	232.73
801.56	232.75
801.89	232.68
802.21	232.75
802.53	232.49
802.85	232.71
803.17	233.18
803.49	232.97
803.81	233.02
804.13	232.92
804.45	232.80
804.77	232.81
805.09	232.67
805.41	232.49
805.73	232.22
806.05	232.10
806.37	232.15
806.69	231.87
807.01	231.84
807.33	231.85
807.65	231.46
807.97	231.81
808.28	231.70
808.60	231.64
808.92	231.39
809.24	232.10
809.56	231.81
809.88	231.29
810.20	231.33
810.52	231.37
810.84	231.22
811.16	231.04
811.48	230.99
811.80	231.25
812.12	231.21
812.43	231.48
812.75	231.49
813.07	231.35
813.39	231.50
813.71	231.28
814.03	231.24
814.35	231.33
814.67	230.84
814.98	230.72
815.30	230.66
815.62	230.47
815.94	229.67
816.26	230.17
816.58	230.08
