SpectraSuite Data File
++++++++++++++++++++++++++++++++++++
Date: Wed Sep 04 17:30:56 EDT 2013
User: lab3
Dark Spectrum Present: Yes
Reference Spectrum Present: No
Number of Sampled Component Spectra: 1
Spectrometers: USB2E7196
Integration Time (usec): 337000 (USB2E7196)
Spectra Averaged: 10 (USB2E7196)
Boxcar Smoothing: 10 (USB2E7196)
Correct for Electrical Dark: No (USB2E7196)
Strobe/Lamp Enabled: No (USB2E7196)
Correct for Detector Non-linearity: No (USB2E7196)
Correct for Stray Light: No (USB2E7196)
Number of Pixels in Processed Spectrum: 2048
>>>>>Begin Processed Spectral Data<<<<<
339.09	0.00
339.48	213.10
339.86	214.20
340.24	214.30
340.63	217.40
341.01	231.80
341.39	220.70
341.78	223.20
342.16	225.60
342.54	223.90
342.93	213.09
343.31	223.75
343.69	224.40
344.07	224.90
344.46	225.56
344.84	225.97
345.22	225.70
345.60	225.99
345.99	226.19
346.37	226.21
346.75	226.17
347.13	226.21
347.52	226.14
347.90	226.50
348.28	226.46
348.66	226.69
349.05	226.47
349.43	226.52
349.81	226.63
350.19	226.63
350.57	226.73
350.96	226.89
351.34	227.03
351.72	226.98
352.10	227.08
352.48	227.01
352.87	227.00
353.25	227.01
353.63	227.11
354.01	227.04
354.39	227.10
354.77	227.28
355.15	227.63
355.54	227.64
355.92	227.31
356.30	227.44
356.68	228.09
357.06	228.17
357.44	228.06
357.82	228.05
358.20	228.99
358.58	229.10
358.97	229.13
359.35	229.30
359.73	229.56
360.11	229.61
360.49	229.68
360.87	229.77
361.25	229.90
361.63	230.11
362.01	230.29
362.39	230.38
362.77	230.44
363.15	230.46
363.53	230.59
363.91	230.86
364.29	230.79
364.67	229.95
365.05	230.06
365.43	230.26
365.81	230.33
366.19	230.00
366.57	230.36
366.95	230.28
367.33	230.09
367.71	230.09
368.09	230.30
368.47	230.30
368.85	230.30
369.23	230.55
369.61	230.27
369.99	230.55
370.37	230.68
370.75	231.25
371.13	231.00
371.51	230.84
371.89	230.87
372.27	230.94
372.65	231.01
373.03	231.08
373.41	231.00
373.78	231.02
374.16	230.51
374.54	230.15
374.92	230.18
375.30	230.32
375.68	230.13
376.06	230.13
376.44	229.99
376.82	230.03
377.19	229.76
377.57	229.71
377.95	229.28
378.33	229.04
378.71	228.37
379.09	228.56
379.47	228.66
379.84	228.52
380.22	228.45
380.60	228.20
380.98	227.99
381.36	227.95
381.73	227.80
382.11	227.92
382.49	227.96
382.87	227.68
383.25	227.59
383.62	228.65
384.00	228.39
384.38	228.45
384.76	228.59
385.13	229.03
385.51	228.97
385.89	228.97
386.27	229.02
386.64	229.08
387.02	228.87
387.40	228.70
387.78	228.68
388.15	228.69
388.53	228.60
388.91	228.61
389.29	228.49
389.66	228.53
390.04	228.48
390.42	228.52
390.79	228.62
391.17	228.53
391.55	227.46
391.92	227.39
392.30	227.40
392.68	227.20
393.05	227.03
393.43	227.05
393.81	227.06
394.18	226.87
394.56	226.86
394.94	227.07
395.31	227.00
395.69	227.31
396.06	227.47
396.44	227.53
396.82	227.46
397.19	228.04
397.57	227.96
397.95	228.06
398.32	227.85
398.70	228.05
399.07	228.30
399.45	228.31
399.82	228.51
400.20	228.52
400.58	228.59
400.95	228.40
401.33	228.65
401.70	229.41
402.08	229.62
402.45	229.79
402.83	230.08
403.20	230.37
403.58	230.35
403.95	230.67
404.33	231.13
404.71	231.41
405.08	232.13
405.46	232.41
405.83	232.81
406.21	233.17
406.58	233.60
406.96	233.92
407.33	234.45
407.70	234.96
408.08	236.25
408.45	236.91
408.83	237.70
409.20	238.26
409.58	238.32
409.95	239.18
410.33	240.01
410.70	240.54
411.08	241.49
411.45	242.42
411.82	243.23
412.20	244.50
412.57	246.16
412.95	246.46
413.32	248.04
413.69	249.30
414.07	250.69
414.44	252.14
414.82	253.82
415.19	255.64
415.56	257.36
415.94	258.83
416.31	261.07
416.68	263.25
417.06	265.77
417.43	268.52
417.81	271.24
418.18	274.14
418.55	277.33
418.93	280.56
419.30	284.00
419.67	287.55
420.04	291.07
420.42	294.62
420.79	299.74
421.16	304.15
421.54	309.20
421.91	314.15
422.28	319.12
422.66	324.40
423.03	330.11
423.40	335.63
423.77	341.45
424.15	347.26
424.52	353.39
424.89	360.25
425.26	366.67
425.64	372.91
426.01	379.66
426.38	386.81
426.75	394.34
427.13	401.81
427.50	409.63
427.87	417.72
428.24	425.84
428.61	433.20
428.99	441.99
429.36	450.89
429.73	459.97
430.10	469.21
430.47	478.65
430.85	488.15
431.22	498.51
431.59	509.93
431.96	520.38
432.33	532.13
432.70	543.50
433.08	556.68
433.45	569.28
433.82	582.09
434.19	596.10
434.56	610.06
434.93	623.08
435.30	636.40
435.68	651.30
436.05	665.78
436.42	680.09
436.79	693.54
437.16	707.96
437.53	723.26
437.90	738.36
438.27	753.39
438.64	768.86
439.01	783.37
439.38	795.82
439.75	808.66
440.13	822.93
440.50	836.26
440.87	847.27
441.24	858.76
441.61	871.15
441.98	880.44
442.35	890.93
442.72	902.23
443.09	913.10
443.46	919.76
443.83	924.51
444.20	928.70
444.57	934.04
444.94	936.87
445.31	939.72
445.68	943.44
446.05	944.90
446.42	943.48
446.79	942.38
447.16	940.87
447.53	939.76
447.90	934.31
448.27	928.86
448.64	921.30
449.01	916.08
449.37	906.53
449.74	897.08
450.11	886.45
450.48	873.94
450.85	860.90
451.22	849.93
451.59	839.34
451.96	829.15
452.33	815.73
452.70	803.78
453.07	789.43
453.43	773.69
453.80	759.32
454.17	746.03
454.54	732.83
454.91	718.94
455.28	705.36
455.65	692.68
456.02	681.37
456.38	670.69
456.75	657.28
457.12	646.08
457.49	635.15
457.86	624.07
458.23	615.35
458.59	605.63
458.96	595.50
459.33	586.87
459.70	578.23
460.07	571.28
460.43	563.27
460.80	555.97
461.17	549.89
461.54	543.24
461.91	536.61
462.27	529.86
462.64	524.07
463.01	517.96
463.38	512.51
463.74	505.43
464.11	500.40
464.48	495.87
464.85	490.90
465.21	487.41
465.58	483.33
465.95	478.19
466.32	474.38
466.68	470.56
467.05	466.64
467.42	462.73
467.78	458.72
468.15	455.01
468.52	452.12
468.88	447.87
469.25	444.39
469.62	441.91
469.98	439.06
470.35	436.56
470.72	433.97
471.08	430.82
471.45	428.67
471.82	426.40
472.18	423.90
472.55	422.15
472.92	419.81
473.28	417.77
473.65	415.80
474.02	413.65
474.38	412.15
474.75	410.87
475.11	409.25
475.48	407.99
475.85	406.54
476.21	405.25
476.58	404.57
476.94	403.72
477.31	402.69
477.67	402.02
478.04	401.27
478.41	400.74
478.77	401.23
479.14	400.45
479.50	399.93
479.87	399.75
480.23	399.59
480.60	399.29
480.96	398.99
481.33	399.39
481.69	399.42
482.06	399.24
482.42	399.30
482.79	399.60
483.15	400.01
483.52	400.74
483.88	401.20
484.25	401.49
484.61	402.08
484.98	402.56
485.34	403.65
485.71	404.63
486.07	405.48
486.44	405.53
486.80	406.69
487.17	407.75
487.53	409.20
487.90	410.58
488.26	412.28
488.62	414.18
488.99	415.62
489.35	417.49
489.72	419.36
490.08	421.19
490.44	423.14
490.81	425.29
491.17	427.30
491.54	429.80
491.90	432.47
492.26	434.94
492.63	437.72
492.99	440.07
493.36	442.99
493.72	446.16
494.08	449.27
494.45	452.54
494.81	456.26
495.17	459.56
495.54	462.98
495.90	466.35
496.26	469.88
496.63	473.50
496.99	477.10
497.35	481.03
497.72	485.21
498.08	489.15
498.44	493.04
498.80	497.32
499.17	501.30
499.53	505.50
499.89	510.23
500.26	514.51
500.62	518.99
500.98	523.60
501.34	527.83
501.71	532.60
502.07	537.10
502.43	541.31
502.79	545.82
503.16	550.60
503.52	555.02
503.88	559.68
504.24	564.59
504.60	569.57
504.97	574.42
505.33	578.85
505.69	584.25
506.05	589.34
506.41	594.08
506.78	598.89
507.14	603.40
507.50	607.78
507.86	612.54
508.22	617.28
508.59	621.57
508.95	626.49
509.31	631.36
509.67	635.67
510.03	640.09
510.39	644.25
510.75	648.32
511.12	652.67
511.48	656.67
511.84	660.48
512.20	664.11
512.56	668.06
512.92	671.86
513.28	675.52
513.64	679.07
514.00	682.65
514.37	686.38
514.73	690.02
515.09	693.69
515.45	697.05
515.81	700.06
516.17	703.16
516.53	706.25
516.89	709.06
517.25	712.36
517.61	715.98
517.97	719.46
518.33	722.77
518.69	726.28
519.05	729.62
519.41	732.94
519.77	736.77
520.13	739.71
520.49	742.99
520.85	748.42
521.21	751.70
521.57	754.90
521.93	757.29
522.29	760.27
522.65	762.75
523.01	765.26
523.37	767.90
523.73	770.78
524.09	773.17
524.45	775.28
524.81	777.66
525.17	779.79
525.53	782.03
525.89	784.20
526.25	786.36
526.61	788.36
526.97	790.62
527.33	792.98
527.68	796.29
528.04	798.86
528.40	798.63
528.76	801.08
529.12	803.73
529.48	806.92
529.84	809.40
530.20	812.54
530.56	815.74
530.91	818.91
531.27	821.83
531.63	825.26
531.99	828.70
532.35	832.07
532.71	835.46
533.07	839.10
533.42	843.76
533.78	847.16
534.14	850.68
534.50	854.31
534.86	858.15
535.21	860.89
535.57	864.55
535.93	868.04
536.29	871.92
536.65	875.63
537.00	879.12
537.36	882.93
537.72	886.23
538.08	890.25
538.44	893.81
538.79	897.72
539.15	901.02
539.51	904.76
539.87	908.56
540.22	911.89
540.58	915.30
540.94	917.82
541.29	921.39
541.65	924.85
542.01	928.71
542.37	931.72
542.72	934.85
543.08	937.46
543.44	940.99
543.79	943.41
544.15	946.50
544.51	949.87
544.87	953.24
545.22	956.60
545.58	959.21
545.94	962.00
546.29	964.58
546.65	967.34
547.01	970.04
547.36	972.93
547.72	975.69
548.07	978.45
548.43	981.26
548.79	983.81
549.14	986.57
549.50	989.14
549.86	991.61
550.21	994.67
550.57	997.99
550.92	1000.51
551.28	1003.64
551.64	1006.32
551.99	1009.14
552.35	1011.85
552.70	1014.53
553.06	1017.37
553.41	1020.42
553.77	1023.77
554.13	1026.79
554.48	1029.62
554.84	1032.27
555.19	1035.21
555.55	1038.67
555.90	1040.76
556.26	1042.87
556.61	1045.11
556.97	1046.50
557.32	1048.68
557.68	1050.59
558.03	1052.70
558.39	1054.60
558.74	1056.58
559.10	1058.20
559.45	1059.81
559.81	1061.21
560.16	1062.42
560.52	1064.08
560.87	1065.86
561.23	1066.99
561.58	1069.09
561.94	1069.83
562.29	1070.88
562.64	1071.87
563.00	1072.29
563.35	1073.86
563.71	1075.70
564.06	1076.97
564.42	1078.86
564.77	1080.58
565.12	1082.18
565.48	1084.23
565.83	1085.83
566.19	1087.15
566.54	1088.62
566.89	1089.80
567.25	1091.24
567.60	1093.19
567.96	1094.92
568.31	1096.27
568.66	1097.50
569.02	1097.55
569.37	1098.89
569.72	1099.92
570.08	1100.66
570.43	1100.60
570.78	1100.84
571.14	1101.01
571.49	1101.10
571.84	1101.31
572.20	1100.67
572.55	1100.40
572.90	1099.20
573.26	1098.45
573.61	1097.71
573.96	1096.84
574.31	1095.69
574.67	1094.37
575.02	1092.64
575.37	1090.58
575.72	1088.68
576.08	1087.01
576.43	1085.40
576.78	1083.72
577.13	1081.76
577.49	1080.11
577.84	1079.19
578.19	1077.96
578.54	1076.52
578.90	1075.29
579.25	1073.35
579.60	1071.90
579.95	1070.12
580.30	1068.09
580.66	1066.47
581.01	1064.48
581.36	1062.35
581.71	1060.61
582.06	1059.23
582.42	1057.45
582.77	1055.40
583.12	1053.60
583.47	1051.82
583.82	1050.04
584.17	1048.23
584.53	1046.83
584.88	1044.40
585.23	1042.11
585.58	1039.41
585.93	1036.55
586.28	1034.22
586.63	1031.57
586.98	1028.98
587.34	1026.29
587.69	1023.83
588.04	1021.40
588.39	1019.09
588.74	1016.92
589.09	1014.61
589.44	1011.41
589.79	1008.82
590.14	1006.51
590.49	1003.82
590.84	1001.20
591.19	999.04
591.54	996.09
591.89	993.00
592.25	991.94
592.60	989.16
592.95	986.58
593.30	984.02
593.65	980.81
594.00	977.90
594.35	977.58
594.70	974.37
595.05	971.52
595.40	968.30
595.75	965.16
596.10	961.91
596.45	958.90
596.80	956.18
597.15	953.02
597.50	949.78
597.85	947.07
598.19	943.70
598.54	939.90
598.89	936.53
599.24	933.47
599.59	929.16
599.94	925.87
600.29	922.70
600.64	919.51
600.99	916.43
601.34	913.76
601.69	908.26
602.04	905.56
602.39	902.64
602.74	899.82
603.08	896.79
603.43	894.19
603.78	890.99
604.13	887.49
604.48	884.42
604.83	881.13
605.18	877.56
605.53	874.25
605.87	871.43
606.22	868.62
606.57	865.47
606.92	862.24
607.27	859.21
607.62	856.11
607.96	853.27
608.31	850.50
608.66	847.22
609.01	843.86
609.36	840.45
609.70	837.22
610.05	833.91
610.40	830.69
610.75	826.98
611.10	823.70
611.44	820.59
611.79	817.15
612.14	814.09
612.49	810.70
612.83	807.52
613.18	804.29
613.53	801.17
613.88	797.57
614.22	794.01
614.57	790.44
614.92	786.86
615.27	783.38
615.61	779.78
615.96	776.39
616.31	772.73
616.65	769.81
617.00	766.32
617.35	762.81
617.70	759.33
618.04	755.95
618.39	752.74
618.74	749.87
619.08	746.60
619.43	743.19
619.78	739.76
620.12	736.49
620.47	732.95
620.82	729.15
621.16	725.73
621.51	722.82
621.85	719.41
622.20	716.25
622.55	712.77
622.89	709.35
623.24	706.26
623.59	702.94
623.93	699.47
624.28	696.08
624.62	693.75
624.97	691.17
625.32	688.10
625.66	684.80
626.01	681.10
626.35	678.02
626.70	674.80
627.04	671.90
627.39	668.49
627.73	665.59
628.08	663.03
628.43	659.98
628.77	656.65
629.12	653.68
629.46	650.77
629.81	648.31
630.15	645.48
630.50	642.45
630.84	639.83
631.19	636.82
631.53	634.23
631.88	630.26
632.22	626.91
632.57	624.13
632.91	621.02
633.26	618.46
633.60	615.42
633.95	612.60
634.29	609.43
634.64	606.77
634.98	603.54
635.32	600.57
635.67	597.99
636.01	595.46
636.36	592.60
636.70	590.21
637.05	587.16
637.39	584.30
637.73	581.56
638.08	579.15
638.42	576.37
638.77	573.44
639.11	570.64
639.45	567.64
639.80	564.62
640.14	561.90
640.49	558.89
640.83	556.47
641.17	554.01
641.52	551.47
641.86	549.04
642.20	547.02
642.55	544.32
642.89	541.64
643.23	539.02
643.58	537.11
643.92	534.07
644.26	531.30
644.61	529.16
644.95	526.57
645.29	523.72
645.64	521.37
645.98	518.97
646.32	516.81
646.66	514.15
647.01	511.73
647.35	509.68
647.69	507.69
648.04	505.61
648.38	503.32
648.72	501.08
649.06	498.65
649.41	495.89
649.75	493.62
650.09	491.48
650.43	489.04
650.78	486.32
651.12	484.09
651.46	482.12
651.80	479.67
652.14	477.45
652.49	475.61
652.83	473.50
653.17	471.39
653.51	469.09
653.85	467.41
654.20	465.42
654.54	463.18
654.88	460.82
655.22	459.10
655.56	456.91
655.90	454.85
656.25	452.79
656.59	450.98
656.93	449.05
657.27	447.28
657.61	445.18
657.95	443.39
658.29	441.50
658.64	439.51
658.98	437.58
659.32	435.50
659.66	433.45
660.00	431.49
660.34	429.50
660.68	427.75
661.02	425.85
661.36	424.04
661.70	422.20
662.05	420.53
662.39	418.32
662.73	416.86
663.07	415.60
663.41	413.90
663.75	411.98
664.09	410.16
664.43	408.12
664.77	406.64
665.11	404.83
665.45	403.10
665.79	401.54
666.13	399.83
666.47	398.21
666.81	396.47
667.15	394.76
667.49	393.42
667.83	392.29
668.17	390.72
668.51	389.38
668.85	387.98
669.19	386.88
669.53	385.14
669.87	383.43
670.21	381.75
670.55	380.37
670.89	379.53
671.23	378.20
671.57	376.85
671.91	375.49
672.25	374.20
672.58	373.08
672.92	371.48
673.26	370.13
673.60	368.90
673.94	367.69
674.28	366.62
674.62	365.26
674.96	363.60
675.30	362.26
675.64	360.98
675.97	359.70
676.31	357.94
676.65	356.63
676.99	355.79
677.33	354.26
677.67	353.10
678.01	351.38
678.34	350.27
678.68	349.33
679.02	348.02
679.36	346.84
679.70	345.61
680.04	344.75
680.37	343.79
680.71	342.75
681.05	341.71
681.39	340.66
681.73	339.61
682.06	338.50
682.40	337.71
682.74	336.73
683.08	336.01
683.42	335.13
683.75	334.46
684.09	333.12
684.43	332.25
684.77	331.16
685.10	330.25
685.44	329.23
685.78	328.05
686.12	327.18
686.45	326.30
686.79	325.36
687.13	324.41
687.46	323.36
687.80	322.60
688.14	321.44
688.48	320.48
688.81	319.61
689.15	318.91
689.49	317.82
689.82	316.80
690.16	315.43
690.50	314.53
690.83	313.46
691.17	312.38
691.51	311.61
691.84	310.83
692.18	309.87
692.52	308.99
692.85	308.34
693.19	307.95
693.52	307.10
693.86	306.15
694.20	305.30
694.53	304.60
694.87	303.73
695.21	303.05
695.54	302.27
695.88	301.36
696.21	300.44
696.55	299.73
696.88	298.86
697.22	298.12
697.56	297.45
697.89	296.71
698.23	296.27
698.56	295.47
698.90	294.78
699.23	294.10
699.57	293.49
699.90	292.49
700.24	291.38
700.58	290.65
700.91	290.15
701.25	290.24
701.58	290.32
701.92	289.83
702.25	289.32
702.59	288.60
702.92	288.16
703.26	287.60
703.59	287.07
703.93	287.39
704.26	286.93
704.60	286.38
704.93	285.81
705.26	285.06
705.60	284.75
705.93	284.09
706.27	283.88
706.60	283.63
706.94	283.74
707.27	283.17
707.61	282.80
707.94	282.24
708.27	280.96
708.61	279.69
708.94	279.11
709.28	278.66
709.61	278.10
709.94	277.70
710.28	277.15
710.61	276.61
710.95	275.13
711.28	275.33
711.61	274.90
711.95	274.66
712.28	274.14
712.61	273.48
712.95	273.53
713.28	273.41
713.61	272.61
713.95	271.80
714.28	271.50
714.61	270.96
714.95	270.40
715.28	269.84
715.61	269.38
715.95	268.93
716.28	268.36
716.61	268.17
716.95	267.54
717.28	267.20
717.61	266.79
717.94	266.55
718.28	265.45
718.61	264.98
718.94	264.33
719.27	263.90
719.61	263.64
719.94	262.93
720.27	261.94
720.60	261.62
720.94	261.21
721.27	260.89
721.60	260.68
721.93	260.42
722.27	260.39
722.60	260.22
722.93	259.84
723.26	259.62
723.59	259.13
723.93	258.95
724.26	258.75
724.59	258.42
724.92	258.16
725.25	258.09
725.59	257.69
725.92	257.68
726.25	257.57
726.58	257.28
726.91	257.01
727.24	256.95
727.57	256.69
727.91	256.23
728.24	255.99
728.57	255.53
728.90	255.33
729.23	254.83
729.56	254.93
729.89	254.73
730.22	254.43
730.55	254.21
730.89	253.86
731.22	253.46
731.55	253.22
731.88	252.96
732.21	252.62
732.54	252.42
732.87	252.10
733.20	251.85
733.53	251.60
733.86	251.45
734.19	251.15
734.52	251.08
734.85	251.59
735.18	251.32
735.51	251.44
735.84	251.40
736.17	251.46
736.50	250.80
736.83	251.68
737.16	251.56
737.49	251.58
737.82	251.37
738.15	251.24
738.48	250.98
738.81	250.80
739.14	250.51
739.47	250.29
739.80	250.04
740.13	249.85
740.46	249.46
740.79	249.11
741.12	248.84
741.45	248.40
741.78	247.71
742.11	247.78
742.44	247.35
742.77	247.24
743.10	246.85
743.43	246.57
743.75	245.36
744.08	246.28
744.41	245.81
744.74	245.49
745.07	245.15
745.40	245.11
745.73	245.23
746.06	245.07
746.39	245.00
746.71	244.69
747.04	244.45
747.37	244.33
747.70	244.36
748.03	244.20
748.36	244.26
748.68	244.06
749.01	243.60
749.34	243.52
749.67	243.21
750.00	243.23
750.33	243.91
750.65	243.79
750.98	242.55
751.31	242.45
751.64	242.48
751.97	242.89
752.29	242.70
752.62	242.21
752.95	241.97
753.28	241.72
753.60	241.65
753.93	241.88
754.26	241.89
754.59	241.45
754.91	241.29
755.24	241.04
755.57	240.98
755.90	240.84
756.22	240.61
756.55	240.43
756.88	240.14
757.20	239.35
757.53	239.06
757.86	238.86
758.19	238.82
758.51	238.75
758.84	238.16
759.17	237.96
759.49	238.00
759.82	238.42
760.15	238.36
760.47	238.22
760.80	237.80
761.13	237.83
761.45	237.83
761.78	237.80
762.11	237.78
762.43	237.51
762.76	237.35
763.08	237.44
763.41	237.53
763.74	237.52
764.06	237.41
764.39	237.32
764.71	237.24
765.04	237.03
765.37	236.84
765.69	236.74
766.02	236.65
766.34	236.40
766.67	235.96
767.00	236.12
767.32	236.63
767.65	237.05
767.97	236.80
768.30	236.73
768.62	236.60
768.95	236.42
769.27	236.45
769.60	236.62
769.92	236.33
770.25	236.01
770.57	235.80
770.90	235.70
771.22	235.58
771.55	235.55
771.87	235.58
772.20	235.55
772.52	236.28
772.85	237.40
773.17	237.43
773.50	237.34
773.82	237.12
774.15	236.51
774.47	235.94
774.80	235.84
775.12	235.83
775.45	235.78
775.77	235.75
776.09	235.68
776.42	235.50
776.74	235.70
777.07	235.63
777.39	235.57
777.72	235.37
778.04	235.52
778.36	235.28
778.69	235.23
779.01	235.19
779.33	234.30
779.66	233.19
779.98	233.06
780.31	232.99
780.63	233.26
780.95	233.40
781.28	233.31
781.60	233.17
781.92	233.03
782.25	232.99
782.57	232.97
782.89	232.77
783.22	232.76
783.54	232.44
783.86	232.50
784.19	232.50
784.51	232.78
784.83	232.58
785.16	232.64
785.48	232.63
785.80	232.58
786.12	232.61
786.45	232.50
786.77	232.57
787.09	232.52
787.42	232.24
787.74	232.20
788.06	232.23
788.38	232.22
788.71	232.08
789.03	232.10
789.35	232.21
789.67	232.22
789.99	232.25
790.32	232.20
790.64	232.24
790.96	232.85
791.28	232.54
791.61	232.48
791.93	232.48
792.25	232.38
792.57	233.10
792.89	232.80
793.21	232.87
793.54	232.73
793.86	232.59
794.18	232.51
794.50	232.34
794.82	232.21
795.14	232.29
795.47	232.43
795.79	232.40
796.11	232.15
796.43	232.07
796.75	232.00
797.07	232.05
797.39	232.01
797.71	231.33
798.04	231.35
798.36	231.35
798.68	231.32
799.00	231.38
799.32	230.70
799.64	231.10
799.96	231.09
800.28	231.17
800.60	231.18
800.92	231.12
801.24	231.06
801.56	231.19
801.89	231.06
802.21	231.13
802.53	231.00
802.85	231.18
803.17	231.66
803.49	231.48
803.81	231.40
804.13	231.24
804.45	231.20
804.77	231.14
805.09	231.15
805.41	231.00
805.73	230.79
806.05	230.63
806.37	230.40
806.69	230.25
807.01	230.20
807.33	230.15
807.65	229.98
807.97	230.43
808.28	230.31
808.60	230.37
808.92	230.13
809.24	230.68
809.56	230.43
809.88	230.03
810.20	230.06
810.52	230.10
810.84	229.98
811.16	229.82
811.48	229.88
811.80	230.17
812.12	230.14
812.43	230.38
812.75	230.47
813.07	230.40
813.39	230.44
813.71	230.19
814.03	230.17
814.35	230.16
814.67	229.70
814.98	229.60
815.30	229.49
815.62	229.42
815.94	228.78
816.26	229.25
816.58	229.06
816.89	229.14
817.21	228.99
817.53	229.09
817.85	229.15
818.17	229.14
818.48	228.74
818.80	228.91
819.12	228.72
819.44	228.52
819.76	228.46
820.07	228.43
820.39	228.59
820.71	228.65
821.03	228.65
821.34	228.53
821.66	228.61
