SpectraSuite Data File
++++++++++++++++++++++++++++++++++++
Date: Wed Sep 04 17:31:45 EDT 2013
User: lab3
Dark Spectrum Present: Yes
Reference Spectrum Present: No
Number of Sampled Component Spectra: 1
Spectrometers: USB2E7196
Integration Time (usec): 337000 (USB2E7196)
Spectra Averaged: 10 (USB2E7196)
Boxcar Smoothing: 10 (USB2E7196)
Correct for Electrical Dark: No (USB2E7196)
Strobe/Lamp Enabled: No (USB2E7196)
Correct for Detector Non-linearity: No (USB2E7196)
Correct for Stray Light: No (USB2E7196)
Number of Pixels in Processed Spectrum: 2048
>>>>>Begin Processed Spectral Data<<<<<
339.09	0.00
339.48	212.80
339.86	214.90
340.24	215.10
340.63	217.50
341.01	233.60
341.39	218.70
341.78	222.40
342.16	226.20
342.54	221.70
342.93	213.22
343.31	223.81
343.69	224.41
344.07	224.90
344.46	225.50
344.84	225.95
345.22	225.51
345.60	225.90
345.99	226.08
346.37	226.07
346.75	226.17
347.13	226.09
347.52	226.13
347.90	226.37
348.28	226.35
348.66	226.67
349.05	226.20
349.43	226.38
349.81	226.50
350.19	226.60
350.57	226.64
350.96	226.70
351.34	226.96
351.72	227.05
352.10	227.14
352.48	227.05
352.87	226.95
353.25	227.04
353.63	226.98
354.01	227.02
354.39	227.10
354.77	227.26
355.15	227.69
355.54	227.65
355.92	227.48
356.30	227.54
356.68	227.99
357.06	228.22
357.44	228.04
357.82	228.00
358.20	228.80
358.58	228.81
358.97	228.83
359.35	229.07
359.73	229.28
360.11	229.25
360.49	229.40
360.87	229.44
361.25	229.58
361.63	230.03
362.01	230.11
362.39	230.03
362.77	230.13
363.15	230.14
363.53	230.19
363.91	230.21
364.29	230.24
364.67	229.53
365.05	229.53
365.43	229.76
365.81	229.90
366.19	229.53
366.57	229.92
366.95	230.00
367.33	229.73
367.71	229.68
368.09	229.96
368.47	229.96
368.85	230.03
369.23	230.20
369.61	229.84
369.99	230.19
370.37	230.30
370.75	230.71
371.13	230.49
371.51	230.36
371.89	230.45
372.27	230.53
372.65	230.60
373.03	230.59
373.41	230.36
373.78	230.22
374.16	229.77
374.54	229.46
374.92	229.42
375.30	229.41
375.68	229.23
376.06	229.16
376.44	229.04
376.82	228.99
377.19	228.92
377.57	228.89
377.95	228.44
378.33	228.44
378.71	227.77
379.09	227.90
379.47	228.04
379.84	227.90
380.22	227.67
380.60	227.44
380.98	227.39
381.36	227.37
381.73	227.26
382.11	227.33
382.49	227.30
382.87	227.11
383.25	227.11
383.62	228.05
384.00	227.87
384.38	227.86
384.76	228.07
385.13	228.25
385.51	228.21
385.89	228.08
386.27	228.02
386.64	228.19
387.02	227.96
387.40	227.77
387.78	227.81
388.15	227.89
388.53	227.77
388.91	227.69
389.29	227.67
389.66	227.83
390.04	227.72
390.42	227.80
390.79	227.88
391.17	227.77
391.55	226.78
391.92	226.68
392.30	226.75
392.68	226.50
393.05	226.47
393.43	226.44
393.81	226.55
394.18	226.36
394.56	226.29
394.94	226.55
395.31	226.51
395.69	226.80
396.06	226.91
396.44	227.12
396.82	227.08
397.19	227.52
397.57	227.42
397.95	227.67
398.32	227.50
398.70	227.60
399.07	227.97
399.45	228.03
399.82	228.07
400.20	228.00
400.58	228.12
400.95	227.86
401.33	228.16
401.70	228.90
402.08	229.26
402.45	229.47
402.83	229.82
403.20	230.02
403.58	230.03
403.95	230.35
404.33	230.72
404.71	231.02
405.08	231.65
405.46	232.00
405.83	232.25
406.21	232.62
406.58	232.98
406.96	233.25
407.33	233.74
407.70	234.31
408.08	235.58
408.45	236.21
408.83	236.98
409.20	237.40
409.58	237.36
409.95	238.03
410.33	238.77
410.70	239.12
411.08	240.04
411.45	240.90
411.82	241.59
412.20	242.52
412.57	244.06
412.95	244.32
413.32	245.50
413.69	246.52
414.07	247.56
414.44	248.93
414.82	250.26
415.19	251.85
415.56	253.47
415.94	254.63
416.31	256.54
416.68	258.38
417.06	260.63
417.43	263.02
417.81	265.40
418.18	267.86
418.55	270.50
418.93	273.06
419.30	275.85
419.67	279.01
420.04	282.05
420.42	285.00
420.79	289.43
421.16	293.27
421.54	297.66
421.91	301.97
422.28	306.20
422.66	310.84
423.03	315.85
423.40	320.33
423.77	325.20
424.15	330.05
424.52	335.31
424.89	341.07
425.26	346.46
425.64	351.72
426.01	357.29
426.38	363.38
426.75	369.99
427.13	376.29
427.50	382.66
427.87	389.47
428.24	396.17
428.61	402.23
428.99	409.52
429.36	416.85
429.73	424.53
430.10	432.40
430.47	440.17
430.85	447.83
431.22	456.49
431.59	466.38
431.96	474.93
432.33	484.68
432.70	493.92
433.08	504.88
433.45	515.05
433.82	525.60
434.19	537.21
434.56	548.44
434.93	559.29
435.30	570.43
435.68	582.78
436.05	594.84
436.42	606.56
436.79	617.65
437.16	629.66
437.53	642.06
437.90	654.39
438.27	666.78
438.64	679.49
439.01	691.53
439.38	701.48
439.75	712.11
440.13	723.70
440.50	734.90
440.87	743.99
441.24	753.68
441.61	763.99
441.98	771.61
442.35	780.32
442.72	789.47
443.09	798.42
443.46	803.59
443.83	807.59
444.20	810.96
444.57	815.27
444.94	817.33
445.31	819.70
445.68	823.00
446.05	823.89
446.42	822.74
446.79	821.43
447.16	819.90
447.53	818.79
447.90	814.05
448.27	809.34
448.64	802.66
449.01	797.65
449.37	789.37
449.74	781.22
450.11	772.24
450.48	761.56
450.85	750.35
451.22	741.04
451.59	731.89
451.96	723.27
452.33	711.97
452.70	702.02
453.07	689.89
453.43	676.29
453.80	664.41
454.17	653.10
454.54	642.22
454.91	630.52
455.28	619.25
455.65	608.79
456.02	599.67
456.38	590.99
456.75	580.33
457.12	571.27
457.49	562.45
457.86	553.05
458.23	546.00
458.59	538.02
458.96	529.78
459.33	522.55
459.70	515.50
460.07	509.81
460.43	502.97
460.80	497.00
461.17	491.92
461.54	486.50
461.91	481.00
462.27	475.54
462.64	470.98
463.01	465.89
463.38	461.37
463.74	455.06
464.11	450.68
464.48	447.03
464.85	442.94
465.21	439.90
465.58	436.84
465.95	432.62
466.32	429.46
466.68	426.35
467.05	423.16
467.42	420.06
467.78	416.68
468.15	413.70
468.52	411.25
468.88	407.91
469.25	404.81
469.62	402.81
469.98	400.56
470.35	398.35
470.72	396.27
471.08	393.61
471.45	391.85
471.82	390.20
472.18	387.80
472.55	386.29
472.92	384.32
473.28	382.46
473.65	380.65
474.02	378.97
474.38	377.51
474.75	376.30
475.11	374.80
475.48	373.82
475.85	372.79
476.21	371.73
476.58	371.01
476.94	370.42
477.31	369.43
477.67	368.48
478.04	367.87
478.41	367.30
478.77	367.85
479.14	367.09
479.50	366.52
479.87	366.29
480.23	366.09
480.60	365.69
480.96	365.50
481.33	365.90
481.69	365.90
482.06	365.96
482.42	365.99
482.79	366.06
483.15	366.14
483.52	366.40
483.88	366.40
484.25	366.36
484.61	366.73
484.98	367.09
485.34	367.85
485.71	368.66
486.07	369.27
486.44	369.00
486.80	369.81
487.17	370.47
487.53	371.68
487.90	372.52
488.26	373.90
488.62	375.08
488.99	375.98
489.35	377.30
489.72	378.49
490.08	379.82
490.44	381.29
490.81	382.89
491.17	384.45
491.54	386.55
491.90	388.70
492.26	390.50
492.63	392.43
492.99	394.23
493.36	396.18
493.72	398.72
494.08	401.13
494.45	403.70
494.81	406.37
495.17	408.73
495.54	411.45
495.90	413.85
496.26	416.54
496.63	419.32
496.99	421.95
497.35	425.02
497.72	428.20
498.08	431.32
498.44	434.47
498.80	437.94
499.17	440.99
499.53	443.77
499.89	447.28
500.26	450.77
500.62	454.37
500.98	458.01
501.34	461.27
501.71	464.92
502.07	468.26
502.43	471.72
502.79	475.39
503.16	479.19
503.52	483.02
503.88	486.65
504.24	490.63
504.60	494.64
504.97	498.59
505.33	502.20
505.69	506.48
506.05	510.42
506.41	514.18
506.78	518.11
507.14	522.38
507.50	526.18
507.86	530.10
508.22	533.98
508.59	537.64
508.95	541.76
509.31	546.12
509.67	550.23
510.03	554.26
510.39	558.20
510.75	561.79
511.12	565.66
511.48	569.50
511.84	573.25
512.20	577.05
512.56	580.82
512.92	584.98
513.28	588.47
513.64	592.23
514.00	596.17
514.37	600.20
514.73	604.10
515.09	608.16
515.45	611.90
515.81	615.80
516.17	619.70
516.53	623.25
516.89	626.41
517.25	630.28
517.61	634.68
517.97	638.70
518.33	642.90
518.69	647.14
519.05	651.58
519.41	655.80
519.77	660.45
520.13	664.78
520.49	668.67
520.85	675.59
521.21	680.28
521.57	684.72
521.93	688.60
522.29	693.00
522.65	696.96
523.01	701.11
523.37	705.06
523.73	709.38
524.09	713.51
524.45	717.65
524.81	721.53
525.17	725.43
525.53	729.47
525.89	733.69
526.25	737.82
526.61	741.66
526.97	745.95
527.33	750.08
527.68	755.22
528.04	759.93
528.40	762.07
528.76	766.60
529.12	771.16
529.48	776.22
529.84	780.92
530.20	786.31
530.56	791.86
530.91	797.50
531.27	802.70
531.63	808.20
531.99	813.89
532.35	819.71
532.71	825.29
533.07	831.05
533.42	837.64
533.78	843.36
534.14	849.58
534.50	855.38
534.86	861.25
535.21	866.37
535.57	872.29
535.93	877.83
536.29	884.00
536.65	889.91
537.00	895.90
537.36	901.58
537.72	906.99
538.08	912.84
538.44	918.39
538.79	924.46
539.15	930.07
539.51	935.89
539.87	941.64
540.22	947.10
540.58	952.99
540.94	957.57
541.29	963.02
541.65	968.20
542.01	973.75
542.37	978.92
542.72	984.14
543.08	989.12
543.44	994.44
543.79	998.80
544.15	1003.93
544.51	1008.77
544.87	1014.01
545.22	1018.75
545.58	1023.17
545.94	1027.59
546.29	1032.08
546.65	1036.70
547.01	1040.70
547.36	1045.12
547.72	1049.38
548.07	1053.74
548.43	1058.15
548.79	1062.20
549.14	1066.44
549.50	1070.51
549.86	1074.38
550.21	1078.40
550.57	1082.53
550.92	1086.22
551.28	1090.13
551.64	1093.90
551.99	1097.63
552.35	1100.82
552.70	1104.62
553.06	1108.60
553.41	1112.50
553.77	1116.32
554.13	1120.11
554.48	1124.11
554.84	1127.63
555.19	1131.53
555.55	1135.63
555.90	1138.65
556.26	1141.68
556.61	1144.66
556.97	1146.84
557.32	1149.82
557.68	1152.17
558.03	1154.90
558.39	1157.73
558.74	1160.52
559.10	1162.60
559.45	1164.90
559.81	1167.57
560.16	1169.57
560.52	1171.24
560.87	1173.33
561.23	1174.70
561.58	1176.76
561.94	1177.94
562.29	1179.12
562.64	1180.43
563.00	1180.66
563.35	1181.95
563.71	1183.50
564.06	1184.90
564.42	1186.61
564.77	1188.32
565.12	1189.99
565.48	1191.93
565.83	1193.60
566.19	1194.77
566.54	1196.01
566.89	1197.15
567.25	1198.47
567.60	1200.08
567.96	1202.13
568.31	1203.52
568.66	1205.01
569.02	1205.33
569.37	1205.92
569.72	1207.15
570.08	1207.27
570.43	1207.38
570.78	1207.77
571.14	1207.71
571.49	1207.21
571.84	1207.01
572.20	1206.14
572.55	1205.77
572.90	1204.06
573.26	1202.73
573.61	1201.66
573.96	1200.57
574.31	1198.87
574.67	1197.22
575.02	1195.07
575.37	1192.83
575.72	1190.06
576.08	1187.55
576.43	1185.31
576.78	1183.45
577.13	1180.88
577.49	1179.01
577.84	1177.31
578.19	1175.50
578.54	1173.61
578.90	1171.96
579.25	1170.69
579.60	1168.56
579.95	1166.27
580.30	1164.18
580.66	1161.73
581.01	1159.26
581.36	1156.50
581.71	1154.56
582.06	1152.36
582.42	1150.22
582.77	1147.05
583.12	1144.95
583.47	1142.62
583.82	1140.78
584.17	1138.39
584.53	1136.36
584.88	1133.09
585.23	1130.36
585.58	1126.71
585.93	1123.29
586.28	1120.06
586.63	1116.02
586.98	1112.52
587.34	1109.12
587.69	1105.70
588.04	1102.64
588.39	1099.73
588.74	1096.50
589.09	1093.46
589.44	1089.40
589.79	1086.04
590.14	1083.16
590.49	1080.00
590.84	1076.74
591.19	1073.16
591.54	1069.62
591.89	1066.00
592.25	1064.32
592.60	1060.88
592.95	1058.12
593.30	1055.12
593.65	1051.58
594.00	1047.93
594.35	1047.09
594.70	1043.31
595.05	1040.13
595.40	1036.38
595.75	1032.21
596.10	1028.59
596.45	1024.79
596.80	1021.60
597.15	1017.68
597.50	1013.85
597.85	1010.36
598.19	1006.34
598.54	1002.42
598.89	998.65
599.24	995.05
599.59	990.24
599.94	986.25
600.29	982.15
600.64	978.17
600.99	974.17
601.34	970.92
601.69	964.76
602.04	961.27
602.39	957.41
602.74	954.24
603.08	950.90
603.43	947.82
603.78	943.91
604.13	940.08
604.48	936.45
604.83	932.37
605.18	928.38
605.53	924.72
605.87	920.82
606.22	917.35
606.57	913.39
606.92	909.39
607.27	905.98
607.62	902.52
607.96	898.98
608.31	895.70
608.66	892.13
609.01	888.70
609.36	885.11
609.70	881.57
610.05	877.46
610.40	873.85
610.75	869.74
611.10	866.13
611.44	862.28
611.79	858.38
612.14	855.01
612.49	851.09
612.83	847.55
613.18	844.18
613.53	840.58
613.88	836.83
614.22	833.03
614.57	828.69
614.92	824.70
615.27	820.88
615.61	817.01
615.96	812.95
616.31	808.96
616.65	805.40
617.00	801.54
617.35	797.76
617.70	793.89
618.04	790.29
618.39	786.76
618.74	783.42
619.08	779.86
619.43	776.16
619.78	772.30
620.12	768.31
620.47	764.30
620.82	760.32
621.16	756.25
621.51	753.25
621.85	749.96
622.20	746.32
622.55	742.53
622.89	739.12
623.24	735.79
623.59	732.23
623.93	728.66
624.28	725.04
624.62	722.58
624.97	719.70
625.32	716.12
625.66	712.53
626.01	708.75
626.35	705.85
626.70	702.29
627.04	699.28
627.39	695.67
627.73	692.73
628.08	689.44
628.43	686.00
628.77	682.13
629.12	678.94
629.46	676.05
629.81	673.57
630.15	670.21
630.50	666.79
630.84	663.71
631.19	660.36
631.53	657.27
631.88	653.10
632.22	649.36
632.57	646.60
632.91	643.50
633.26	640.75
633.60	637.25
633.95	634.22
634.29	630.70
634.64	627.94
634.98	624.57
635.32	621.69
635.67	619.20
636.01	616.34
636.36	613.28
636.70	610.40
637.05	607.00
637.39	604.19
637.73	601.67
638.08	598.81
638.42	595.78
638.77	592.76
639.11	589.66
639.45	586.44
639.80	583.13
640.14	580.18
640.49	577.00
640.83	574.06
641.17	571.54
641.52	569.08
641.86	566.45
642.20	564.26
642.55	561.31
642.89	558.45
643.23	555.84
643.58	553.42
643.92	550.37
644.26	547.59
644.61	544.89
644.95	541.98
645.29	539.07
645.64	536.76
645.98	534.21
646.32	531.98
646.66	529.40
647.01	527.05
647.35	524.71
647.69	522.36
648.04	520.10
648.38	517.50
648.72	514.77
649.06	512.07
649.41	508.98
649.75	506.44
650.09	504.06
650.43	501.47
650.78	498.63
651.12	496.18
651.46	493.87
651.80	491.55
652.14	489.10
652.49	487.38
652.83	484.97
653.17	482.67
653.51	480.11
653.85	478.15
654.20	475.82
654.54	473.43
654.88	471.12
655.22	469.25
655.56	466.99
655.90	464.96
656.25	462.90
656.59	460.81
656.93	458.76
657.27	456.83
657.61	454.56
657.95	452.65
658.29	450.49
658.64	448.57
658.98	446.31
659.32	444.17
659.66	441.87
660.00	439.81
660.34	438.00
660.68	435.95
661.02	433.84
661.36	431.96
661.70	429.95
662.05	427.91
662.39	425.95
662.73	424.38
663.07	422.90
663.41	421.16
663.75	419.23
664.09	417.56
664.43	415.45
664.77	414.02
665.11	412.10
665.45	410.51
665.79	408.91
666.13	407.04
666.47	405.28
666.81	403.48
667.15	401.61
667.49	399.83
667.83	398.73
668.17	397.06
668.51	395.39
668.85	394.10
669.19	393.14
669.53	391.35
669.87	389.60
670.21	387.84
670.55	386.36
670.89	385.36
671.23	383.93
671.57	382.47
671.91	381.00
672.25	379.68
672.58	378.42
672.92	376.78
673.26	375.61
673.60	374.36
673.94	372.90
674.28	371.81
674.62	370.75
674.96	369.16
675.30	368.14
675.64	366.88
675.97	365.46
676.31	363.86
676.65	362.47
676.99	361.51
677.33	360.15
677.67	358.92
678.01	357.22
678.34	355.98
678.68	355.04
679.02	353.68
679.36	352.50
679.70	351.26
680.04	350.21
680.37	349.11
680.71	347.90
681.05	347.01
681.39	345.95
681.73	344.66
682.06	343.67
682.40	342.50
682.74	341.48
683.08	340.64
683.42	339.48
683.75	338.67
684.09	337.20
684.43	336.28
684.77	335.20
685.10	334.39
685.44	333.45
685.78	332.21
686.12	331.23
686.45	330.07
686.79	328.96
687.13	328.07
687.46	327.16
687.80	326.45
688.14	325.26
688.48	324.26
688.81	323.32
689.15	322.45
689.49	321.46
689.82	320.55
690.16	319.38
690.50	318.42
690.83	317.32
691.17	316.35
691.51	315.44
691.84	314.60
692.18	313.64
692.52	312.56
692.85	311.83
693.19	311.31
693.52	310.64
693.86	309.83
694.20	308.99
694.53	308.18
694.87	307.12
695.21	306.37
695.54	305.56
695.88	304.65
696.21	303.60
696.55	302.74
696.88	301.83
697.22	300.88
697.56	300.23
697.89	299.41
698.23	298.84
698.56	298.03
698.90	297.29
699.23	296.57
699.57	296.08
699.90	295.16
700.24	294.00
700.58	293.41
700.91	292.94
701.25	292.89
701.58	292.85
701.92	292.48
702.25	291.73
702.59	290.97
702.92	290.42
703.26	289.82
703.59	289.20
703.93	289.47
704.26	289.07
704.60	288.57
704.93	287.90
705.26	287.13
705.60	286.55
705.93	285.85
706.27	285.55
706.60	285.14
706.94	285.01
707.27	284.44
707.61	283.84
707.94	283.21
708.27	281.82
708.61	280.48
708.94	279.76
709.28	279.33
709.61	278.70
709.94	278.12
710.28	277.62
710.61	277.07
710.95	275.71
711.28	275.72
711.61	275.17
711.95	274.87
712.28	274.28
712.61	273.77
712.95	273.73
713.28	273.49
713.61	272.81
713.95	272.14
714.28	271.72
714.61	271.15
714.95	270.50
715.28	269.98
715.61	269.48
715.95	269.02
716.28	268.57
716.61	268.31
716.95	267.83
717.28	267.39
717.61	267.01
717.94	266.55
718.28	265.50
718.61	265.00
718.94	264.52
719.27	264.24
719.61	263.90
719.94	263.26
720.27	262.36
720.60	261.86
720.94	261.40
721.27	261.09
721.60	260.86
721.93	260.60
722.27	260.53
722.60	260.46
722.93	260.14
723.26	259.92
723.59	259.40
723.93	259.31
724.26	259.08
724.59	258.72
724.92	258.47
725.25	258.44
725.59	258.00
725.92	257.91
726.25	257.64
726.58	257.51
726.91	257.14
727.24	256.93
727.57	256.75
727.91	256.36
728.24	256.22
728.57	255.80
728.90	255.58
729.23	255.10
729.56	255.24
729.89	254.98
730.22	254.61
730.55	254.40
730.89	254.06
731.22	253.79
731.55	253.56
731.88	253.39
732.21	252.92
732.54	252.79
732.87	252.45
733.20	252.25
733.53	251.93
733.86	251.79
734.19	251.62
734.52	251.53
734.85	252.03
735.18	251.66
735.51	251.89
735.84	251.72
736.17	251.69
736.50	250.93
736.83	251.82
737.16	251.71
737.49	251.68
737.82	251.44
738.15	251.34
738.48	251.15
738.81	250.83
739.14	250.60
739.47	250.44
739.80	250.23
740.13	250.18
740.46	249.99
740.79	249.67
741.12	249.46
741.45	249.09
741.78	248.40
742.11	248.54
742.44	248.08
742.77	248.07
743.10	247.76
743.43	247.52
743.75	246.34
744.08	247.28
744.41	247.04
744.74	246.87
745.07	246.44
745.40	246.46
745.73	246.72
746.06	246.62
746.39	246.52
746.71	246.20
747.04	245.80
747.37	245.46
747.70	245.50
748.03	245.37
748.36	245.36
748.68	245.18
749.01	244.67
749.34	244.50
749.67	244.28
750.00	244.29
750.33	244.95
750.65	244.86
750.98	243.44
751.31	243.24
751.64	243.07
751.97	243.50
752.29	243.25
752.62	242.71
752.95	242.44
753.28	242.15
753.60	242.04
753.93	242.25
754.26	242.28
754.59	241.85
754.91	241.48
755.24	241.18
755.57	241.05
755.90	240.95
756.22	240.70
756.55	240.31
756.88	240.01
757.20	239.19
757.53	238.68
757.86	238.72
758.19	238.64
758.51	238.46
758.84	237.80
759.17	237.52
759.49	237.40
759.82	237.75
760.15	237.77
760.47	237.64
760.80	237.25
761.13	237.17
761.45	237.02
761.78	236.97
762.11	236.99
762.43	236.67
762.76	236.55
763.08	236.52
763.41	236.70
763.74	236.60
764.06	236.47
764.39	236.57
764.71	236.44
765.04	236.33
765.37	236.21
765.69	236.22
766.02	236.09
766.34	235.96
766.67	235.53
767.00	235.67
767.32	236.22
767.65	236.71
767.97	236.67
768.30	236.76
768.62	236.83
768.95	236.63
769.27	236.67
769.60	236.71
769.92	236.58
770.25	236.16
770.57	235.99
770.90	235.95
771.22	235.77
771.55	235.73
771.87	235.58
772.20	235.49
772.52	236.27
772.85	237.55
773.17	237.51
773.50	237.43
773.82	237.25
774.15	236.70
774.47	236.01
774.80	235.88
775.12	235.79
775.45	235.62
775.77	235.71
776.09	235.81
776.42	235.83
776.74	236.08
777.07	236.14
777.39	236.14
777.72	235.96
778.04	236.03
778.36	235.89
778.69	235.90
779.01	236.00
779.33	235.01
779.66	233.78
779.98	233.76
780.31	233.78
780.63	234.07
780.95	234.19
781.28	234.22
781.60	234.03
781.92	233.98
782.25	234.05
782.57	233.88
782.89	233.66
783.22	233.46
783.54	233.18
783.86	233.29
784.19	233.28
784.51	233.62
784.83	233.56
785.16	233.53
785.48	233.52
785.80	233.37
786.12	233.39
786.45	233.38
786.77	233.36
787.09	233.31
787.42	232.93
787.74	232.90
788.06	232.87
788.38	232.80
788.71	232.70
789.03	232.66
789.35	232.67
789.67	232.54
789.99	232.61
790.32	232.51
790.64	232.54
790.96	233.24
791.28	232.87
791.61	232.78
791.93	232.84
792.25	232.74
792.57	233.44
792.89	233.28
793.21	233.34
793.54	233.27
793.86	233.15
794.18	233.10
794.50	232.83
794.82	232.76
795.14	232.90
795.47	233.09
795.79	232.98
796.11	232.83
796.43	232.80
796.75	232.79
797.07	232.74
797.39	232.55
797.71	231.91
798.04	231.81
798.36	231.80
798.68	231.77
799.00	231.77
799.32	231.15
799.64	231.31
799.96	231.24
800.28	231.36
800.60	231.21
800.92	231.34
801.24	231.20
801.56	231.28
801.89	231.21
802.21	231.13
802.53	230.99
802.85	231.23
803.17	231.66
803.49	231.38
803.81	231.30
804.13	231.22
804.45	231.02
804.77	231.13
805.09	231.07
805.41	230.82
805.73	230.69
806.05	230.45
806.37	230.32
806.69	230.21
807.01	229.97
807.33	230.07
807.65	229.67
807.97	230.16
808.28	230.04
808.60	229.97
808.92	229.87
809.24	230.46
809.56	230.16
809.88	229.86
810.20	230.00
810.52	230.23
810.84	230.17
811.16	230.06
811.48	229.97
811.80	230.30
812.12	230.23
812.43	230.43
812.75	230.54
813.07	230.46
813.39	230.42
813.71	230.34
814.03	230.33
814.35	230.34
814.67	229.91
814.98	229.85
815.30	229.84
815.62	229.71
815.94	229.05
816.26	229.63
816.58	229.42
816.89	229.44
817.21	229.26
817.53	229.36
817.85	229.40
818.17	229.40
818.48	229.07
818.80	229.30
819.12	229.13
819.44	228.97
819.76	228.90
820.07	228.93
820.39	228.99
820.71	228.94
