SpectraSuite Data File
++++++++++++++++++++++++++++++++++++
Date: Wed Sep 04 17:32:16 EDT 2013
User: lab3
Dark Spectrum Present: Yes
Reference Spectrum Present: No
Number of Sampled Component Spectra: 1
Spectrometers: USB2E7196
Integration Time (usec): 337000 (USB2E7196)
Spectra Averaged: 10 (USB2E7196)
Boxcar Smoothing: 10 (USB2E7196)
Correct for Electrical Dark: No (USB2E7196)
Strobe/Lamp Enabled: No (USB2E7196)
Correct for Detector Non-linearity: No (USB2E7196)
Correct for Stray Light: No (USB2E7196)
Number of Pixels in Processed Spectrum: 2048
>>>>>Begin Processed Spectral Data<<<<<
339.09	0.00
339.48	213.20
339.86	214.20
340.24	215.20
340.63	216.20
341.01	233.70
341.39	222.60
341.78	221.80
342.16	225.90
342.54	224.00
342.93	213.25
343.31	223.89
343.69	224.42
344.07	224.88
344.46	225.49
344.84	226.02
345.22	225.64
345.60	225.81
345.99	226.04
346.37	226.08
346.75	226.08
347.13	226.14
347.52	226.19
347.90	226.61
348.28	226.57
348.66	226.82
349.05	226.48
349.43	226.50
349.81	226.52
350.19	226.60
350.57	226.71
350.96	226.81
351.34	227.02
351.72	227.13
352.10	227.23
352.48	227.17
352.87	227.06
353.25	227.15
353.63	227.16
354.01	227.21
354.39	227.26
354.77	227.36
355.15	227.70
355.54	227.65
355.92	227.48
356.30	227.63
356.68	228.24
357.06	228.44
357.44	228.36
357.82	228.43
358.20	229.29
358.58	229.30
358.97	229.40
359.35	229.69
359.73	229.85
360.11	230.00
360.49	230.10
360.87	230.23
361.25	230.39
361.63	230.75
362.01	230.86
362.39	230.86
362.77	231.05
363.15	231.00
363.53	231.12
363.91	231.09
364.29	231.08
364.67	230.31
365.05	230.42
365.43	230.59
365.81	230.63
366.19	230.30
366.57	230.67
366.95	230.58
367.33	230.26
367.71	230.26
368.09	230.39
368.47	230.41
368.85	230.33
369.23	230.46
369.61	230.09
369.99	230.40
370.37	230.58
370.75	230.99
371.13	230.76
371.51	230.66
371.89	230.69
372.27	230.66
372.65	230.62
373.03	230.64
373.41	230.59
373.78	230.54
374.16	230.08
374.54	229.84
374.92	229.80
375.30	229.85
375.68	229.67
376.06	229.50
376.44	229.35
376.82	229.37
377.19	229.15
377.57	229.12
377.95	228.64
378.33	228.40
378.71	227.73
379.09	227.79
379.47	227.73
379.84	227.51
380.22	227.41
380.60	227.24
380.98	227.01
381.36	226.87
381.73	226.61
382.11	226.68
382.49	226.63
382.87	226.38
383.25	226.29
383.62	227.33
384.00	227.17
384.38	227.03
384.76	227.19
385.13	227.61
385.51	227.50
385.89	227.37
386.27	227.41
386.64	227.50
387.02	227.36
387.40	227.32
387.78	227.39
388.15	227.40
388.53	227.20
388.91	227.20
389.29	227.10
389.66	227.23
390.04	227.10
390.42	227.21
390.79	227.27
391.17	227.17
391.55	226.10
391.92	226.12
392.30	226.38
392.68	226.17
393.05	225.98
393.43	226.02
393.81	226.07
394.18	225.90
394.56	226.03
394.94	226.37
395.31	226.30
395.69	226.66
396.06	226.85
396.44	227.12
396.82	227.09
397.19	227.66
397.57	227.65
397.95	227.80
398.32	227.49
398.70	227.70
399.07	228.12
399.45	228.20
399.82	228.28
400.20	228.15
400.58	228.33
400.95	228.11
401.33	228.36
401.70	229.16
402.08	229.39
402.45	229.38
402.83	229.53
403.20	229.77
403.58	229.75
403.95	230.10
404.33	230.39
404.71	230.79
405.08	231.53
405.46	231.75
405.83	232.06
406.21	232.50
406.58	233.00
406.96	233.16
407.33	233.53
407.70	234.07
408.08	235.34
408.45	235.95
408.83	236.73
409.20	237.30
409.58	237.38
409.95	238.08
410.33	238.91
410.70	239.37
411.08	240.22
411.45	240.90
411.82	241.51
412.20	242.41
412.57	243.73
412.95	243.74
413.32	244.99
413.69	246.03
414.07	247.24
414.44	248.32
414.82	249.61
415.19	251.28
415.56	252.75
415.94	253.80
416.31	255.61
416.68	257.34
417.06	259.33
417.43	261.49
417.81	263.71
418.18	265.95
418.55	268.37
418.93	271.02
419.30	273.86
419.67	276.67
420.04	279.62
420.42	282.41
420.79	286.73
421.16	290.25
421.54	294.29
421.91	298.12
422.28	302.12
422.66	306.41
423.03	310.97
423.40	315.30
423.77	320.04
424.15	324.63
424.52	329.53
424.89	335.01
425.26	340.06
425.64	345.01
426.01	350.32
426.38	355.86
426.75	361.86
427.13	367.70
427.50	373.98
427.87	380.45
428.24	386.81
428.61	392.44
428.99	399.63
429.36	406.79
429.73	414.04
430.10	421.11
430.47	428.43
430.85	435.64
431.22	443.75
431.59	452.76
431.96	460.82
432.33	469.93
432.70	478.67
433.08	488.94
433.45	498.60
433.82	508.42
434.19	519.62
434.56	530.18
434.93	540.20
435.30	550.50
435.68	561.85
436.05	573.17
436.42	584.50
436.79	594.52
437.16	605.77
437.53	617.41
437.90	629.42
438.27	641.02
438.64	652.86
439.01	664.07
439.38	673.46
439.75	683.16
440.13	694.02
440.50	704.34
440.87	712.50
441.24	721.40
441.61	730.94
441.98	737.83
442.35	745.75
442.72	754.21
443.09	762.36
443.46	767.28
443.83	770.59
444.20	773.34
444.57	777.14
444.94	778.77
445.31	780.93
445.68	783.66
446.05	784.33
446.42	783.06
446.79	781.53
447.16	779.76
447.53	778.58
447.90	774.08
448.27	769.54
448.64	763.73
449.01	759.13
449.37	751.53
449.74	743.81
450.11	735.78
450.48	725.96
450.85	715.41
451.22	706.46
451.59	698.02
451.96	689.89
452.33	679.51
452.70	669.90
453.07	658.33
453.43	645.80
453.80	635.00
454.17	624.58
454.54	614.60
454.91	604.06
455.28	593.68
455.65	583.64
456.02	575.28
456.38	566.85
456.75	556.62
457.12	547.82
457.49	539.55
457.86	530.37
458.23	523.60
458.59	516.10
458.96	508.57
459.33	501.93
459.70	495.10
460.07	489.78
460.43	483.49
460.80	477.98
461.17	472.94
461.54	467.45
461.91	462.32
462.27	457.00
462.64	452.51
463.01	447.59
463.38	443.57
463.74	437.45
464.11	433.46
464.48	430.07
464.85	426.38
465.21	423.66
465.58	420.82
465.95	416.88
466.32	413.94
466.68	410.98
467.05	407.90
467.42	405.03
467.78	401.81
468.15	399.14
468.52	396.97
468.88	394.07
469.25	391.35
469.62	389.50
469.98	387.20
470.35	385.20
470.72	383.30
471.08	380.77
471.45	379.31
471.82	377.71
472.18	375.51
472.55	374.06
472.92	372.00
473.28	370.33
473.65	368.76
474.02	367.22
474.38	365.91
474.75	364.97
475.11	363.62
475.48	362.91
475.85	361.99
476.21	360.85
476.58	360.06
476.94	359.58
477.31	358.56
477.67	357.99
478.04	357.35
478.41	356.88
478.77	357.33
479.14	356.59
479.50	356.10
479.87	356.02
480.23	355.74
480.60	355.41
480.96	355.11
481.33	355.52
481.69	355.42
482.06	355.36
482.42	355.35
482.79	355.55
483.15	355.47
483.52	355.76
483.88	355.81
484.25	356.00
484.61	356.20
484.98	356.58
485.34	357.31
485.71	357.88
486.07	358.35
486.44	358.27
486.80	358.86
487.17	359.47
487.53	360.49
487.90	361.49
488.26	362.97
488.62	364.19
488.99	364.93
489.35	366.31
489.72	367.65
490.08	368.84
490.44	370.10
490.81	371.64
491.17	373.10
491.54	375.08
491.90	377.01
492.26	378.75
492.63	380.74
492.99	382.56
493.36	384.80
493.72	387.27
494.08	389.30
494.45	391.90
494.81	394.60
495.17	396.95
495.54	399.56
495.90	401.90
496.26	404.67
496.63	407.60
496.99	410.36
497.35	413.12
497.72	416.29
498.08	419.52
498.44	422.75
498.80	426.12
499.17	429.23
499.53	432.38
499.89	436.14
500.26	439.70
500.62	443.30
500.98	447.04
501.34	450.42
501.71	454.44
502.07	458.11
502.43	461.74
502.79	465.57
503.16	469.54
503.52	473.73
503.88	477.70
504.24	482.05
504.60	486.30
504.97	491.03
505.33	495.25
505.69	500.07
506.05	504.59
506.41	509.23
506.78	513.96
507.14	518.76
507.50	523.47
507.86	528.37
508.22	533.22
508.59	537.85
508.95	542.99
509.31	548.31
509.67	553.39
510.03	558.20
510.39	563.39
510.75	568.53
511.12	573.61
511.48	578.84
511.84	583.85
512.20	589.05
512.56	593.93
512.92	599.28
513.28	604.47
513.64	609.65
514.00	614.90
514.37	620.46
514.73	625.92
515.09	631.44
515.45	636.90
515.81	642.38
516.17	648.04
516.53	653.66
516.89	658.95
517.25	664.68
517.61	671.45
517.97	677.55
518.33	683.43
518.69	689.81
519.05	696.08
519.41	702.58
519.77	709.57
520.13	716.08
520.49	722.47
520.85	731.60
521.21	738.74
521.57	745.59
521.93	751.91
522.29	758.49
522.65	764.69
523.01	771.45
523.37	777.93
523.73	784.59
524.09	791.10
524.45	797.65
524.81	804.35
525.17	810.99
525.53	817.66
525.89	824.84
526.25	831.64
526.61	838.15
526.97	844.84
527.33	851.56
527.68	859.86
528.04	867.30
528.40	871.88
528.76	878.81
529.12	885.95
529.48	893.41
529.84	900.83
530.20	908.75
530.56	916.48
530.91	924.56
531.27	932.25
531.63	940.39
531.99	948.48
532.35	956.47
532.71	964.41
533.07	972.39
533.42	981.13
533.78	989.39
534.14	997.75
534.50	1005.98
534.86	1014.38
535.21	1021.30
535.57	1029.72
535.93	1037.20
536.29	1045.75
536.65	1054.19
537.00	1062.14
537.36	1070.35
537.72	1078.27
538.08	1086.75
538.44	1094.40
538.79	1102.61
539.15	1110.23
539.51	1118.13
539.87	1125.96
540.22	1132.80
540.58	1140.70
540.94	1146.98
541.29	1153.90
541.65	1160.89
542.01	1168.00
542.37	1174.11
542.72	1180.57
543.08	1186.25
543.44	1193.44
543.79	1198.71
544.15	1204.72
544.51	1211.67
544.87	1217.91
545.22	1223.84
545.58	1228.86
545.94	1234.51
546.29	1239.56
546.65	1244.77
547.01	1249.62
547.36	1254.48
547.72	1260.05
548.07	1264.38
548.43	1269.16
548.79	1273.83
549.14	1278.51
549.50	1282.98
549.86	1287.58
550.21	1292.13
550.57	1296.98
550.92	1300.61
551.28	1304.97
551.64	1309.33
551.99	1313.12
552.35	1316.55
552.70	1320.41
553.06	1324.09
553.41	1328.01
553.77	1332.70
554.13	1336.60
554.48	1340.74
554.84	1344.51
555.19	1347.90
555.55	1352.38
555.90	1355.42
556.26	1358.18
556.61	1360.75
556.97	1362.77
557.32	1365.40
557.68	1367.72
558.03	1370.21
558.39	1372.56
558.74	1375.05
559.10	1376.50
559.45	1377.84
559.81	1379.33
560.16	1380.49
560.52	1382.00
560.87	1383.19
561.23	1383.74
561.58	1385.59
561.94	1385.99
562.29	1386.61
562.64	1387.22
563.00	1386.53
563.35	1387.57
563.71	1388.90
564.06	1389.90
564.42	1390.88
564.77	1392.06
565.12	1393.28
565.48	1394.60
565.83	1395.47
566.19	1396.25
566.54	1396.56
566.89	1396.92
567.25	1397.80
567.60	1399.10
567.96	1400.51
568.31	1401.11
568.66	1401.38
569.02	1400.06
569.37	1400.03
569.72	1399.97
570.08	1399.34
570.43	1398.91
570.78	1397.97
571.14	1396.50
571.49	1394.93
571.84	1393.99
572.20	1392.14
572.55	1390.36
572.90	1387.40
573.26	1385.47
573.61	1383.01
573.96	1380.92
574.31	1378.27
574.67	1375.50
575.02	1372.16
575.37	1367.90
575.72	1364.41
576.08	1361.22
576.43	1358.44
576.78	1354.89
577.13	1351.36
577.49	1347.97
577.84	1344.97
578.19	1342.32
578.54	1339.41
578.90	1336.92
579.25	1333.95
579.60	1330.95
579.95	1327.59
580.30	1324.29
580.66	1320.40
581.01	1316.63
581.36	1312.64
581.71	1309.59
582.06	1306.04
582.42	1302.30
582.77	1298.77
583.12	1295.56
583.47	1291.91
583.82	1288.34
584.17	1284.87
584.53	1281.76
584.88	1278.02
585.23	1273.95
585.58	1269.15
585.93	1264.40
586.28	1259.83
586.63	1254.85
586.98	1249.89
587.34	1245.55
587.69	1241.07
588.04	1237.17
588.39	1233.05
588.74	1228.70
589.09	1224.33
589.44	1219.48
589.79	1215.27
590.14	1210.95
590.49	1206.50
590.84	1202.15
591.19	1198.08
591.54	1193.58
591.89	1188.65
592.25	1185.70
592.60	1181.53
592.95	1177.26
593.30	1172.69
593.65	1168.00
594.00	1163.35
594.35	1161.44
594.70	1156.45
595.05	1151.89
595.40	1146.81
595.75	1142.06
596.10	1137.50
596.45	1132.90
596.80	1128.69
597.15	1123.67
597.50	1119.13
597.85	1114.72
598.19	1109.68
598.54	1104.25
598.89	1099.25
599.24	1094.67
599.59	1088.80
599.94	1083.70
600.29	1079.10
600.64	1074.92
600.99	1070.40
601.34	1066.11
601.69	1059.05
602.04	1054.61
602.39	1050.34
602.74	1046.51
603.08	1042.44
603.43	1038.48
603.78	1033.97
604.13	1029.30
604.48	1024.81
604.83	1020.12
605.18	1015.04
605.53	1010.60
605.87	1006.22
606.22	1002.52
606.57	998.17
606.92	993.43
607.27	989.12
607.62	984.80
607.96	980.45
608.31	976.43
608.66	972.50
609.01	968.63
609.36	964.29
609.70	960.05
610.05	955.45
610.40	951.14
610.75	946.45
611.10	941.93
611.44	937.43
611.79	933.19
612.14	929.13
612.49	924.78
612.83	920.75
613.18	916.53
613.53	911.77
613.88	907.33
614.22	902.82
614.57	898.15
614.92	893.25
615.27	888.87
615.61	884.04
615.96	879.34
616.31	874.52
616.65	870.52
617.00	865.73
617.35	861.27
617.70	856.46
618.04	851.93
618.39	847.71
618.74	843.88
619.08	839.46
619.43	834.83
619.78	830.33
620.12	825.47
620.47	821.11
620.82	816.68
621.16	812.11
621.51	808.54
621.85	804.77
622.20	800.83
622.55	796.08
622.89	792.07
623.24	787.97
623.59	783.62
623.93	779.20
624.28	775.14
624.62	771.85
624.97	768.33
625.32	764.51
625.66	760.33
626.01	756.11
626.35	752.37
626.70	748.96
627.04	745.45
627.39	741.50
627.73	738.12
628.08	734.49
628.43	730.49
628.77	726.10
629.12	722.20
629.46	718.73
629.81	715.75
630.15	712.17
630.50	708.51
630.84	705.11
631.19	701.64
631.53	698.30
631.88	693.90
632.22	690.00
632.57	687.10
632.91	683.81
633.26	680.53
633.60	676.91
633.95	672.89
634.29	668.92
634.64	665.60
634.98	661.80
635.32	658.68
635.67	655.88
636.01	652.74
636.36	649.10
636.70	645.99
637.05	642.47
637.39	639.42
637.73	636.22
638.08	633.18
638.42	629.65
638.77	626.27
639.11	622.62
639.45	619.08
639.80	615.23
640.14	611.73
640.49	608.35
640.83	605.21
641.17	602.27
641.52	599.32
641.86	596.26
642.20	593.51
642.55	590.12
642.89	586.95
643.23	583.91
643.58	581.46
643.92	577.96
644.26	574.92
644.61	571.87
644.95	568.70
645.29	565.42
645.64	562.85
645.98	559.74
646.32	557.39
646.66	554.43
647.01	551.33
647.35	548.50
647.69	545.79
648.04	543.01
648.38	540.21
648.72	537.52
649.06	534.74
649.41	531.57
649.75	528.67
650.09	525.80
650.43	523.00
650.78	519.94
651.12	517.35
651.46	514.60
651.80	511.75
652.14	509.17
652.49	506.93
652.83	504.30
653.17	501.79
653.51	498.96
653.85	496.72
654.20	494.50
654.54	492.07
654.88	489.48
655.22	487.50
655.56	484.98
655.90	482.70
656.25	480.29
656.59	478.15
656.93	475.99
657.27	473.98
657.61	471.70
657.95	469.66
658.29	467.22
658.64	465.15
658.98	462.83
659.32	460.52
659.66	458.03
660.00	455.72
660.34	453.73
660.68	451.65
661.02	449.40
661.36	447.26
661.70	445.10
662.05	443.02
662.39	440.92
662.73	439.30
663.07	437.56
663.41	435.67
663.75	433.58
664.09	431.69
664.43	429.39
664.77	427.46
665.11	425.24
665.45	423.59
665.79	421.82
666.13	419.83
666.47	417.91
666.81	416.05
667.15	414.07
667.49	412.40
667.83	411.04
668.17	409.23
668.51	407.38
668.85	405.87
669.19	404.83
669.53	402.79
669.87	400.95
670.21	399.04
670.55	397.48
670.89	396.36
671.23	394.62
671.57	392.93
671.91	391.33
672.25	389.83
672.58	388.56
672.92	386.71
673.26	385.35
673.60	383.98
673.94	382.62
674.28	381.53
674.62	380.13
674.96	378.34
675.30	377.01
675.64	375.77
675.97	374.17
676.31	372.10
676.65	370.71
676.99	369.57
677.33	368.03
677.67	366.74
678.01	364.78
678.34	363.70
678.68	362.72
679.02	361.39
679.36	360.29
679.70	358.72
680.04	357.46
680.37	356.14
680.71	354.90
681.05	353.67
681.39	352.30
681.73	350.82
682.06	349.69
682.40	348.40
682.74	347.38
683.08	346.69
683.42	345.51
683.75	344.46
684.09	342.99
684.43	342.00
684.77	340.69
685.10	339.75
685.44	338.52
685.78	337.15
686.12	336.02
686.45	334.78
686.79	333.60
687.13	332.71
687.46	331.69
687.80	330.80
688.14	329.76
688.48	328.79
688.81	327.86
689.15	327.05
689.49	326.08
689.82	324.92
690.16	323.41
690.50	322.55
690.83	321.47
691.17	320.43
691.51	319.37
691.84	318.55
692.18	317.55
692.52	316.40
692.85	315.67
693.19	315.23
693.52	314.34
693.86	313.47
694.20	312.65
694.53	311.96
694.87	310.92
695.21	309.91
695.54	309.05
695.88	308.00
696.21	306.75
696.55	305.92
696.88	305.09
697.22	304.23
697.56	303.41
697.89	302.62
698.23	302.01
698.56	301.26
698.90	300.50
699.23	299.68
699.57	299.10
699.90	298.19
700.24	297.02
700.58	296.30
700.91	295.69
701.25	295.59
701.58	295.40
701.92	294.92
702.25	294.38
702.59	293.58
702.92	293.07
703.26	292.58
703.59	291.96
703.93	292.14
704.26	291.73
704.60	291.23
704.93	290.59
705.26	289.84
705.60	289.36
705.93	288.50
706.27	288.20
706.60	287.93
706.94	287.84
707.27	287.30
707.61	286.81
707.94	286.31
708.27	285.06
708.61	283.72
708.94	283.02
709.28	282.39
709.61	281.71
709.94	281.14
710.28	280.62
710.61	280.11
710.95	278.61
711.28	278.73
711.61	278.10
711.95	277.83
712.28	277.17
712.61	276.55
712.95	276.65
713.28	276.37
713.61	275.66
713.95	274.77
714.28	274.26
714.61	273.71
714.95	273.04
715.28	272.41
715.61	272.04
715.95	271.61
716.28	271.06
716.61	270.75
716.95	270.25
717.28	269.85
717.61	269.39
717.94	269.04
718.28	267.85
718.61	267.34
718.94	266.68
719.27	266.28
719.61	266.01
719.94	265.37
720.27	264.60
720.60	264.01
720.94	263.61
721.27	263.36
721.60	263.24
721.93	262.95
722.27	263.00
722.60	262.67
722.93	262.24
723.26	261.97
723.59	261.52
723.93	261.28
724.26	260.82
724.59	260.46
724.92	260.16
725.25	260.18
725.59	259.84
725.92	259.69
726.25	259.29
726.58	258.97
726.91	258.54
727.24	258.35
727.57	258.14
727.91	257.72
728.24	257.40
728.57	256.84
728.90	256.68
729.23	256.15
729.56	256.30
729.89	256.06
730.22	255.72
730.55	255.46
730.89	255.24
731.22	254.94
731.55	254.70
731.88	254.59
732.21	254.01
732.54	253.77
732.87	253.50
733.20	253.30
733.53	252.97
733.86	252.88
734.19	252.50
734.52	252.43
734.85	252.91
735.18	252.59
735.51	252.77
735.84	252.52
736.17	252.48
736.50	251.87
736.83	252.77
737.16	252.54
737.49	252.36
737.82	252.15
738.15	252.17
738.48	251.93
738.81	251.59
739.14	251.28
739.47	251.10
739.80	250.76
740.13	250.70
740.46	250.34
740.79	249.97
741.12	249.78
741.45	249.34
741.78	248.54
742.11	248.66
742.44	248.12
742.77	248.03
743.10	247.72
743.43	247.37
743.75	246.14
744.08	247.19
744.41	247.00
744.74	246.71
745.07	246.32
745.40	246.20
745.73	246.41
746.06	246.37
746.39	246.25
746.71	246.06
747.04	245.89
747.37	245.70
747.70	245.63
748.03	245.50
748.36	245.55
748.68	245.41
749.01	244.92
749.34	244.63
749.67	244.53
750.00	244.46
750.33	245.10
750.65	245.00
750.98	243.72
751.31	243.57
751.64	243.40
751.97	243.78
752.29	243.62
752.62	243.02
752.95	242.83
753.28	242.66
753.60	242.44
753.93	242.43
754.26	242.50
754.59	242.08
754.91	241.71
755.24	241.44
755.57	241.39
755.90	241.28
756.22	241.11
756.55	240.86
756.88	240.52
757.20	239.81
757.53	239.40
757.86	239.24
758.19	239.10
758.51	239.01
758.84	238.41
759.17	238.17
759.49	238.19
759.82	238.61
760.15	238.44
760.47	238.44
760.80	238.06
761.13	238.09
761.45	237.99
761.78	237.95
762.11	237.93
762.43	237.74
762.76	237.60
763.08	237.67
763.41	237.52
763.74	237.44
764.06	237.26
764.39	237.15
764.71	237.10
765.04	236.90
765.37	236.69
765.69	236.54
766.02	236.45
766.34	236.22
766.67	235.65
767.00	235.77
767.32	236.17
767.65	236.80
767.97	236.67
768.30	236.66
768.62	236.59
768.95	236.40
769.27	236.26
769.60	236.37
769.92	236.14
770.25	235.88
770.57	235.67
770.90	235.70
771.22	235.57
771.55	235.48
771.87	235.54
772.20	235.54
772.52	236.21
772.85	237.40
773.17	237.41
773.50	237.31
773.82	237.14
774.15	236.59
774.47	235.87
774.80	235.71
775.12	235.71
775.45	235.63
775.77	235.60
776.09	235.63
776.42	235.56
776.74	235.81
777.07	235.78
777.39	235.84
777.72	235.65
778.04	235.74
778.36	235.66
778.69	235.59
779.01	235.71
779.33	234.90
779.66	233.70
779.98	233.55
780.31	233.46
780.63	233.79
780.95	233.88
781.28	233.88
781.60	233.75
781.92	233.62
782.25	233.58
782.57	233.47
782.89	233.34
783.22	233.21
783.54	233.00
783.86	233.10
784.19	233.08
784.51	233.36
784.83	233.19
785.16	233.08
785.48	233.02
785.80	232.85
786.12	232.94
786.45	232.95
786.77	233.07
787.09	233.08
787.42	232.70
787.74	232.67
788.06	232.64
788.38	232.56
788.71	232.56
789.03	232.61
789.35	232.76
789.67	232.59
789.99	232.64
790.32	232.58
790.64	232.63
790.96	233.23
791.28	232.76
791.61	232.78
791.93	232.86
792.25	232.80
792.57	233.43
792.89	233.26
793.21	233.22
793.54	232.98
793.86	232.84
794.18	232.82
794.50	232.60
794.82	232.49
795.14	232.58
795.47	232.68
795.79	232.66
796.11	232.37
796.43	232.34
796.75	232.26
797.07	232.13
797.39	232.01
797.71	231.35
798.04	231.43
798.36	231.38
798.68	231.31
799.00	231.39
799.32	230.90
799.64	231.07
799.96	231.14
800.28	231.31
800.60	231.37
800.92	231.31
801.24	231.34
801.56	231.45
801.89	231.32
802.21	231.29
802.53	231.06
802.85	231.35
803.17	231.83
803.49	231.65
803.81	231.63
804.13	231.52
804.45	231.37
804.77	231.41
805.09	231.50
805.41	231.41
805.73	231.25
806.05	231.01
806.37	230.81
806.69	230.69
807.01	230.59
807.33	230.60
807.65	230.33
807.97	230.75
808.28	230.74
808.60	230.73
808.92	230.63
809.24	231.20
809.56	231.04
809.88	230.66
810.20	230.71
810.52	230.95
810.84	230.87
811.16	230.83
811.48	230.88
811.80	231.16
812.12	231.08
812.43	231.20
812.75	231.24
813.07	231.22
813.39	231.20
813.71	231.15
814.03	230.94
814.35	231.06
814.67	230.58
814.98	230.42
815.30	230.44
815.62	230.29
815.94	229.68
816.26	230.07
816.58	229.95
816.89	230.09
817.21	229.77
817.53	229.85
817.85	229.87
818.17	229.77
818.48	229.32
818.80	229.61
819.12	229.50
819.44	229.40
