SpectraSuite Data File
++++++++++++++++++++++++++++++++++++
Date: Wed Sep 04 17:29:20 EDT 2013
User: lab3
Dark Spectrum Present: Yes
Reference Spectrum Present: No
Number of Sampled Component Spectra: 1
Spectrometers: USB2E7196
Integration Time (usec): 337000 (USB2E7196)
Spectra Averaged: 10 (USB2E7196)
Boxcar Smoothing: 10 (USB2E7196)
Correct for Electrical Dark: No (USB2E7196)
Strobe/Lamp Enabled: No (USB2E7196)
Correct for Detector Non-linearity: No (USB2E7196)
Correct for Stray Light: No (USB2E7196)
Number of Pixels in Processed Spectrum: 2048
>>>>>Begin Processed Spectral Data<<<<<
339.09	0.00
339.48	213.70
339.86	214.70
340.24	213.80
340.63	216.90
341.01	232.10
341.39	220.00
341.78	221.70
342.16	224.40
342.54	223.50
342.93	213.03
343.31	223.72
343.69	224.20
344.07	224.58
344.46	225.27
344.84	225.73
345.22	225.45
345.60	225.79
345.99	226.13
346.37	226.29
346.75	226.39
347.13	226.52
347.52	226.55
347.90	226.91
348.28	227.07
348.66	227.30
349.05	227.20
349.43	227.40
349.81	227.52
350.19	227.58
350.57	227.68
350.96	227.78
351.34	227.95
351.72	228.12
352.10	228.32
352.48	228.26
352.87	228.18
353.25	228.28
353.63	228.22
354.01	228.15
354.39	228.16
354.77	228.23
355.15	228.51
355.54	228.44
355.92	228.21
356.30	228.27
356.68	228.82
357.06	228.81
357.44	228.64
357.82	228.71
358.20	229.55
358.58	229.58
358.97	229.58
359.35	229.91
359.73	230.13
360.11	230.12
360.49	230.18
360.87	230.35
361.25	230.47
361.63	230.88
362.01	230.91
362.39	230.92
362.77	231.04
363.15	230.98
363.53	231.00
363.91	231.18
364.29	231.16
364.67	230.44
365.05	230.52
365.43	230.69
365.81	230.80
366.19	230.39
366.57	230.69
366.95	230.69
367.33	230.33
367.71	230.31
368.09	230.50
368.47	230.44
368.85	230.45
369.23	230.63
369.61	230.35
369.99	230.69
370.37	230.83
370.75	231.27
371.13	231.10
371.51	231.09
371.89	231.01
372.27	231.00
372.65	231.01
373.03	230.94
373.41	230.82
373.78	230.74
374.16	230.31
374.54	230.01
374.92	229.96
375.30	229.92
375.68	229.67
376.06	229.66
376.44	229.63
376.82	229.54
377.19	229.38
377.57	229.23
377.95	228.85
378.33	228.72
378.71	228.05
379.09	228.12
379.47	228.04
379.84	227.83
380.22	227.76
380.60	227.40
380.98	227.41
381.36	227.44
381.73	227.27
382.11	227.30
382.49	227.29
382.87	227.06
383.25	227.02
383.62	228.17
384.00	227.92
384.38	227.95
384.76	228.20
385.13	228.43
385.51	228.40
385.89	228.33
386.27	228.35
386.64	228.52
387.02	228.47
387.40	228.48
387.78	228.55
388.15	228.51
388.53	228.60
388.91	228.42
389.29	228.17
389.66	228.30
390.04	228.31
390.42	228.55
390.79	228.61
391.17	228.62
391.55	227.50
391.92	227.53
392.30	227.67
392.68	227.36
393.05	227.35
393.43	227.30
393.81	227.38
394.18	227.27
394.56	227.27
394.94	227.47
395.31	227.43
395.69	227.79
396.06	227.96
396.44	228.19
396.82	228.27
397.19	228.93
397.57	228.88
397.95	229.01
398.32	228.70
398.70	228.94
399.07	229.24
399.45	229.30
399.82	229.43
400.20	229.44
400.58	229.69
400.95	229.52
401.33	230.00
401.70	230.82
402.08	231.00
402.45	231.26
402.83	231.75
403.20	232.10
403.58	232.15
403.95	232.58
404.33	233.00
404.71	233.50
405.08	234.26
405.46	234.78
405.83	235.30
406.21	235.97
406.58	236.54
406.96	236.99
407.33	237.72
407.70	238.51
408.08	239.96
408.45	240.77
408.83	241.73
409.20	242.44
409.58	242.75
409.95	243.93
410.33	245.07
410.70	245.77
411.08	246.98
411.45	248.33
411.82	249.43
412.20	250.87
412.57	252.80
412.95	253.60
413.32	255.34
413.69	256.99
414.07	258.77
414.44	260.82
414.82	262.95
415.19	265.35
415.56	267.80
415.94	269.98
416.31	272.96
416.68	275.99
417.06	279.41
417.43	282.88
417.81	286.54
418.18	290.39
418.55	294.51
418.93	298.94
419.30	303.47
419.67	308.36
420.04	313.32
420.42	318.27
420.79	324.96
421.16	331.00
421.54	337.72
421.91	344.29
422.28	350.87
422.66	358.18
423.03	365.83
423.40	373.34
423.77	381.21
424.15	389.12
424.52	397.46
424.89	406.83
425.26	415.74
425.64	424.30
426.01	433.78
426.38	443.79
426.75	453.81
427.13	464.21
427.50	475.12
427.87	486.19
428.24	497.48
428.61	507.80
428.99	520.06
429.36	532.38
429.73	545.16
430.10	557.95
430.47	570.98
430.85	584.22
431.22	598.59
431.59	614.36
431.96	629.19
432.33	645.51
432.70	661.10
433.08	679.47
433.45	696.89
433.82	714.20
434.19	733.84
434.56	753.29
434.93	771.81
435.30	790.20
435.68	810.89
436.05	831.21
436.42	851.36
436.79	869.99
437.16	890.81
437.53	912.06
437.90	933.70
438.27	954.89
438.64	977.03
439.01	997.83
439.38	1016.12
439.75	1034.15
440.13	1054.49
440.50	1073.94
440.87	1089.86
441.24	1106.60
441.61	1124.78
441.98	1138.08
442.35	1153.53
442.72	1169.23
443.09	1184.95
443.46	1194.95
443.83	1202.27
444.20	1208.54
444.57	1216.94
444.94	1221.05
445.31	1225.88
445.68	1230.56
446.05	1232.76
446.42	1231.13
446.79	1229.44
447.16	1227.42
447.53	1226.26
447.90	1219.12
448.27	1211.88
448.64	1201.99
449.01	1194.70
449.37	1181.56
449.74	1168.42
450.11	1153.02
450.48	1135.49
450.85	1117.43
451.22	1101.86
451.59	1087.13
451.96	1073.19
452.33	1054.51
452.70	1037.57
453.07	1017.16
453.43	996.19
453.80	976.61
454.17	957.87
454.54	939.62
454.91	920.05
455.28	901.08
455.65	883.46
456.02	866.62
456.38	851.34
456.75	832.62
457.12	816.89
457.49	801.94
457.86	786.89
458.23	774.78
458.59	760.98
458.96	747.42
459.33	735.03
459.70	722.78
460.07	712.83
460.43	701.75
460.80	691.52
461.17	682.40
461.54	672.84
461.91	663.56
462.27	654.25
462.64	646.57
463.01	637.75
463.38	629.67
463.74	620.38
464.11	613.34
464.48	607.07
464.85	600.01
465.21	594.88
465.58	589.55
465.95	582.64
466.32	577.48
466.68	571.89
467.05	566.50
467.42	561.20
467.78	555.61
468.15	550.29
468.52	546.35
468.88	540.95
469.25	536.21
469.62	532.70
469.98	528.84
470.35	524.97
470.72	521.37
471.08	517.15
471.45	514.11
471.82	510.74
472.18	507.05
472.55	504.88
472.92	501.66
473.28	498.78
473.65	496.20
474.02	493.47
474.38	491.49
474.75	489.51
475.11	487.30
475.48	485.76
475.85	484.34
476.21	482.90
476.58	481.81
476.94	481.03
477.31	479.75
477.67	478.72
478.04	477.93
478.41	477.70
478.77	478.30
479.14	477.59
479.50	477.40
479.87	477.65
480.23	477.58
480.60	477.40
480.96	477.34
481.33	478.00
481.69	478.53
482.06	478.80
482.42	479.25
482.79	479.91
483.15	480.77
483.52	481.88
483.88	482.82
484.25	483.64
484.61	484.86
484.98	486.40
485.34	488.31
485.71	490.18
486.07	491.93
486.44	493.30
486.80	495.61
487.17	497.72
487.53	500.50
487.90	503.13
488.26	506.53
488.62	509.82
488.99	512.80
489.35	516.14
489.72	519.77
490.08	523.61
490.44	527.45
490.81	531.66
491.17	535.60
491.54	540.09
491.90	545.09
492.26	550.02
492.63	554.92
492.99	559.74
493.36	565.04
493.72	570.82
494.08	576.46
494.45	582.56
494.81	589.10
495.17	595.37
495.54	601.80
495.90	608.12
496.26	614.89
496.63	621.87
496.99	629.00
497.35	636.29
497.72	643.91
498.08	651.60
498.44	659.63
498.80	668.29
499.17	676.44
499.53	684.64
499.89	693.38
500.26	702.28
500.62	710.93
500.98	720.29
501.34	729.12
501.71	738.36
502.07	747.33
502.43	756.66
502.79	765.66
503.16	775.50
503.52	785.30
503.88	794.85
504.24	804.95
504.60	815.26
504.97	825.91
505.33	836.11
505.69	847.32
506.05	857.40
506.41	867.42
506.78	877.92
507.14	888.75
507.50	899.30
507.86	910.00
508.22	920.92
508.59	931.22
508.95	942.09
509.31	953.29
509.67	964.26
510.03	974.63
510.39	985.44
510.75	995.94
511.12	1006.35
511.48	1016.95
511.84	1027.09
512.20	1037.09
512.56	1047.00
512.92	1057.19
513.28	1066.72
513.64	1076.50
514.00	1086.60
514.37	1096.33
514.73	1106.07
515.09	1115.33
515.45	1123.98
515.81	1132.82
516.17	1141.98
516.53	1150.52
516.89	1158.38
517.25	1166.75
517.61	1175.67
517.97	1184.32
518.33	1192.42
518.69	1201.16
519.05	1209.49
519.41	1217.70
519.77	1225.87
520.13	1233.43
520.49	1240.61
520.85	1247.76
521.21	1255.38
521.57	1262.70
521.93	1269.16
522.29	1275.74
522.65	1281.78
523.01	1288.18
523.37	1294.18
523.73	1300.00
524.09	1305.44
524.45	1310.92
524.81	1316.20
525.17	1321.37
525.53	1326.18
525.89	1331.41
526.25	1335.73
526.61	1340.14
526.97	1344.53
527.33	1349.22
527.68	1354.70
528.04	1359.39
528.40	1364.03
528.76	1368.52
529.12	1372.30
529.48	1376.91
529.84	1380.77
530.20	1385.34
530.56	1390.04
530.91	1394.46
531.27	1398.28
531.63	1402.83
531.99	1407.41
532.35	1411.55
532.71	1415.37
533.07	1419.80
533.42	1423.24
533.78	1427.14
534.14	1430.67
534.50	1434.55
534.86	1438.27
535.21	1440.34
535.57	1443.84
535.93	1446.50
536.29	1449.52
536.65	1453.05
537.00	1455.99
537.36	1459.46
537.72	1461.99
538.08	1464.87
538.44	1467.72
538.79	1470.92
539.15	1473.34
539.51	1475.71
539.87	1478.22
540.22	1479.80
540.58	1481.61
540.94	1483.51
541.29	1485.09
541.65	1486.90
542.01	1488.62
542.37	1489.50
542.72	1490.66
543.08	1491.28
543.44	1492.83
543.79	1492.80
544.15	1492.90
544.51	1493.89
544.87	1493.72
545.22	1493.58
545.58	1493.41
545.94	1492.75
546.29	1491.87
546.65	1491.19
547.01	1490.22
547.36	1489.68
547.72	1489.49
548.07	1488.00
548.43	1487.14
548.79	1486.35
549.14	1485.33
549.50	1484.19
549.86	1483.26
550.21	1482.63
550.57	1482.18
550.92	1480.44
551.28	1479.74
551.64	1479.20
551.99	1478.26
552.35	1477.49
552.70	1477.20
553.06	1476.65
553.41	1476.22
553.77	1476.20
554.13	1476.06
554.48	1476.02
554.84	1475.42
555.19	1474.89
555.55	1475.99
555.90	1474.98
556.26	1473.56
556.61	1472.41
556.97	1470.83
557.32	1469.69
557.68	1468.77
558.03	1467.74
558.39	1467.32
558.74	1466.80
559.10	1465.28
559.45	1463.36
559.81	1461.64
560.16	1459.88
560.52	1457.65
560.87	1456.30
561.23	1453.97
561.58	1452.87
561.94	1450.33
562.29	1447.89
562.64	1445.88
563.00	1442.51
563.35	1441.18
563.71	1440.01
564.06	1438.51
564.42	1437.04
564.77	1435.43
565.12	1433.91
565.48	1432.97
565.83	1431.44
566.19	1429.63
566.54	1428.16
566.89	1426.86
567.25	1425.80
567.60	1425.05
567.96	1424.56
568.31	1423.41
568.66	1422.32
569.02	1419.46
569.37	1417.85
569.72	1416.57
570.08	1414.66
570.43	1412.59
570.78	1410.40
571.14	1408.40
571.49	1406.08
571.84	1404.12
572.20	1401.98
572.55	1399.45
572.90	1395.89
573.26	1392.68
573.61	1389.55
573.96	1386.50
574.31	1382.90
574.67	1379.21
575.02	1374.95
575.37	1370.32
575.72	1365.61
576.08	1361.79
576.43	1358.10
576.78	1354.54
577.13	1350.23
577.49	1346.71
577.84	1343.94
578.19	1340.21
578.54	1336.67
578.90	1333.65
579.25	1330.23
579.60	1326.47
579.95	1322.21
580.30	1318.50
580.66	1314.45
581.01	1310.38
581.36	1305.68
581.71	1302.15
582.06	1298.49
582.42	1294.69
582.77	1290.94
583.12	1287.83
583.47	1283.82
583.82	1280.40
584.17	1276.46
584.53	1273.40
584.88	1268.36
585.23	1263.83
585.58	1259.61
585.93	1254.81
586.28	1249.88
586.63	1244.36
586.98	1239.37
587.34	1235.23
587.69	1230.44
588.04	1226.59
588.39	1222.55
588.74	1218.55
589.09	1214.63
589.44	1209.91
589.79	1205.63
590.14	1201.81
590.49	1197.03
590.84	1192.68
591.19	1188.73
591.54	1184.58
591.89	1179.69
592.25	1177.54
592.60	1173.34
592.95	1168.99
593.30	1164.63
593.65	1160.09
594.00	1155.82
594.35	1154.05
594.70	1149.00
595.05	1144.84
595.40	1139.88
595.75	1134.90
596.10	1130.94
596.45	1125.89
596.80	1121.53
597.15	1117.17
597.50	1112.44
597.85	1108.45
598.19	1103.97
598.54	1098.89
598.89	1093.84
599.24	1089.58
599.59	1083.68
599.94	1078.76
600.29	1074.36
600.64	1070.08
600.99	1065.52
601.34	1061.78
601.69	1054.83
602.04	1050.80
602.39	1046.01
602.74	1042.25
603.08	1038.29
603.43	1034.01
603.78	1030.03
604.13	1025.86
604.48	1021.36
604.83	1016.70
605.18	1011.92
605.53	1007.45
605.87	1003.07
606.22	999.65
606.57	995.38
606.92	990.95
607.27	987.16
607.62	983.21
607.96	979.40
608.31	975.78
608.66	971.76
609.01	968.02
609.36	964.03
609.70	960.39
610.05	955.72
610.40	951.62
610.75	946.87
611.10	942.77
611.44	938.08
611.79	933.90
612.14	929.67
612.49	925.29
612.83	921.23
613.18	917.21
613.53	912.60
613.88	908.05
614.22	903.75
614.57	898.74
614.92	893.69
615.27	888.97
615.61	884.30
615.96	879.64
616.31	874.90
616.65	870.59
617.00	865.91
617.35	861.65
617.70	856.84
618.04	852.62
618.39	848.13
618.74	844.35
619.08	839.81
619.43	835.59
619.78	831.17
620.12	826.60
620.47	822.02
620.82	817.47
621.16	813.23
621.51	809.62
621.85	805.62
622.20	801.83
622.55	797.19
622.89	792.85
623.24	788.85
623.59	784.52
623.93	780.35
624.28	776.14
624.62	772.95
624.97	769.71
625.32	765.72
625.66	761.70
626.01	757.24
626.35	753.75
626.70	749.75
627.04	746.51
627.39	742.47
627.73	738.98
628.08	735.23
628.43	731.04
628.77	726.70
629.12	722.86
629.46	719.41
629.81	716.46
630.15	712.94
630.50	708.98
630.84	705.44
631.19	701.93
631.53	698.62
631.88	694.17
632.22	690.00
632.57	686.82
632.91	683.20
633.26	680.08
633.60	676.25
633.95	672.59
634.29	668.57
634.64	665.11
634.98	661.10
635.32	657.74
635.67	654.81
636.01	651.54
636.36	648.06
636.70	644.91
637.05	641.19
637.39	637.87
637.73	634.48
638.08	631.43
638.42	627.91
638.77	624.41
639.11	620.90
639.45	617.37
639.80	613.54
640.14	609.87
640.49	606.31
640.83	603.11
641.17	600.26
641.52	596.93
641.86	594.06
642.20	591.64
642.55	588.54
642.89	585.49
643.23	582.47
643.58	580.12
643.92	576.51
644.26	573.63
644.61	570.99
644.95	568.07
645.29	564.94
645.64	562.24
645.98	559.41
646.32	556.79
646.66	554.05
647.01	551.35
647.35	548.95
647.69	546.42
648.04	543.78
648.38	541.17
648.72	538.59
649.06	535.59
649.41	532.42
649.75	529.42
650.09	526.68
650.43	523.72
650.78	520.53
651.12	517.91
651.46	515.18
651.80	512.26
652.14	509.87
652.49	507.45
652.83	504.52
653.17	501.97
653.51	498.94
653.85	496.55
654.20	494.07
654.54	491.31
654.88	488.67
655.22	486.53
655.56	483.88
655.90	481.61
656.25	479.40
656.59	477.18
656.93	475.10
657.27	473.13
657.61	470.81
657.95	468.72
658.29	466.44
658.64	464.38
658.98	462.11
659.32	459.60
659.66	457.42
660.00	455.43
660.34	453.15
660.68	451.32
661.02	449.12
661.36	447.02
661.70	444.98
662.05	442.93
662.39	440.70
662.73	438.98
663.07	437.31
663.41	435.40
663.75	433.24
664.09	431.20
664.43	428.78
664.77	427.07
665.11	424.93
665.45	423.21
665.79	421.20
666.13	419.18
666.47	417.32
666.81	415.21
667.15	413.18
667.49	411.53
667.83	410.18
668.17	408.44
668.51	406.74
668.85	405.19
669.19	404.09
669.53	402.22
669.87	400.35
670.21	398.45
670.55	396.70
670.89	395.47
671.23	393.94
671.57	392.15
671.91	390.49
672.25	389.01
672.58	387.51
672.92	385.81
673.26	384.29
673.60	383.07
673.94	381.57
674.28	380.36
674.62	378.99
674.96	377.19
675.30	375.71
675.64	374.28
675.97	372.77
676.31	370.92
676.65	369.44
676.99	368.40
677.33	366.90
677.67	365.70
678.01	364.03
678.34	362.66
678.68	361.78
679.02	360.34
679.36	359.00
679.70	357.61
680.04	356.53
680.37	355.54
680.71	354.09
681.05	353.23
681.39	351.93
681.73	350.74
682.06	349.60
682.40	348.50
682.74	347.48
683.08	346.68
683.42	345.41
683.75	344.56
684.09	343.08
684.43	341.96
684.77	340.80
685.10	339.73
685.44	338.73
685.78	337.51
686.12	336.52
686.45	335.37
686.79	334.33
687.13	333.44
687.46	332.38
687.80	331.60
688.14	330.44
688.48	329.44
688.81	328.39
689.15	327.69
689.49	326.65
689.82	325.67
690.16	324.31
690.50	323.54
690.83	322.36
691.17	321.27
691.51	320.35
691.84	319.49
692.18	318.60
692.52	317.46
692.85	316.71
693.19	316.16
693.52	315.43
693.86	314.48
694.20	313.60
694.53	312.80
694.87	311.74
695.21	310.76
695.54	310.03
695.88	309.10
696.21	307.88
696.55	307.15
696.88	306.13
697.22	305.29
697.56	304.40
697.89	303.65
698.23	302.95
698.56	302.08
698.90	301.28
699.23	300.31
699.57	299.70
699.90	298.64
700.24	297.63
700.58	296.93
700.91	296.34
701.25	296.19
701.58	296.08
701.92	295.77
702.25	295.21
702.59	294.57
702.92	294.00
703.26	293.51
703.59	292.89
703.93	293.02
704.26	292.51
704.60	292.00
704.93	291.30
705.26	290.64
705.60	290.18
705.93	289.35
706.27	289.06
706.60	288.71
706.94	288.55
707.27	287.93
707.61	287.31
707.94	286.71
708.27	285.43
708.61	284.09
708.94	283.18
709.28	282.53
709.61	281.72
709.94	281.12
710.28	280.48
710.61	279.83
710.95	278.42
711.28	278.37
711.61	277.72
711.95	277.40
712.28	276.81
712.61	276.29
712.95	276.36
713.28	276.14
713.61	275.34
713.95	274.53
714.28	274.10
714.61	273.53
714.95	272.80
715.28	272.13
715.61	271.60
715.95	271.09
716.28	270.50
716.61	270.20
716.95	269.61
717.28	269.09
717.61	268.51
717.94	268.12
718.28	267.08
718.61	266.62
718.94	265.89
719.27	265.37
719.61	264.98
719.94	264.31
720.27	263.54
720.60	263.19
720.94	262.91
721.27	262.49
721.60	262.33
721.93	262.02
722.27	262.04
722.60	261.80
722.93	261.38
723.26	261.16
723.59	260.69
723.93	260.46
724.26	260.22
724.59	260.00
724.92	259.77
725.25	259.66
725.59	259.30
725.92	259.22
726.25	258.99
726.58	258.75
726.91	258.32
727.24	258.01
727.57	257.61
727.91	257.14
728.24	256.95
728.57	256.47
728.90	256.40
729.23	255.82
729.56	256.06
729.89	255.88
730.22	255.64
730.55	255.39
730.89	255.11
731.22	254.83
731.55	254.61
731.88	254.52
732.21	254.22
732.54	253.96
732.87	253.70
733.20	253.55
733.53	253.33
733.86	253.12
734.19	252.84
734.52	252.72
734.85	253.22
735.18	252.87
735.51	253.03
735.84	252.82
736.17	252.85
736.50	252.07
736.83	253.03
737.16	252.77
737.49	252.67
737.82	252.49
738.15	252.46
738.48	252.22
738.81	251.88
739.14	251.51
739.47	251.33
739.80	251.15
740.13	251.11
740.46	250.79
740.79	250.47
741.12	250.30
741.45	250.05
741.78	249.18
742.11	249.21
742.44	248.80
742.77	248.80
743.10	248.40
743.43	248.29
743.75	247.05
744.08	248.05
744.41	247.64
744.74	247.46
745.07	247.00
745.40	246.99
745.73	247.28
746.06	247.09
746.39	246.98
746.71	246.71
747.04	246.22
747.37	245.90
747.70	246.02
748.03	245.97
748.36	245.96
748.68	245.88
749.01	245.47
749.34	245.33
749.67	245.05
750.00	245.10
750.33	245.66
750.65	245.67
750.98	244.35
751.31	244.35
751.64	244.18
751.97	244.60
752.29	244.43
752.62	243.72
752.95	243.60
753.28	243.35
753.60	243.17
753.93	243.46
754.26	243.53
754.59	243.01
754.91	242.74
755.24	242.45
755.57	242.31
755.90	242.20
756.22	241.99
756.55	241.73
756.88	241.39
757.20	240.54
757.53	240.11
757.86	240.00
758.19	239.85
758.51	239.71
758.84	239.09
759.17	238.87
759.49	238.97
759.82	239.32
760.15	239.32
760.47	239.26
760.80	238.77
761.13	238.76
761.45	238.59
761.78	238.55
762.11	238.58
762.43	238.38
762.76	238.28
763.08	238.23
763.41	238.22
763.74	238.15
764.06	238.04
764.39	238.00
764.71	237.82
765.04	237.67
765.37	237.46
765.69	237.32
766.02	237.18
766.34	236.83
766.67	236.40
767.00	236.45
767.32	236.83
767.65	237.41
767.97	237.24
768.30	237.32
768.62	237.15
768.95	236.97
769.27	236.89
769.60	236.86
769.92	236.66
770.25	236.39
770.57	236.19
770.90	236.14
771.22	235.88
771.55	235.84
771.87	235.78
772.20	235.75
772.52	236.48
772.85	237.58
773.17	237.59
773.50	237.45
773.82	237.30
774.15	236.85
774.47	236.14
774.80	235.98
775.12	235.93
775.45	235.91
775.77	235.87
776.09	235.97
776.42	235.93
776.74	236.19
777.07	236.10
777.39	236.12
777.72	236.00
778.04	236.17
778.36	236.18
778.69	236.25
779.01	236.23
779.33	235.37
779.66	234.20
779.98	234.15
780.31	234.13
780.63	234.49
780.95	234.47
781.28	234.45
781.60	234.30
781.92	234.20
782.25	234.14
782.57	234.03
782.89	233.77
783.22	233.74
783.54	233.40
783.86	233.48
784.19	233.46
784.51	233.70
784.83	233.50
785.16	233.27
785.48	233.20
785.80	233.19
786.12	233.28
786.45	233.19
786.77	233.24
787.09	233.14
787.42	232.73
787.74	232.70
788.06	232.70
788.38	232.64
788.71	232.52
789.03	232.41
789.35	232.49
789.67	232.44
789.99	232.35
790.32	232.25
790.64	232.38
790.96	233.12
791.28	232.70
791.61	232.61
791.93	232.59
792.25	232.50
792.57	233.17
792.89	232.98
793.21	233.02
793.54	232.83
793.86	232.69
794.18	232.62
794.50	232.43
794.82	232.34
795.14	232.41
795.47	232.63
795.79	232.62
796.11	232.48
796.43	232.42
796.75	232.41
797.07	232.47
797.39	232.24
797.71	231.47
798.04	231.54
798.36	231.60
798.68	231.64
799.00	231.70
799.32	231.08
799.64	231.22
799.96	231.23
800.28	231.41
800.60	231.39
800.92	231.43
801.24	231.47
801.56	231.55
801.89	231.54
802.21	231.60
802.53	231.48
802.85	231.70
803.17	232.05
803.49	231.88
803.81	231.76
804.13	231.72
804.45	231.62
804.77	231.65
805.09	231.71
805.41	231.51
805.73	231.30
806.05	231.11
806.37	231.00
806.69	230.90
807.01	230.78
807.33	230.87
807.65	230.55
807.97	230.94
808.28	230.82
808.60	230.75
808.92	230.52
809.24	231.15
809.56	230.88
809.88	230.66
810.20	230.65
810.52	230.77
810.84	230.67
811.16	230.56
811.48	230.50
811.80	230.80
812.12	230.87
812.43	231.10
812.75	231.25
813.07	231.11
813.39	231.13
813.71	230.96
814.03	230.79
814.35	230.81
814.67	230.36
814.98	230.30
815.30	230.27
815.62	230.19
815.94	229.50
816.26	229.93
816.58	229.66
816.89	229.84
817.21	229.70
