SpectraSuite Data File
++++++++++++++++++++++++++++++++++++
Date: Wed Sep 04 17:31:20 EDT 2013
User: lab3
Dark Spectrum Present: Yes
Reference Spectrum Present: No
Number of Sampled Component Spectra: 1
Spectrometers: USB2E7196
Integration Time (usec): 337000 (USB2E7196)
Spectra Averaged: 10 (USB2E7196)
Boxcar Smoothing: 10 (USB2E7196)
Correct for Electrical Dark: No (USB2E7196)
Strobe/Lamp Enabled: No (USB2E7196)
Correct for Detector Non-linearity: No (USB2E7196)
Correct for Stray Light: No (USB2E7196)
Number of Pixels in Processed Spectrum: 2048
>>>>>Begin Processed Spectral Data<<<<<
339.09	0.00
339.48	212.40
339.86	213.20
340.24	214.20
340.63	216.80
341.01	233.60
341.39	220.20
341.78	224.70
342.16	225.70
342.54	223.50
342.93	213.06
343.31	223.76
343.69	224.38
344.07	224.87
344.46	225.54
344.84	226.07
345.22	225.65
345.60	226.03
345.99	226.06
346.37	226.10
346.75	226.16
347.13	226.24
347.52	226.14
347.90	226.58
348.28	226.58
348.66	226.90
349.05	226.66
349.43	226.79
349.81	226.76
350.19	226.80
350.57	226.92
350.96	227.11
351.34	227.26
351.72	227.30
352.10	227.36
352.48	227.32
352.87	227.23
353.25	227.36
353.63	227.31
354.01	227.38
354.39	227.44
354.77	227.52
355.15	227.77
355.54	227.79
355.92	227.50
356.30	227.58
356.68	228.18
357.06	228.30
357.44	228.12
357.82	228.09
358.20	228.92
358.58	228.97
358.97	228.91
359.35	229.07
359.73	229.28
360.11	229.31
360.49	229.34
360.87	229.41
361.25	229.52
361.63	229.80
362.01	229.83
362.39	229.90
362.77	230.04
363.15	230.03
363.53	230.07
363.91	230.19
364.29	230.24
364.67	229.33
365.05	229.32
365.43	229.47
365.81	229.74
366.19	229.43
366.57	229.78
366.95	229.83
367.33	229.66
367.71	229.69
368.09	229.94
368.47	229.88
368.85	229.85
369.23	230.05
369.61	229.72
369.99	230.15
370.37	230.24
370.75	230.70
371.13	230.50
371.51	230.37
371.89	230.46
372.27	230.46
372.65	230.61
373.03	230.72
373.41	230.64
373.78	230.55
374.16	230.05
374.54	229.69
374.92	229.60
375.30	229.63
375.68	229.42
376.06	229.41
376.44	229.36
376.82	229.32
377.19	229.14
377.57	229.11
377.95	228.69
378.33	228.47
378.71	227.81
379.09	227.90
379.47	227.95
379.84	227.74
380.22	227.58
380.60	227.32
380.98	227.09
381.36	227.14
381.73	226.84
382.11	226.93
382.49	227.02
382.87	226.79
383.25	226.71
383.62	227.74
384.00	227.43
384.38	227.43
384.76	227.65
385.13	228.05
385.51	227.94
385.89	227.82
386.27	227.75
386.64	227.82
387.02	227.64
387.40	227.53
387.78	227.57
388.15	227.57
388.53	227.54
388.91	227.50
389.29	227.26
389.66	227.47
390.04	227.40
390.42	227.33
390.79	227.40
391.17	227.41
391.55	226.30
391.92	226.44
392.30	226.48
392.68	226.30
393.05	226.05
393.43	226.20
393.81	226.32
394.18	226.33
394.56	226.36
394.94	226.61
395.31	226.51
395.69	226.91
396.06	227.14
396.44	227.30
396.82	227.41
397.19	228.05
397.57	228.01
397.95	228.08
398.32	227.99
398.70	228.23
399.07	228.44
399.45	228.53
399.82	228.60
400.20	228.66
400.58	228.71
400.95	228.60
401.33	228.79
401.70	229.50
402.08	229.56
402.45	229.75
402.83	230.14
403.20	230.39
403.58	230.28
403.95	230.56
404.33	230.89
404.71	231.24
405.08	231.92
405.46	232.30
405.83	232.81
406.21	233.17
406.58	233.50
406.96	233.77
407.33	234.28
407.70	234.74
408.08	236.02
408.45	236.72
408.83	237.38
409.20	237.99
409.58	238.00
409.95	238.90
410.33	239.64
410.70	239.94
411.08	240.92
411.45	241.84
411.82	242.70
412.20	243.74
412.57	245.18
412.95	245.38
413.32	246.60
413.69	247.61
414.07	248.97
414.44	250.38
414.82	251.89
415.19	253.63
415.56	255.30
415.94	256.47
416.31	258.46
416.68	260.51
417.06	262.77
417.43	265.18
417.81	267.74
418.18	270.32
418.55	273.22
418.93	276.10
419.30	279.20
419.67	282.31
420.04	285.67
420.42	288.81
420.79	293.50
421.16	297.54
421.54	302.32
421.91	306.84
422.28	311.36
422.66	316.12
423.03	321.34
423.40	326.17
423.77	331.36
424.15	336.60
424.52	342.23
424.89	348.46
425.26	354.30
425.64	359.91
426.01	366.18
426.38	372.68
426.75	379.50
427.13	386.20
427.50	393.38
427.87	400.61
428.24	408.05
428.61	414.75
428.99	422.74
429.36	430.70
429.73	439.02
430.10	447.39
430.47	456.05
430.85	464.34
431.22	474.06
431.59	484.61
431.96	494.25
432.33	504.98
432.70	515.05
433.08	527.30
433.45	538.72
433.82	550.29
434.19	562.91
434.56	575.57
434.93	587.50
435.30	599.40
435.68	612.85
436.05	626.02
436.42	639.14
436.79	651.17
437.16	664.56
437.53	678.38
437.90	692.13
438.27	705.93
438.64	720.10
439.01	733.15
439.38	744.53
439.75	756.11
440.13	768.70
440.50	780.91
440.87	790.59
441.24	800.80
441.61	811.97
441.98	820.55
442.35	830.13
442.72	840.26
443.09	850.14
443.46	856.00
443.83	860.22
444.20	863.90
444.57	868.90
444.94	871.15
445.31	873.65
445.68	876.93
446.05	877.66
446.42	876.38
446.79	875.25
447.16	873.47
447.53	872.28
447.90	867.36
448.27	862.48
448.64	855.68
449.01	850.71
449.37	841.75
449.74	832.89
450.11	823.12
450.48	811.51
450.85	799.42
451.22	789.50
451.59	779.89
451.96	770.55
452.33	758.18
452.70	747.14
453.07	733.88
453.43	719.44
453.80	706.86
454.17	694.64
454.54	682.64
454.91	670.16
455.28	657.63
455.65	646.33
456.02	636.17
456.38	626.45
456.75	614.66
457.12	604.78
457.49	595.16
457.86	584.89
458.23	577.04
458.59	568.13
458.96	559.07
459.33	551.10
459.70	543.04
460.07	536.96
460.43	529.62
460.80	522.98
461.17	517.44
461.54	510.96
461.91	505.10
462.27	499.12
462.64	493.94
463.01	488.64
463.38	483.45
463.74	476.75
464.11	472.08
464.48	467.95
464.85	463.32
465.21	460.00
465.58	456.60
465.95	452.06
466.32	448.82
466.68	445.31
467.05	441.76
467.42	438.53
467.78	434.82
468.15	431.51
468.52	428.94
468.88	425.17
469.25	422.19
469.62	419.93
469.98	417.28
470.35	414.94
470.72	412.47
471.08	409.64
471.45	407.72
471.82	405.73
472.18	403.32
472.55	401.64
472.92	399.40
473.28	397.48
473.65	395.77
474.02	393.98
474.38	392.72
474.75	391.55
475.11	389.88
475.48	388.79
475.85	387.71
476.21	386.52
476.58	385.82
476.94	385.19
477.31	384.08
477.67	383.26
478.04	382.60
478.41	382.12
478.77	382.73
479.14	382.00
479.50	381.65
479.87	381.58
480.23	381.38
480.60	381.06
480.96	380.73
481.33	380.90
481.69	380.88
482.06	380.78
482.42	380.82
482.79	381.01
483.15	381.13
483.52	381.67
483.88	382.11
484.25	382.39
484.61	382.87
484.98	383.26
485.34	384.33
485.71	385.02
486.07	385.80
486.44	385.70
486.80	386.68
487.17	387.52
487.53	388.75
487.90	390.04
488.26	391.80
488.62	393.43
488.99	394.70
489.35	396.15
489.72	397.63
490.08	399.28
490.44	400.90
490.81	402.78
491.17	404.24
491.54	406.09
491.90	408.25
492.26	410.34
492.63	412.75
492.99	414.69
493.36	417.13
493.72	419.84
494.08	422.48
494.45	425.23
494.81	428.09
495.17	430.86
495.54	433.78
495.90	436.49
496.26	439.57
496.63	442.80
496.99	446.14
497.35	449.39
497.72	452.70
498.08	456.16
498.44	459.47
498.80	463.22
499.17	466.65
499.53	469.99
499.89	473.66
500.26	477.19
500.62	480.89
500.98	484.80
501.34	488.23
501.71	492.07
502.07	495.84
502.43	499.41
502.79	503.14
503.16	506.90
503.52	510.68
503.88	514.35
504.24	518.23
504.60	522.05
504.97	526.27
505.33	530.00
505.69	534.31
506.05	538.40
506.41	542.33
506.78	546.34
507.14	550.42
507.50	554.50
507.86	558.52
508.22	562.47
508.59	565.89
508.95	570.01
509.31	574.24
509.67	578.00
510.03	581.77
510.39	585.32
510.75	589.05
511.12	592.74
511.48	596.21
511.84	599.48
512.20	602.84
512.56	606.19
512.92	609.79
513.28	613.12
513.64	616.40
514.00	619.82
514.37	623.39
514.73	626.87
515.09	630.08
515.45	633.27
515.81	636.50
516.17	639.93
516.53	642.81
516.89	645.45
517.25	648.60
517.61	652.08
517.97	655.30
518.33	658.62
518.69	661.82
519.05	665.31
519.41	668.69
519.77	672.58
520.13	675.60
520.49	678.54
520.85	684.36
521.21	687.95
521.57	691.11
521.93	693.72
522.29	696.42
522.65	699.29
523.01	702.38
523.37	705.04
523.73	707.90
524.09	710.92
524.45	713.77
524.81	716.76
525.17	719.63
525.53	722.81
525.89	725.55
526.25	728.56
526.61	731.20
526.97	734.06
527.33	736.91
527.68	740.90
528.04	744.39
528.40	744.64
528.76	747.82
529.12	751.18
529.48	754.94
529.84	758.48
530.20	762.55
530.56	766.51
530.91	770.51
531.27	774.49
531.63	778.60
531.99	782.73
532.35	786.77
532.71	790.78
533.07	794.98
533.42	800.20
533.78	804.45
534.14	809.22
534.50	813.59
534.86	818.21
535.21	822.04
535.57	826.80
535.93	831.29
536.29	836.18
536.65	841.14
537.00	845.56
537.36	850.50
537.72	854.51
538.08	858.93
538.44	863.49
538.79	868.41
539.15	873.05
539.51	877.64
539.87	882.17
540.22	886.67
540.58	890.97
540.94	894.41
541.29	898.61
541.65	902.53
542.01	907.19
542.37	911.21
542.72	914.98
543.08	918.61
543.44	923.00
543.79	926.11
544.15	930.00
544.51	934.53
544.87	938.60
545.22	942.54
545.58	946.16
545.94	949.90
546.29	953.38
546.65	956.57
547.01	959.89
547.36	963.62
547.72	967.17
548.07	970.83
548.43	974.44
548.79	977.97
549.14	981.50
549.50	985.23
549.86	988.24
550.21	992.11
550.57	995.68
550.92	998.53
551.28	1002.49
551.64	1005.62
551.99	1008.94
552.35	1011.94
552.70	1015.42
553.06	1019.00
553.41	1022.12
553.77	1025.96
554.13	1029.48
554.48	1033.15
554.84	1036.27
555.19	1039.67
555.55	1043.60
555.90	1046.49
556.26	1049.52
556.61	1051.86
556.97	1053.24
557.32	1056.06
557.68	1058.30
558.03	1061.04
558.39	1063.70
558.74	1065.79
559.10	1067.73
559.45	1069.64
559.81	1071.34
560.16	1072.80
560.52	1074.41
560.87	1076.53
561.23	1077.70
561.58	1080.23
561.94	1081.46
562.29	1082.77
562.64	1084.04
563.00	1084.46
563.35	1086.14
563.71	1087.44
564.06	1089.37
564.42	1091.74
564.77	1093.59
565.12	1095.49
565.48	1097.97
565.83	1100.13
566.19	1101.64
566.54	1103.17
566.89	1104.37
567.25	1106.33
567.60	1108.46
567.96	1110.79
568.31	1112.60
568.66	1114.10
569.02	1114.20
569.37	1115.24
569.72	1116.68
570.08	1117.39
570.43	1117.85
570.78	1118.02
571.14	1118.44
571.49	1118.60
571.84	1118.70
572.20	1118.07
572.55	1117.79
572.90	1116.29
573.26	1115.12
573.61	1114.68
573.96	1114.31
574.31	1113.52
574.67	1112.27
575.02	1110.54
575.37	1108.13
575.72	1106.13
576.08	1104.72
576.43	1103.30
576.78	1101.64
577.13	1099.63
577.49	1098.13
577.84	1096.95
578.19	1096.15
578.54	1094.85
578.90	1093.72
579.25	1092.38
579.60	1091.10
579.95	1089.20
580.30	1087.33
580.66	1085.87
581.01	1083.60
581.36	1081.00
581.71	1079.02
582.06	1077.52
582.42	1075.83
582.77	1073.95
583.12	1072.22
583.47	1069.99
583.82	1068.39
584.17	1066.69
584.53	1065.16
584.88	1062.69
585.23	1060.31
585.58	1057.20
585.93	1054.52
586.28	1051.43
586.63	1048.30
586.98	1045.52
587.34	1042.91
587.69	1040.53
588.04	1037.66
588.39	1035.57
588.74	1032.99
589.09	1030.66
589.44	1027.34
589.79	1024.60
590.14	1022.19
590.49	1019.38
590.84	1016.52
591.19	1013.56
591.54	1010.44
591.89	1007.14
592.25	1005.72
592.60	1002.89
592.95	1000.10
593.30	997.18
593.65	994.13
594.00	991.20
594.35	991.03
594.70	987.69
595.05	984.32
595.40	981.09
595.75	977.44
596.10	974.52
596.45	971.15
596.80	968.46
597.15	965.04
597.50	961.89
597.85	958.90
598.19	955.72
598.54	951.95
598.89	948.69
599.24	945.45
599.59	941.08
599.94	937.78
600.29	934.48
600.64	931.22
600.99	928.18
601.34	925.25
601.69	919.10
602.04	916.23
602.39	912.83
602.74	909.99
603.08	907.14
603.43	904.40
603.78	901.18
604.13	897.84
604.48	894.65
604.83	891.06
605.18	887.35
605.53	883.98
605.87	881.06
606.22	878.27
606.57	875.00
606.92	871.50
607.27	868.08
607.62	864.97
607.96	862.11
608.31	859.06
608.66	855.86
609.01	852.84
609.36	849.47
609.70	846.37
610.05	842.91
610.40	839.57
610.75	835.64
611.10	832.18
611.44	828.31
611.79	824.91
612.14	821.70
612.49	818.30
612.83	815.02
613.18	811.51
613.53	808.10
613.88	804.46
614.22	801.14
614.57	797.53
614.92	793.80
615.27	790.01
615.61	786.15
615.96	782.31
616.31	778.71
616.65	775.53
617.00	772.10
617.35	768.76
617.70	765.10
618.04	761.73
618.39	758.47
618.74	755.85
619.08	752.53
619.43	748.91
619.78	745.32
620.12	741.43
620.47	738.23
620.82	734.34
621.16	730.97
621.51	727.96
621.85	724.89
622.20	721.75
622.55	718.15
622.89	714.86
623.24	711.81
623.59	708.41
623.93	704.91
624.28	701.61
624.62	698.97
624.97	696.09
625.32	692.90
625.66	689.46
626.01	685.64
626.35	682.49
626.70	679.37
627.04	676.45
627.39	673.38
627.73	670.40
628.08	667.54
628.43	664.29
628.77	660.70
629.12	657.41
629.46	654.57
629.81	652.09
630.15	649.20
630.50	646.17
630.84	643.00
631.19	639.95
631.53	637.24
631.88	633.44
632.22	629.95
632.57	627.45
632.91	624.43
633.26	621.87
633.60	618.83
633.95	615.71
634.29	612.58
634.64	609.75
634.98	606.40
635.32	603.43
635.67	600.91
636.01	598.32
636.36	595.43
636.70	592.64
637.05	589.70
637.39	587.10
637.73	584.44
638.08	582.16
638.42	579.30
638.77	576.63
639.11	573.81
639.45	570.99
639.80	567.53
640.14	564.88
640.49	561.94
640.83	559.37
641.17	557.12
641.52	554.66
641.86	552.21
642.20	550.25
642.55	547.57
642.89	544.92
643.23	542.37
643.58	540.22
643.92	537.40
644.26	534.75
644.61	532.19
644.95	529.58
645.29	526.88
645.64	524.75
645.98	521.90
646.32	519.64
646.66	517.10
647.01	514.88
647.35	512.67
647.69	510.25
648.04	507.87
648.38	505.35
648.72	502.91
649.06	500.32
649.41	497.70
649.75	495.20
650.09	492.90
650.43	490.54
650.78	487.94
651.12	485.61
651.46	483.22
651.80	481.00
652.14	478.71
652.49	476.60
652.83	474.07
653.17	472.00
653.51	469.66
653.85	467.80
654.20	465.76
654.54	463.45
654.88	461.30
655.22	459.69
655.56	457.64
655.90	455.66
656.25	453.78
656.59	451.61
656.93	449.80
657.27	448.02
657.61	445.72
657.95	443.80
658.29	441.80
658.64	440.03
658.98	437.93
659.32	435.90
659.66	433.90
660.00	432.11
660.34	430.19
660.68	428.31
661.02	426.52
661.36	424.48
661.70	422.60
662.05	420.81
662.39	418.83
662.73	417.36
663.07	416.11
663.41	414.44
663.75	412.59
664.09	411.00
664.43	409.03
664.77	407.55
665.11	405.84
665.45	404.16
665.79	402.45
666.13	400.85
666.47	399.22
666.81	397.63
667.15	395.77
667.49	394.26
667.83	393.06
668.17	391.42
668.51	390.16
668.85	388.90
669.19	388.01
669.53	386.34
669.87	384.67
670.21	382.89
670.55	381.46
670.89	380.52
671.23	379.05
671.57	377.57
671.91	376.18
672.25	374.85
672.58	373.83
672.92	372.34
673.26	370.98
673.60	369.77
673.94	368.41
674.28	367.43
674.62	366.16
674.96	364.65
675.30	363.54
675.64	362.26
675.97	361.03
676.31	359.32
676.65	358.09
676.99	357.10
677.33	355.70
677.67	354.44
678.01	352.78
678.34	351.50
678.68	350.50
679.02	349.13
679.36	347.88
679.70	346.61
680.04	345.65
680.37	344.50
680.71	343.25
681.05	342.28
681.39	341.18
681.73	340.01
682.06	338.97
682.40	337.75
682.74	336.74
683.08	335.86
683.42	334.71
683.75	333.84
684.09	332.64
684.43	331.72
684.77	330.56
685.10	329.65
685.44	328.68
685.78	327.64
686.12	326.71
686.45	325.70
686.79	324.66
687.13	323.85
687.46	323.07
687.80	322.44
688.14	321.53
688.48	320.61
688.81	319.84
689.15	319.10
689.49	318.27
689.82	317.51
690.16	316.34
690.50	315.60
690.83	314.50
691.17	313.42
691.51	312.42
691.84	311.80
692.18	310.84
692.52	309.89
692.85	309.18
693.19	308.84
693.52	308.06
693.86	307.24
694.20	306.44
694.53	305.65
694.87	304.71
695.21	303.81
695.54	302.97
695.88	301.99
696.21	300.83
696.55	299.98
696.88	299.19
697.22	298.33
697.56	297.55
697.89	296.77
698.23	296.34
698.56	295.53
698.90	294.96
699.23	294.32
699.57	293.74
699.90	292.93
700.24	291.87
700.58	291.34
700.91	290.72
701.25	290.70
701.58	290.67
701.92	290.27
702.25	289.61
702.59	288.91
702.92	288.36
703.26	288.06
703.59	287.53
703.93	287.67
704.26	287.36
704.60	286.84
704.93	286.28
705.26	285.53
705.60	285.24
705.93	284.37
706.27	284.11
706.60	283.89
706.94	283.85
707.27	283.30
707.61	282.68
707.94	282.10
708.27	280.80
708.61	279.58
708.94	278.89
709.28	278.49
709.61	277.98
709.94	277.64
710.28	277.04
710.61	276.51
710.95	275.27
711.28	275.28
711.61	274.78
711.95	274.65
712.28	274.04
712.61	273.50
712.95	273.59
713.28	273.50
713.61	272.64
713.95	271.75
714.28	271.45
714.61	271.20
714.95	270.74
715.28	270.22
715.61	269.79
715.95	269.37
716.28	268.71
716.61	268.47
716.95	267.80
717.28	267.34
717.61	266.96
717.94	266.50
718.28	265.49
718.61	264.97
718.94	264.42
719.27	264.12
719.61	263.89
719.94	263.28
720.27	262.48
720.60	262.13
720.94	261.79
721.27	261.43
721.60	261.18
721.93	260.91
722.27	261.00
722.60	260.76
722.93	260.35
723.26	260.22
723.59	259.77
723.93	259.65
724.26	259.57
724.59	259.14
724.92	258.87
725.25	258.82
725.59	258.71
725.92	258.56
726.25	258.30
726.58	257.98
726.91	257.55
727.24	257.32
727.57	257.04
727.91	256.70
728.24	256.51
728.57	256.06
728.90	255.85
729.23	255.20
729.56	255.51
729.89	255.35
730.22	255.01
730.55	254.67
730.89	254.51
731.22	254.21
731.55	254.03
731.88	253.82
732.21	253.42
732.54	252.94
732.87	252.64
733.20	252.37
733.53	252.07
733.86	252.09
734.19	251.67
734.52	251.67
734.85	252.04
735.18	251.70
735.51	251.74
735.84	251.56
736.17	251.76
736.50	250.97
736.83	251.76
737.16	251.60
737.49	251.58
737.82	251.24
738.15	251.03
738.48	250.79
738.81	250.51
739.14	250.16
739.47	250.00
739.80	249.66
740.13	249.55
740.46	249.21
740.79	248.76
741.12	248.63
741.45	248.31
741.78	247.60
742.11	247.73
742.44	247.30
742.77	247.16
743.10	246.72
743.43	246.44
743.75	245.33
744.08	246.35
744.41	246.00
744.74	245.75
745.07	245.47
745.40	245.47
745.73	245.72
746.06	245.59
746.39	245.51
746.71	245.29
747.04	244.93
747.37	244.83
747.70	244.89
748.03	244.65
748.36	244.65
748.68	244.52
749.01	244.03
749.34	243.86
749.67	243.74
750.00	243.80
750.33	244.47
750.65	244.29
750.98	242.98
751.31	242.90
751.64	242.84
751.97	243.23
752.29	242.95
752.62	242.28
752.95	242.15
753.28	241.93
753.60	241.89
753.93	242.14
754.26	242.04
754.59	241.66
754.91	241.55
755.24	241.34
755.57	241.28
755.90	241.11
756.22	240.92
756.55	240.71
756.88	240.40
757.20	239.65
757.53	239.36
757.86	239.29
758.19	239.34
758.51	239.17
758.84	238.54
759.17	238.39
759.49	238.47
759.82	238.90
760.15	238.90
760.47	238.71
760.80	238.40
761.13	238.40
761.45	238.32
761.78	238.32
762.11	238.20
762.43	237.99
762.76	237.88
763.08	237.91
763.41	237.89
763.74	237.80
764.06	237.63
764.39	237.60
764.71	237.39
765.04	237.16
765.37	237.02
765.69	236.91
766.02	236.87
766.34	236.59
766.67	236.07
767.00	236.11
767.32	236.60
767.65	236.99
767.97	236.79
768.30	236.68
768.62	236.51
768.95	236.35
769.27	236.23
769.60	236.36
769.92	236.16
770.25	235.95
770.57	235.68
770.90	235.60
771.22	235.41
771.55	235.40
771.87	235.37
772.20	235.38
772.52	236.10
772.85	237.21
773.17	237.21
773.50	237.06
773.82	236.89
774.15	236.36
774.47	235.80
774.80	235.76
775.12	235.65
775.45	235.57
775.77	235.58
776.09	235.62
776.42	235.47
776.74	235.66
777.07	235.48
777.39	235.58
777.72	235.47
778.04	235.55
778.36	235.44
778.69	235.45
779.01	235.41
779.33	234.55
779.66	233.37
779.98	233.30
780.31	233.24
780.63	233.52
780.95	233.64
781.28	233.52
781.60	233.31
781.92	233.30
782.25	233.20
782.57	233.20
782.89	233.07
783.22	232.93
783.54	232.75
783.86	232.87
784.19	232.69
784.51	232.95
784.83	232.71
785.16	232.58
785.48	232.41
785.80	232.35
786.12	232.34
786.45	232.24
786.77	232.18
787.09	232.28
787.42	231.90
787.74	231.80
788.06	231.78
788.38	231.75
788.71	231.64
789.03	231.65
789.35	231.66
789.67	231.51
789.99	231.60
790.32	231.50
790.64	231.57
790.96	232.22
791.28	231.93
791.61	231.84
791.93	231.86
792.25	231.80
792.57	232.55
792.89	232.34
793.21	232.36
793.54	232.32
793.86	232.07
794.18	232.10
794.50	231.90
794.82	231.92
795.14	232.12
795.47	232.20
795.79	232.23
796.11	231.99
796.43	232.02
796.75	232.01
797.07	231.93
797.39	231.78
797.71	231.15
798.04	231.05
798.36	231.21
798.68	231.22
799.00	231.26
799.32	230.60
799.64	230.85
799.96	230.94
800.28	231.07
800.60	231.04
800.92	231.10
801.24	231.10
801.56	231.11
801.89	230.92
802.21	231.01
802.53	230.88
802.85	231.09
803.17	231.52
803.49	231.24
803.81	231.33
804.13	231.21
804.45	231.17
804.77	231.30
805.09	231.32
805.41	231.15
805.73	231.14
806.05	230.98
806.37	230.82
806.69	230.70
807.01	230.70
807.33	230.84
807.65	230.52
807.97	230.90
808.28	230.87
808.60	230.88
808.92	230.75
809.24	231.40
809.56	231.24
809.88	230.93
810.20	231.03
810.52	231.11
810.84	231.11
811.16	231.10
811.48	231.03
811.80	231.25
812.12	231.30
812.43	231.35
812.75	231.39
813.07	231.35
813.39	231.32
813.71	231.14
814.03	230.99
814.35	231.06
814.67	230.64
814.98	230.56
815.30	230.49
815.62	230.33
815.94	229.60
816.26	230.01
816.58	229.73
816.89	229.82
817.21	229.57
817.53	229.63
817.85	229.54
818.17	229.49
818.48	229.11
818.80	229.28
819.12	229.11
819.44	228.93
819.76	228.90
820.07	228.84
820.39	228.78
820.71	228.83
821.03	228.75
821.34	228.70
