SpectraSuite Data File
++++++++++++++++++++++++++++++++++++
Date: Wed Sep 04 17:32:33 EDT 2013
User: lab3
Dark Spectrum Present: Yes
Reference Spectrum Present: No
Number of Sampled Component Spectra: 1
Spectrometers: USB2E7196
Integration Time (usec): 337000 (USB2E7196)
Spectra Averaged: 10 (USB2E7196)
Boxcar Smoothing: 10 (USB2E7196)
Correct for Electrical Dark: No (USB2E7196)
Strobe/Lamp Enabled: No (USB2E7196)
Correct for Detector Non-linearity: No (USB2E7196)
Correct for Stray Light: No (USB2E7196)
Number of Pixels in Processed Spectrum: 2048
>>>>>Begin Processed Spectral Data<<<<<
339.09	0.00
339.48	214.50
339.86	212.80
340.24	215.30
340.63	215.10
341.01	233.70
341.39	219.70
341.78	223.20
342.16	226.10
342.54	224.90
342.93	213.07
343.31	223.74
343.69	224.19
344.07	224.75
344.46	225.35
344.84	225.95
345.22	225.49
345.60	225.84
345.99	225.96
346.37	225.98
346.75	225.96
347.13	226.06
347.52	226.20
347.90	226.58
348.28	226.54
348.66	226.70
349.05	226.36
349.43	226.50
349.81	226.78
350.19	226.76
350.57	226.82
350.96	226.94
351.34	227.10
351.72	227.29
352.10	227.34
352.48	227.27
352.87	227.19
353.25	227.32
353.63	227.30
354.01	227.31
354.39	227.30
354.77	227.42
355.15	227.74
355.54	227.68
355.92	227.33
356.30	227.37
356.68	228.08
357.06	228.16
357.44	228.07
357.82	227.99
358.20	228.88
358.58	228.90
358.97	229.07
359.35	229.34
359.73	229.52
360.11	229.58
360.49	229.64
360.87	229.75
361.25	229.88
361.63	230.27
362.01	230.34
362.39	230.41
362.77	230.58
363.15	230.51
363.53	230.54
363.91	230.64
364.29	230.76
364.67	229.87
365.05	229.97
365.43	230.14
365.81	230.36
366.19	229.97
366.57	230.34
366.95	230.29
367.33	229.99
367.71	229.94
368.09	230.24
368.47	230.27
368.85	230.24
369.23	230.40
369.61	230.11
369.99	230.44
370.37	230.61
370.75	231.06
371.13	231.00
371.51	230.97
371.89	231.09
372.27	231.16
372.65	231.20
373.03	231.27
373.41	231.12
373.78	230.91
374.16	230.44
374.54	230.10
374.92	229.99
375.30	230.07
375.68	229.90
376.06	229.85
376.44	229.76
376.82	229.72
377.19	229.67
377.57	229.52
377.95	229.18
378.33	229.06
378.71	228.41
379.09	228.46
379.47	228.48
379.84	228.37
380.22	228.21
380.60	228.07
380.98	227.93
381.36	227.94
381.73	227.82
382.11	227.97
382.49	227.96
382.87	227.72
383.25	227.57
383.62	228.58
384.00	228.29
384.38	228.13
384.76	228.33
385.13	228.57
385.51	228.53
385.89	228.34
386.27	228.23
386.64	228.34
387.02	228.23
387.40	227.99
387.78	227.98
388.15	227.94
388.53	227.89
388.91	227.86
389.29	227.63
389.66	227.79
390.04	227.59
390.42	227.67
390.79	227.86
391.17	227.87
391.55	226.74
391.92	226.69
392.30	226.80
392.68	226.50
393.05	226.45
393.43	226.47
393.81	226.55
394.18	226.54
394.56	226.47
394.94	226.65
395.31	226.67
395.69	226.87
396.06	227.04
396.44	227.09
396.82	227.03
397.19	227.59
397.57	227.49
397.95	227.72
398.32	227.46
398.70	227.45
399.07	227.69
399.45	227.88
399.82	228.06
400.20	228.06
400.58	228.16
400.95	227.90
401.33	228.23
401.70	229.04
402.08	229.05
402.45	229.29
402.83	229.58
403.20	229.86
403.58	229.90
403.95	230.12
404.33	230.46
404.71	230.70
405.08	231.39
405.46	231.60
405.83	231.90
406.21	232.32
406.58	232.74
406.96	233.03
407.33	233.34
407.70	233.80
408.08	235.03
408.45	235.67
408.83	236.30
409.20	236.54
409.58	236.58
409.95	237.33
410.33	237.95
410.70	238.30
411.08	239.14
411.45	239.86
411.82	240.51
412.20	241.65
412.57	243.04
412.95	243.20
413.32	244.36
413.69	245.23
414.07	246.33
414.44	247.53
414.82	248.87
415.19	250.33
415.56	251.77
415.94	252.78
416.31	254.57
416.68	256.26
417.06	258.33
417.43	260.54
417.81	262.76
418.18	265.00
418.55	267.38
418.93	269.88
419.30	272.51
419.67	275.35
420.04	278.08
420.42	280.93
420.79	285.05
421.16	288.74
421.54	292.88
421.91	296.80
422.28	300.73
422.66	304.84
423.03	309.56
423.40	313.85
423.77	318.38
424.15	323.07
424.52	328.01
424.89	333.44
425.26	338.31
425.64	343.14
426.01	348.46
426.38	353.99
426.75	359.86
427.13	365.71
427.50	371.88
427.87	378.03
428.24	384.24
428.61	389.77
428.99	396.59
429.36	403.56
429.73	410.40
430.10	417.45
430.47	424.91
430.85	431.82
431.22	439.83
431.59	449.01
431.96	456.96
432.33	465.75
432.70	474.31
433.08	484.35
433.45	493.89
433.82	503.43
434.19	514.20
434.56	524.72
434.93	534.62
435.30	544.56
435.68	555.68
436.05	566.49
436.42	577.32
436.79	587.19
437.16	597.93
437.53	609.60
437.90	620.92
438.27	632.07
438.64	643.72
439.01	654.42
439.38	663.30
439.75	672.53
440.13	683.24
440.50	693.10
440.87	701.18
441.24	709.69
441.61	719.15
441.98	725.78
442.35	733.27
442.72	741.37
443.09	749.38
443.46	754.08
443.83	757.69
444.20	760.50
444.57	764.27
444.94	766.00
445.31	767.56
445.68	770.17
446.05	770.59
446.42	769.29
446.79	768.00
447.16	766.27
447.53	765.20
447.90	760.43
448.27	755.97
448.64	750.05
449.01	745.61
449.37	737.73
449.74	730.29
450.11	722.25
450.48	712.44
450.85	702.11
451.22	693.58
451.59	685.09
451.96	677.19
452.33	666.87
452.70	657.69
453.07	646.55
453.43	634.32
453.80	623.66
454.17	613.22
454.54	603.18
454.91	592.84
455.28	582.39
455.65	573.12
456.02	565.00
456.38	556.69
456.75	546.60
457.12	538.10
457.49	529.92
457.86	521.22
458.23	514.78
458.59	507.56
458.96	500.06
459.33	493.33
459.70	486.63
460.07	481.35
460.43	475.05
460.80	469.75
461.17	464.97
461.54	459.78
461.91	454.81
462.27	449.67
462.64	445.19
463.01	440.55
463.38	436.35
463.74	430.54
464.11	426.75
464.48	423.47
464.85	419.76
465.21	417.14
465.58	414.26
465.95	410.38
466.32	407.54
466.68	404.50
467.05	401.62
467.42	398.70
467.78	395.58
468.15	392.88
468.52	390.82
468.88	387.90
469.25	385.38
469.62	383.67
469.98	381.75
470.35	379.93
470.72	378.15
471.08	375.61
471.45	374.08
471.82	372.45
472.18	370.42
472.55	369.23
472.92	367.37
473.28	365.72
473.65	364.25
474.02	362.65
474.38	361.60
474.75	360.63
475.11	359.45
475.48	358.62
475.85	357.69
476.21	356.69
476.58	356.00
476.94	355.37
477.31	354.67
477.67	353.90
478.04	353.19
478.41	352.78
478.77	353.27
479.14	352.55
479.50	352.20
479.87	352.08
480.23	351.70
480.60	351.40
480.96	351.21
481.33	351.66
481.69	351.71
482.06	351.80
482.42	351.90
482.79	352.19
483.15	352.31
483.52	352.64
483.88	352.64
484.25	352.90
484.61	353.19
484.98	353.40
485.34	354.28
485.71	355.06
486.07	355.56
486.44	355.60
486.80	356.37
487.17	357.12
487.53	358.08
487.90	359.20
488.26	360.69
488.62	361.93
488.99	362.54
489.35	363.79
489.72	365.05
490.08	366.33
490.44	367.63
490.81	369.37
491.17	370.95
491.54	372.87
491.90	374.69
492.26	376.45
492.63	378.37
492.99	380.12
493.36	382.20
493.72	384.77
494.08	386.99
494.45	389.36
494.81	391.91
495.17	394.43
495.54	397.14
495.90	399.59
496.26	402.40
496.63	405.57
496.99	408.58
497.35	411.51
497.72	414.80
498.08	417.99
498.44	421.36
498.80	424.96
499.17	428.55
499.53	432.11
499.89	436.22
500.26	440.05
500.62	443.85
500.98	448.05
501.34	451.71
501.71	455.90
502.07	460.14
502.43	464.30
502.79	468.64
503.16	473.29
503.52	477.92
503.88	482.63
504.24	487.48
504.60	492.41
504.97	497.80
505.33	502.79
505.69	508.67
506.05	513.81
506.41	518.99
506.78	524.40
507.14	530.17
507.50	535.76
507.86	541.47
508.22	547.40
508.59	552.88
508.95	559.26
509.31	565.71
509.67	572.03
510.03	578.29
510.39	584.53
510.75	590.76
511.12	597.03
511.48	603.67
511.84	610.02
512.20	616.24
512.56	622.54
512.92	629.28
513.28	635.85
513.64	642.85
514.00	649.83
514.37	656.90
514.73	664.21
515.09	671.57
515.45	678.99
515.81	686.32
516.17	693.97
516.53	700.97
516.89	707.91
517.25	715.51
517.61	723.83
517.97	731.95
518.33	740.08
518.69	748.64
519.05	756.88
519.41	765.41
519.77	774.56
520.13	783.06
520.49	791.56
520.85	800.12
521.21	809.09
521.57	817.85
521.93	826.07
522.29	834.63
522.65	843.03
523.01	851.66
523.37	860.01
523.73	868.52
524.09	877.12
524.45	885.84
524.81	894.48
525.17	902.86
525.53	911.53
525.89	920.26
526.25	928.90
526.61	937.40
526.97	946.47
527.33	955.54
527.68	965.65
528.04	975.23
528.40	984.30
528.76	993.54
529.12	1002.92
529.48	1012.86
529.84	1021.93
530.20	1031.89
530.56	1041.46
530.91	1051.98
531.27	1061.79
531.63	1072.18
531.99	1082.10
532.35	1092.04
532.71	1101.82
533.07	1112.16
533.42	1122.96
533.78	1133.00
534.14	1143.35
534.50	1153.09
534.86	1162.88
535.21	1171.73
535.57	1181.39
535.93	1191.00
536.29	1201.30
536.65	1211.37
537.00	1220.86
537.36	1230.80
537.72	1239.85
538.08	1249.72
538.44	1258.32
538.79	1267.89
539.15	1276.69
539.51	1286.00
539.87	1294.89
540.22	1303.53
540.58	1312.30
540.94	1319.65
541.29	1327.48
541.65	1334.96
542.01	1343.25
542.37	1350.47
542.72	1357.66
543.08	1364.61
543.44	1372.39
543.79	1378.17
544.15	1384.75
544.51	1391.84
544.87	1398.47
545.22	1405.11
545.58	1411.00
545.94	1416.99
546.29	1422.62
546.65	1428.42
547.01	1433.81
547.36	1439.02
547.72	1444.39
548.07	1449.05
548.43	1454.04
548.79	1459.35
549.14	1464.32
549.50	1468.93
549.86	1473.69
550.21	1478.49
550.57	1483.28
550.92	1486.49
551.28	1490.98
551.64	1495.30
551.99	1498.98
552.35	1502.23
552.70	1505.73
553.06	1509.80
553.41	1513.75
553.77	1517.89
554.13	1521.77
554.48	1525.44
554.84	1529.41
555.19	1532.89
555.55	1537.37
555.90	1540.57
556.26	1542.76
556.61	1545.13
556.97	1546.70
557.32	1549.38
557.68	1551.77
558.03	1554.00
558.39	1556.70
558.74	1558.93
559.10	1560.57
559.45	1562.19
559.81	1564.01
560.16	1564.87
560.52	1565.31
560.87	1566.74
561.23	1567.21
561.58	1567.92
561.94	1567.84
562.29	1567.37
562.64	1567.62
563.00	1565.97
563.35	1565.90
563.71	1566.65
564.06	1566.87
564.42	1567.25
564.77	1567.20
565.12	1567.29
565.48	1568.13
565.83	1568.10
566.19	1567.50
566.54	1566.87
566.89	1566.27
567.25	1566.35
567.60	1566.60
567.96	1567.31
568.31	1566.91
568.66	1566.20
569.02	1564.89
569.37	1564.42
569.72	1564.24
570.08	1562.68
570.43	1561.50
570.78	1560.03
571.14	1557.69
571.49	1555.87
571.84	1554.28
572.20	1551.79
572.55	1549.31
572.90	1545.33
573.26	1542.59
573.61	1539.95
573.96	1536.69
574.31	1533.01
574.67	1529.09
575.02	1524.68
575.37	1519.86
575.72	1515.07
576.08	1511.14
576.43	1506.90
576.78	1502.60
577.13	1498.07
577.49	1493.64
577.84	1489.63
578.19	1485.84
578.54	1482.33
578.90	1478.59
579.25	1474.29
579.60	1470.11
579.95	1465.74
580.30	1461.46
580.66	1456.50
581.01	1451.26
581.36	1446.42
581.71	1442.39
582.06	1437.74
582.42	1433.56
582.77	1428.75
583.12	1424.40
583.47	1419.73
583.82	1415.41
584.17	1410.78
584.53	1406.55
584.88	1401.56
585.23	1396.54
585.58	1390.49
585.93	1384.66
586.28	1379.08
586.63	1373.51
586.98	1367.65
587.34	1362.23
587.69	1356.74
588.04	1351.57
588.39	1346.91
588.74	1341.55
589.09	1336.66
589.44	1330.90
589.79	1325.71
590.14	1320.99
590.49	1315.80
590.84	1310.54
591.19	1305.31
591.54	1299.83
591.89	1293.98
592.25	1290.41
592.60	1285.31
592.95	1280.59
593.30	1275.20
593.65	1269.50
594.00	1263.69
594.35	1261.07
594.70	1255.19
595.05	1249.81
595.40	1244.08
595.75	1237.97
596.10	1233.09
596.45	1227.13
596.80	1222.07
597.15	1216.41
597.50	1210.84
597.85	1205.59
598.19	1199.68
598.54	1193.79
598.89	1188.07
599.24	1182.74
599.59	1176.37
599.94	1170.58
600.29	1165.11
600.64	1159.84
600.99	1154.37
601.34	1149.51
601.69	1141.74
602.04	1136.64
602.39	1131.58
602.74	1127.12
603.08	1122.27
603.43	1117.15
603.78	1112.05
604.13	1106.88
604.48	1101.87
604.83	1096.08
605.18	1090.11
605.53	1084.76
605.87	1079.70
606.22	1075.11
606.57	1069.86
606.92	1064.36
607.27	1059.30
607.62	1054.03
607.96	1049.34
608.31	1044.62
608.66	1039.68
609.01	1034.64
609.36	1029.69
609.70	1024.41
610.05	1019.13
610.40	1014.19
610.75	1009.06
611.10	1004.18
611.44	998.64
611.79	993.38
612.14	988.78
612.49	984.01
612.83	979.70
613.18	975.02
613.53	969.95
613.88	964.58
614.22	959.87
614.57	954.74
614.92	949.91
615.27	944.90
615.61	939.63
615.96	934.47
616.31	929.34
616.65	924.95
617.00	919.97
617.35	914.96
617.70	910.24
618.04	905.07
618.39	900.06
618.74	896.26
619.08	891.59
619.43	886.84
619.78	882.00
620.12	876.44
620.47	871.29
620.82	866.30
621.16	861.65
621.51	857.25
621.85	852.75
622.20	847.82
622.55	842.79
622.89	838.31
623.24	833.88
623.59	829.50
623.93	824.72
624.28	820.14
624.62	816.67
624.97	812.70
625.32	808.52
625.66	803.81
626.01	798.66
626.35	794.15
626.70	789.59
627.04	785.42
627.39	781.02
627.73	777.07
628.08	772.87
628.43	768.63
628.77	763.92
629.12	759.72
629.46	756.03
629.81	752.57
630.15	748.77
630.50	744.63
630.84	740.56
631.19	736.60
631.53	733.10
631.88	727.84
632.22	723.17
632.57	719.57
632.91	715.74
633.26	712.34
633.60	708.27
633.95	704.30
634.29	700.12
634.64	696.63
634.98	692.49
635.32	688.92
635.67	685.58
636.01	681.93
636.36	678.00
636.70	674.51
637.05	670.53
637.39	666.97
637.73	663.48
638.08	660.15
638.42	656.23
638.77	652.26
639.11	648.45
639.45	644.74
639.80	640.51
640.14	637.02
640.49	633.10
640.83	629.89
641.17	626.52
641.52	623.23
641.86	619.95
642.20	617.11
642.55	613.70
642.89	610.21
643.23	606.70
643.58	604.02
643.92	600.48
644.26	597.09
644.61	594.03
644.95	590.97
645.29	587.58
645.64	584.67
645.98	581.54
646.32	578.98
646.66	575.76
647.01	572.74
647.35	570.03
647.69	567.27
648.04	564.60
648.38	561.78
648.72	558.93
649.06	555.71
649.41	552.33
649.75	549.10
650.09	545.96
650.43	543.30
650.78	540.01
651.12	536.80
651.46	534.05
651.80	531.06
652.14	527.99
652.49	525.31
652.83	522.50
653.17	519.82
653.51	516.80
653.85	514.32
654.20	511.84
654.54	508.95
654.88	506.14
655.22	503.66
655.56	501.04
655.90	498.49
656.25	496.18
656.59	493.85
656.93	491.61
657.27	489.51
657.61	486.62
657.95	484.30
658.29	482.03
658.64	479.88
658.98	477.45
659.32	474.88
659.66	472.60
660.00	470.20
660.34	467.99
660.68	465.72
661.02	463.31
661.36	460.91
661.70	458.63
662.05	456.41
662.39	454.09
662.73	452.24
663.07	450.52
663.41	448.47
663.75	446.23
664.09	443.92
664.43	441.57
664.77	439.70
665.11	437.50
665.45	435.66
665.79	433.54
666.13	431.36
666.47	429.33
666.81	427.09
667.15	424.98
667.49	423.13
667.83	421.61
668.17	419.81
668.51	418.12
668.85	416.51
669.19	415.26
669.53	413.30
669.87	411.27
670.21	409.10
670.55	407.28
670.89	405.77
671.23	404.15
671.57	402.42
671.91	400.73
672.25	399.20
672.58	397.70
672.92	395.83
673.26	394.35
673.60	392.99
673.94	391.62
674.28	390.17
674.62	388.67
674.96	386.85
675.30	385.48
675.64	383.86
675.97	382.21
676.31	380.30
676.65	378.61
676.99	377.41
677.33	375.91
677.67	374.53
678.01	372.89
678.34	371.47
678.68	370.30
679.02	368.82
679.36	367.36
679.70	365.75
680.04	364.40
680.37	363.15
680.71	361.73
681.05	360.43
681.39	359.15
681.73	357.71
682.06	356.42
682.40	355.11
682.74	354.02
683.08	353.04
683.42	351.78
683.75	350.81
684.09	349.32
684.43	348.27
684.77	346.90
685.10	345.75
685.44	344.62
685.78	343.39
686.12	342.36
686.45	341.20
686.79	339.96
687.13	339.03
687.46	337.78
687.80	336.87
688.14	335.56
688.48	334.47
688.81	333.48
689.15	332.60
689.49	331.35
689.82	330.15
690.16	328.75
690.50	327.64
690.83	326.38
691.17	325.19
691.51	324.08
691.84	323.30
692.18	322.17
692.52	321.09
692.85	320.14
693.19	319.46
693.52	318.53
693.86	317.67
694.20	316.71
694.53	315.93
694.87	314.75
695.21	313.78
695.54	312.93
695.88	311.93
696.21	310.65
696.55	309.83
696.88	308.95
697.22	308.04
697.56	307.20
697.89	306.35
698.23	305.71
698.56	304.74
698.90	303.89
699.23	302.92
699.57	302.10
699.90	301.07
700.24	299.97
700.58	299.24
700.91	298.60
701.25	298.60
701.58	298.41
701.92	297.90
702.25	297.33
702.59	296.59
702.92	295.93
703.26	295.43
703.59	294.79
703.93	295.08
704.26	294.60
704.60	294.01
704.93	293.32
705.26	292.54
705.60	292.10
705.93	291.22
706.27	291.06
706.60	290.70
706.94	290.62
707.27	290.04
707.61	289.45
707.94	288.86
708.27	287.55
708.61	286.17
708.94	285.48
709.28	284.85
709.61	284.18
709.94	283.58
710.28	283.02
710.61	282.42
710.95	280.92
711.28	280.96
711.61	280.40
711.95	280.05
712.28	279.36
712.61	278.70
712.95	278.79
713.28	278.55
713.61	277.81
713.95	276.87
714.28	276.44
714.61	275.86
714.95	275.15
715.28	274.42
715.61	273.95
715.95	273.56
716.28	272.91
716.61	272.54
716.95	272.00
717.28	271.36
717.61	270.91
717.94	270.50
718.28	269.27
718.61	268.72
718.94	268.13
719.27	267.83
719.61	267.54
719.94	266.87
720.27	265.83
720.60	265.34
720.94	265.06
721.27	264.63
721.60	264.46
721.93	264.12
722.27	264.18
722.60	263.88
722.93	263.33
723.26	263.10
723.59	262.68
723.93	262.40
724.26	262.24
724.59	261.72
724.92	261.33
725.25	261.34
725.59	260.95
725.92	260.77
726.25	260.46
726.58	260.11
726.91	259.66
727.24	259.59
727.57	259.32
727.91	258.77
728.24	258.54
728.57	257.96
728.90	257.87
729.23	257.12
729.56	257.32
729.89	257.10
730.22	256.84
730.55	256.43
730.89	256.03
731.22	255.70
731.55	255.47
731.88	255.30
732.21	254.81
732.54	254.50
732.87	254.12
733.20	253.75
733.53	253.57
733.86	253.42
734.19	252.90
734.52	252.81
734.85	253.24
735.18	252.81
735.51	253.06
735.84	252.78
736.17	252.84
736.50	252.15
736.83	252.97
737.16	252.67
737.49	252.57
737.82	252.34
738.15	252.30
738.48	252.13
738.81	251.75
739.14	251.40
739.47	251.22
739.80	251.04
740.13	250.94
740.46	250.54
740.79	250.22
741.12	250.06
741.45	249.70
741.78	248.96
742.11	249.00
742.44	248.45
742.77	248.37
743.10	248.04
743.43	247.78
743.75	246.53
744.08	247.64
744.41	247.33
744.74	247.12
745.07	246.58
745.40	246.47
745.73	246.68
746.06	246.57
746.39	246.44
746.71	246.19
747.04	245.91
747.37	245.83
747.70	245.84
748.03	245.71
748.36	245.72
748.68	245.64
749.01	245.29
749.34	245.09
749.67	244.86
750.00	244.94
750.33	245.48
750.65	245.52
750.98	244.20
751.31	244.14
751.64	244.10
751.97	244.61
752.29	244.43
752.62	243.90
752.95	243.73
753.28	243.50
753.60	243.42
753.93	243.54
754.26	243.38
754.59	242.89
754.91	242.74
755.24	242.43
755.57	242.30
755.90	242.06
756.22	241.81
756.55	241.49
756.88	241.10
757.20	240.33
757.53	239.86
757.86	239.62
758.19	239.56
758.51	239.36
758.84	238.79
759.17	238.58
759.49	238.49
759.82	238.80
760.15	238.79
760.47	238.62
760.80	238.23
761.13	238.28
761.45	238.21
761.78	238.09
762.11	237.89
762.43	237.67
762.76	237.64
763.08	237.68
763.41	237.72
763.74	237.75
764.06	237.74
764.39	237.67
764.71	237.59
765.04	237.37
765.37	237.23
765.69	237.08
766.02	237.00
766.34	236.89
766.67	236.45
767.00	236.60
767.32	237.01
767.65	237.52
767.97	237.39
768.30	237.36
768.62	237.31
768.95	237.28
769.27	237.21
769.60	237.25
769.92	237.11
770.25	236.93
770.57	236.63
770.90	236.52
771.22	236.38
771.55	236.41
771.87	236.37
772.20	236.30
772.52	236.95
772.85	238.03
773.17	238.03
773.50	237.89
773.82	237.60
774.15	237.06
774.47	236.37
774.80	236.10
775.12	236.01
775.45	235.88
775.77	235.89
776.09	235.90
776.42	235.80
776.74	236.01
777.07	235.90
777.39	235.85
777.72	235.60
778.04	235.73
778.36	235.50
778.69	235.50
779.01	235.43
779.33	234.67
779.66	233.51
779.98	233.39
780.31	233.38
780.63	233.68
780.95	233.76
781.28	233.61
781.60	233.45
781.92	233.36
782.25	233.36
782.57	233.29
782.89	233.08
783.22	232.90
783.54	232.59
783.86	232.59
784.19	232.50
784.51	232.76
784.83	232.52
785.16	232.45
785.48	232.34
785.80	232.48
786.12	232.43
786.45	232.40
786.77	232.39
787.09	232.32
787.42	231.90
787.74	231.77
788.06	231.86
788.38	231.86
788.71	231.73
789.03	231.70
789.35	231.69
789.67	231.56
789.99	231.56
790.32	231.41
790.64	231.45
790.96	232.25
791.28	231.90
791.61	231.83
791.93	231.92
792.25	231.98
792.57	232.51
792.89	232.23
793.21	232.20
793.54	232.05
793.86	231.87
794.18	231.91
794.50	231.73
794.82	231.69
795.14	231.81
795.47	231.99
795.79	231.99
796.11	231.79
796.43	231.80
796.75	231.87
797.07	231.93
797.39	231.92
797.71	231.23
798.04	231.28
798.36	231.37
798.68	231.32
799.00	231.21
799.32	230.66
799.64	230.90
799.96	230.92
800.28	231.03
800.60	230.99
800.92	231.06
801.24	231.14
801.56	231.23
801.89	231.11
802.21	231.18
802.53	231.04
802.85	231.37
803.17	231.77
803.49	231.52
803.81	231.45
804.13	231.34
804.45	231.19
804.77	231.24
805.09	231.26
805.41	231.16
805.73	231.03
806.05	230.90
806.37	230.80
806.69	230.81
807.01	230.74
807.33	230.90
807.65	230.60
807.97	230.94
808.28	230.81
808.60	230.81
808.92	230.70
809.24	231.24
809.56	231.03
809.88	230.70
810.20	230.78
810.52	231.00
810.84	230.87
811.16	230.67
811.48	230.64
811.80	230.94
812.12	230.88
812.43	230.97
812.75	230.99
813.07	230.86
813.39	230.70
813.71	230.53
814.03	230.35
814.35	230.33
814.67	230.01
814.98	229.95
815.30	229.85
815.62	229.71
815.94	229.10
816.26	229.52
816.58	229.39
816.89	229.53
817.21	229.25
817.53	229.26
817.85	229.37
818.17	229.31
818.48	228.92
818.80	229.10
