SpectraSuite Data File
++++++++++++++++++++++++++++++++++++
Date: Wed Sep 04 17:28:59 EDT 2013
User: lab3
Dark Spectrum Present: Yes
Reference Spectrum Present: No
Number of Sampled Component Spectra: 1
Spectrometers: USB2E7196
Integration Time (usec): 337000 (USB2E7196)
Spectra Averaged: 10 (USB2E7196)
Boxcar Smoothing: 10 (USB2E7196)
Correct for Electrical Dark: No (USB2E7196)
Strobe/Lamp Enabled: No (USB2E7196)
Correct for Detector Non-linearity: No (USB2E7196)
Correct for Stray Light: No (USB2E7196)
Number of Pixels in Processed Spectrum: 2048
>>>>>Begin Processed Spectral Data<<<<<
339.09	0.00
339.48	212.20
339.86	215.20
340.24	213.70
340.63	218.00
341.01	232.80
341.39	220.00
341.78	223.60
342.16	225.80
342.54	226.20
342.93	213.57
343.31	224.24
343.69	224.82
344.07	225.30
344.46	225.92
344.84	226.37
345.22	226.07
345.60	226.41
345.99	226.58
346.37	226.63
346.75	226.70
347.13	226.69
347.52	226.77
347.90	227.09
348.28	227.20
348.66	227.38
349.05	227.01
349.43	227.18
349.81	227.36
350.19	227.39
350.57	227.39
350.96	227.53
351.34	227.78
351.72	227.85
352.10	227.99
352.48	228.06
352.87	227.93
353.25	227.98
353.63	227.81
354.01	227.76
354.39	227.87
354.77	227.90
355.15	228.13
355.54	228.22
355.92	228.01
356.30	228.13
356.68	228.80
357.06	229.00
357.44	228.88
357.82	228.81
358.20	229.64
358.58	229.56
358.97	229.72
359.35	229.88
359.73	230.14
360.11	230.11
360.49	230.08
360.87	230.21
361.25	230.38
361.63	230.94
362.01	231.11
362.39	231.11
362.77	231.20
363.15	231.26
363.53	231.19
363.91	231.24
364.29	231.24
364.67	230.37
365.05	230.42
365.43	230.59
365.81	230.79
366.19	230.50
366.57	230.93
366.95	230.91
367.33	230.66
367.71	230.65
368.09	230.97
368.47	231.05
368.85	231.10
369.23	231.27
369.61	230.89
369.99	231.19
370.37	231.25
370.75	231.70
371.13	231.50
371.51	231.50
371.89	231.56
372.27	231.53
372.65	231.63
373.03	231.70
373.41	231.61
373.78	231.55
374.16	230.99
374.54	230.67
374.92	230.51
375.30	230.53
375.68	230.30
376.06	230.21
376.44	230.00
376.82	229.96
377.19	229.83
377.57	229.91
377.95	229.44
378.33	229.28
378.71	228.60
379.09	228.75
379.47	228.71
379.84	228.58
380.22	228.42
380.60	228.23
380.98	228.13
381.36	228.10
381.73	227.85
382.11	227.99
382.49	227.93
382.87	227.70
383.25	227.71
383.62	228.75
384.00	228.45
384.38	228.58
384.76	228.68
385.13	228.99
385.51	228.86
385.89	228.79
386.27	228.86
386.64	228.99
387.02	228.80
387.40	228.69
387.78	228.66
388.15	228.62
388.53	228.55
388.91	228.44
389.29	228.28
389.66	228.45
390.04	228.36
390.42	228.50
390.79	228.65
391.17	228.65
391.55	227.60
391.92	227.63
392.30	227.71
392.68	227.53
393.05	227.40
393.43	227.38
393.81	227.47
394.18	227.32
394.56	227.40
394.94	227.60
395.31	227.58
395.69	227.94
396.06	228.16
396.44	228.33
396.82	228.33
397.19	228.92
397.57	228.80
397.95	229.03
398.32	228.91
398.70	229.03
399.07	229.19
399.45	229.31
399.82	229.40
400.20	229.42
400.58	229.63
400.95	229.41
401.33	229.64
401.70	230.40
402.08	230.62
402.45	230.76
402.83	231.16
403.20	231.48
403.58	231.59
403.95	232.03
404.33	232.38
404.71	232.75
405.08	233.58
405.46	234.00
405.83	234.37
406.21	234.85
406.58	235.44
406.96	235.94
407.33	236.65
407.70	237.46
408.08	238.92
408.45	239.72
408.83	240.72
409.20	241.68
409.58	242.00
409.95	243.12
410.33	244.24
410.70	244.96
411.08	246.20
411.45	247.43
411.82	248.55
412.20	250.03
412.57	252.06
412.95	252.85
413.32	254.79
413.69	256.57
414.07	258.45
414.44	260.43
414.82	262.61
415.19	265.01
415.56	267.45
415.94	269.46
416.31	272.48
416.68	275.41
417.06	278.79
417.43	282.34
417.81	286.12
418.18	290.01
418.55	294.13
418.93	298.50
419.30	302.97
419.67	307.78
420.04	312.90
420.42	317.87
420.79	324.36
421.16	330.57
421.54	337.16
421.91	343.89
422.28	350.68
422.66	357.92
423.03	365.54
423.40	372.93
423.77	380.94
424.15	389.08
424.52	397.63
424.89	407.00
425.26	415.90
425.64	424.35
426.01	433.82
426.38	443.76
426.75	454.02
427.13	464.53
427.50	475.50
427.87	486.73
428.24	497.93
428.61	508.60
428.99	520.30
429.36	533.04
429.73	545.72
430.10	558.59
430.47	571.74
430.85	584.93
431.22	599.46
431.59	615.18
431.96	629.87
432.33	646.06
432.70	661.56
433.08	679.88
433.45	697.37
433.82	714.80
434.19	734.58
434.56	753.75
434.93	772.22
435.30	790.75
435.68	811.20
436.05	831.63
436.42	851.65
436.79	870.46
437.16	890.81
437.53	912.10
437.90	933.49
438.27	954.31
438.64	976.25
439.01	997.00
439.38	1015.15
439.75	1033.22
440.13	1053.68
440.50	1073.04
440.87	1089.08
441.24	1105.56
441.61	1123.61
441.98	1137.07
442.35	1152.61
442.72	1168.47
443.09	1184.15
443.46	1194.07
443.83	1201.14
444.20	1207.31
444.57	1215.80
444.94	1219.92
445.31	1224.57
445.68	1229.49
446.05	1231.89
446.42	1230.50
446.79	1228.61
447.16	1226.61
447.53	1224.91
447.90	1217.75
448.27	1210.51
448.64	1200.26
449.01	1193.21
449.37	1179.73
449.74	1166.39
450.11	1150.93
450.48	1133.43
450.85	1115.28
451.22	1099.68
451.59	1084.76
451.96	1071.09
452.33	1052.22
452.70	1035.53
453.07	1015.12
453.43	993.97
453.80	974.47
454.17	955.83
454.54	937.88
454.91	918.32
455.28	899.50
455.65	881.85
456.02	865.43
456.38	850.70
456.75	831.84
457.12	816.34
457.49	801.44
457.86	786.87
458.23	774.42
458.59	760.63
458.96	747.05
459.33	735.04
459.70	722.69
460.07	713.01
460.43	701.83
460.80	691.59
461.17	682.49
461.54	672.81
461.91	663.38
462.27	654.15
462.64	646.50
463.01	638.19
463.38	629.90
463.74	620.43
464.11	612.86
464.48	606.61
464.85	600.11
465.21	594.67
465.58	588.78
465.95	582.09
466.32	576.78
466.68	571.22
467.05	565.86
467.42	560.16
467.78	554.59
468.15	549.28
468.52	545.41
468.88	540.10
469.25	535.50
469.62	532.18
469.98	528.08
470.35	524.44
470.72	520.68
471.08	516.79
471.45	513.81
471.82	510.63
472.18	507.27
472.55	504.65
472.92	501.81
473.28	499.00
473.65	496.48
474.02	493.93
474.38	491.82
474.75	490.00
475.11	487.95
475.48	486.26
475.85	484.79
476.21	483.31
476.58	482.20
476.94	481.24
477.31	480.02
477.67	478.98
478.04	478.04
478.41	477.70
478.77	478.18
479.14	477.44
479.50	477.16
479.87	477.16
480.23	477.07
480.60	476.89
480.96	476.88
481.33	477.55
481.69	477.90
482.06	478.43
482.42	478.68
482.79	479.61
483.15	480.58
483.52	482.05
483.88	483.02
484.25	484.18
484.61	485.58
484.98	486.94
485.34	489.04
485.71	491.05
486.07	492.97
486.44	494.12
486.80	496.21
487.17	498.65
487.53	501.24
487.90	503.90
488.26	507.12
488.62	510.64
488.99	513.70
489.35	517.05
489.72	520.58
490.08	524.50
490.44	528.11
490.81	532.33
491.17	536.14
491.54	540.74
491.90	545.37
492.26	550.08
492.63	554.84
492.99	559.59
493.36	564.82
493.72	570.18
494.08	576.07
494.45	582.36
494.81	588.69
495.17	594.90
495.54	601.65
495.90	608.27
496.26	614.91
496.63	621.89
496.99	628.92
497.35	636.30
497.72	644.12
498.08	652.01
498.44	659.79
498.80	668.10
499.17	676.05
499.53	684.27
499.89	693.10
500.26	701.97
500.62	710.85
500.98	719.94
501.34	728.79
501.71	737.98
502.07	746.93
502.43	756.16
502.79	765.67
503.16	775.20
503.52	784.62
503.88	794.51
504.24	804.61
504.60	814.98
504.97	825.60
505.33	835.58
505.69	846.50
506.05	856.87
506.41	867.22
506.78	877.84
507.14	888.46
507.50	899.07
507.86	909.65
508.22	920.47
508.59	930.89
508.95	942.16
509.31	953.36
509.67	964.15
510.03	974.51
510.39	985.06
510.75	995.53
511.12	1006.50
511.48	1016.83
511.84	1026.69
512.20	1036.80
512.56	1046.60
512.92	1057.04
513.28	1066.70
513.64	1076.65
514.00	1086.16
514.37	1095.73
514.73	1105.31
515.09	1114.80
515.45	1124.11
515.81	1132.79
516.17	1141.74
516.53	1149.97
516.89	1157.95
517.25	1166.59
517.61	1175.99
517.97	1184.88
518.33	1193.53
518.69	1201.68
519.05	1210.34
519.41	1218.68
519.77	1227.10
520.13	1234.87
520.49	1241.88
520.85	1249.16
521.21	1256.76
521.57	1264.09
521.93	1270.74
522.29	1277.96
522.65	1283.98
523.01	1289.91
523.37	1295.86
523.73	1302.16
524.09	1307.79
524.45	1312.94
524.81	1318.20
525.17	1322.76
525.53	1327.57
525.89	1332.22
526.25	1336.88
526.61	1340.49
526.97	1345.10
527.33	1349.79
527.68	1355.22
528.04	1360.25
528.40	1365.02
528.76	1369.29
529.12	1373.56
529.48	1378.30
529.84	1381.59
530.20	1385.81
530.56	1390.46
530.91	1394.72
531.27	1398.40
531.63	1402.79
531.99	1407.05
532.35	1410.77
532.71	1415.06
533.07	1419.13
533.42	1422.77
533.78	1426.39
534.14	1430.63
534.50	1433.99
534.86	1437.46
535.21	1440.00
535.57	1443.20
535.93	1445.66
536.29	1449.19
536.65	1452.70
537.00	1455.10
537.36	1457.77
537.72	1460.66
538.08	1463.79
538.44	1466.45
538.79	1469.62
539.15	1472.48
539.51	1475.49
539.87	1478.18
540.22	1479.74
540.58	1482.10
540.94	1483.90
541.29	1485.65
541.65	1486.94
542.01	1489.19
542.37	1490.05
542.72	1490.47
543.08	1491.27
543.44	1492.99
543.79	1492.66
544.15	1492.89
544.51	1494.18
544.87	1495.40
545.22	1495.53
545.58	1495.21
545.94	1495.01
546.29	1493.90
546.65	1492.90
547.01	1491.84
547.36	1491.18
547.72	1490.89
548.07	1489.53
548.43	1489.19
548.79	1488.11
549.14	1487.25
549.50	1486.05
549.86	1484.40
550.21	1483.72
550.57	1482.88
550.92	1480.91
551.28	1479.76
551.64	1479.12
551.99	1477.94
552.35	1477.03
552.70	1476.18
553.06	1475.62
553.41	1474.86
553.77	1475.26
554.13	1475.25
554.48	1474.90
554.84	1474.49
555.19	1474.10
555.55	1474.63
555.90	1473.65
556.26	1472.68
556.61	1471.43
556.97	1469.70
557.32	1469.04
557.68	1468.24
558.03	1467.30
558.39	1466.53
558.74	1466.14
559.10	1464.08
559.45	1462.81
559.81	1460.95
560.16	1459.14
560.52	1457.14
560.87	1456.00
561.23	1453.48
561.58	1451.99
561.94	1449.57
562.29	1447.10
562.64	1444.74
563.00	1441.46
563.35	1439.60
563.71	1438.03
564.06	1436.31
564.42	1434.60
564.77	1433.48
565.12	1432.18
565.48	1430.92
565.83	1429.46
566.19	1427.86
566.54	1426.90
566.89	1424.98
567.25	1423.60
567.60	1422.92
567.96	1422.53
568.31	1421.14
568.66	1419.80
569.02	1417.41
569.37	1416.06
569.72	1414.80
570.08	1413.00
570.43	1411.03
570.78	1408.77
571.14	1406.61
571.49	1404.44
571.84	1402.42
572.20	1399.74
572.55	1396.90
572.90	1393.59
573.26	1390.46
573.61	1387.16
573.96	1383.87
574.31	1380.64
574.67	1377.55
575.02	1373.33
575.37	1368.50
575.72	1364.23
576.08	1360.58
576.43	1356.99
576.78	1353.08
577.13	1348.90
577.49	1345.08
577.84	1341.82
578.19	1338.65
578.54	1335.29
578.90	1332.15
579.25	1329.03
579.60	1325.27
579.95	1321.21
580.30	1317.18
580.66	1313.28
581.01	1309.18
581.36	1304.83
581.71	1300.85
582.06	1296.91
582.42	1293.19
582.77	1289.49
583.12	1286.36
583.47	1282.45
583.82	1279.03
584.17	1275.50
584.53	1272.27
584.88	1268.06
585.23	1263.77
585.58	1258.82
585.93	1254.13
586.28	1249.47
586.63	1244.44
586.98	1239.69
587.34	1235.71
587.69	1231.25
588.04	1227.62
588.39	1223.74
588.74	1219.64
589.09	1215.94
589.44	1211.00
589.79	1206.60
590.14	1202.74
590.49	1198.04
590.84	1193.70
591.19	1189.29
591.54	1184.82
591.89	1180.31
592.25	1177.48
592.60	1173.11
592.95	1169.20
593.30	1164.85
593.65	1160.22
594.00	1155.56
594.35	1153.60
594.70	1148.56
595.05	1144.22
595.40	1139.26
595.75	1134.54
596.10	1130.06
596.45	1125.13
596.80	1121.09
597.15	1116.90
597.50	1111.86
597.85	1107.28
598.19	1102.77
598.54	1097.67
598.89	1093.03
599.24	1088.73
599.59	1083.38
599.94	1078.89
600.29	1074.43
600.64	1070.11
600.99	1065.61
601.34	1061.54
601.69	1054.80
602.04	1050.66
602.39	1046.20
602.74	1042.25
603.08	1037.99
603.43	1034.18
603.78	1029.97
604.13	1025.66
604.48	1020.87
604.83	1016.33
605.18	1012.04
605.53	1007.60
605.87	1003.46
606.22	999.60
606.57	995.16
606.92	990.43
607.27	986.25
607.62	982.46
607.96	978.54
608.31	975.14
608.66	971.45
609.01	967.40
609.36	963.47
609.70	959.59
610.05	955.17
610.40	951.20
610.75	946.55
611.10	942.33
611.44	937.63
611.79	933.70
612.14	929.95
612.49	925.52
612.83	921.54
613.18	917.22
613.53	912.82
613.88	908.00
614.22	903.59
614.57	899.01
614.92	893.79
615.27	889.08
615.61	884.13
615.96	879.26
616.31	874.70
616.65	870.47
617.00	865.81
617.35	861.09
617.70	856.34
618.04	851.93
618.39	847.37
618.74	843.54
619.08	839.10
619.43	834.43
619.78	829.89
620.12	825.34
620.47	820.92
620.82	816.16
621.16	811.86
621.51	808.12
621.85	803.82
622.20	799.66
622.55	795.40
622.89	791.54
623.24	787.33
623.59	783.12
623.93	778.99
624.28	775.18
624.62	772.45
624.97	768.92
625.32	765.21
625.66	761.25
626.01	757.12
626.35	753.34
626.70	749.40
627.04	746.08
627.39	742.10
627.73	738.79
628.08	735.27
628.43	731.62
628.77	727.38
629.12	723.75
629.46	720.40
629.81	717.28
630.15	713.22
630.50	709.38
630.84	705.93
631.19	702.18
631.53	698.54
631.88	693.81
632.22	689.83
632.57	686.39
632.91	682.92
633.26	679.46
633.60	675.58
633.95	671.79
634.29	667.76
634.64	664.40
634.98	660.23
635.32	656.85
635.67	653.76
636.01	650.69
636.36	647.20
636.70	644.18
637.05	640.42
637.39	637.36
637.73	634.48
638.08	631.43
638.42	627.95
638.77	624.47
639.11	620.90
639.45	617.19
639.80	613.41
640.14	610.12
640.49	606.73
640.83	603.67
641.17	600.84
641.52	597.70
641.86	594.49
642.20	592.01
642.55	588.79
642.89	585.63
643.23	582.40
643.58	579.63
643.92	575.95
644.26	573.00
644.61	570.25
644.95	567.15
645.29	563.60
645.64	560.82
645.98	557.80
646.32	555.30
646.66	552.56
647.01	549.78
647.35	547.20
647.69	544.58
648.04	542.29
648.38	539.53
648.72	536.91
649.06	534.00
649.41	530.91
649.75	528.04
650.09	525.19
650.43	522.58
650.78	519.80
651.12	517.27
651.46	514.55
651.80	511.73
652.14	509.12
652.49	507.10
652.83	504.50
653.17	502.20
653.51	499.40
653.85	497.26
654.20	494.95
654.54	492.14
654.88	489.45
655.22	487.20
655.56	484.88
655.90	482.56
656.25	480.48
656.59	478.32
656.93	476.11
657.27	474.12
657.61	471.54
657.95	469.26
658.29	466.99
658.64	464.84
658.98	462.46
659.32	460.11
659.66	457.84
660.00	455.71
660.34	453.53
660.68	451.34
661.02	449.05
661.36	446.84
661.70	444.85
662.05	442.75
662.39	440.56
662.73	438.79
663.07	437.19
663.41	435.09
663.75	432.90
664.09	430.96
664.43	428.74
664.77	426.89
665.11	424.95
665.45	423.11
665.79	421.31
666.13	419.58
666.47	417.76
666.81	415.85
667.15	413.83
667.49	412.20
667.83	410.98
668.17	409.33
668.51	407.75
668.85	406.36
669.19	405.38
669.53	403.36
669.87	401.47
670.21	399.61
670.55	398.00
670.89	396.80
671.23	395.22
671.57	393.64
671.91	392.25
672.25	390.77
672.58	389.43
672.92	387.58
673.26	385.97
673.60	384.57
673.94	383.21
674.28	382.02
674.62	380.56
674.96	378.86
675.30	377.40
675.64	375.93
675.97	374.25
676.31	372.27
676.65	370.79
676.99	369.67
677.33	368.12
677.67	366.71
678.01	364.92
678.34	363.58
678.68	362.33
679.02	360.92
679.36	359.49
679.70	358.04
680.04	357.01
680.37	355.89
680.71	354.71
681.05	353.51
681.39	352.26
681.73	350.89
682.06	349.66
682.40	348.49
682.74	347.31
683.08	346.43
683.42	345.34
683.75	344.24
684.09	342.84
684.43	341.84
684.77	340.79
685.10	339.72
685.44	338.71
685.78	337.50
686.12	336.36
686.45	335.30
686.79	334.16
687.13	333.27
687.46	332.11
687.80	331.24
688.14	330.03
688.48	328.95
688.81	328.02
689.15	327.08
689.49	326.05
689.82	325.09
690.16	323.75
690.50	322.69
690.83	321.73
691.17	320.69
691.51	319.66
691.84	318.74
692.18	317.70
692.52	316.59
692.85	315.82
693.19	315.27
693.52	314.36
693.86	313.47
694.20	312.52
694.53	311.71
694.87	310.54
695.21	309.50
695.54	308.63
695.88	307.55
696.21	306.41
696.55	305.40
696.88	304.49
697.22	303.65
697.56	303.03
697.89	302.16
698.23	301.48
698.56	300.60
698.90	299.92
699.23	299.26
699.57	298.60
699.90	297.80
700.24	296.72
700.58	296.05
700.91	295.56
701.25	295.60
701.58	295.49
701.92	295.08
702.25	294.70
702.59	293.97
702.92	293.51
703.26	293.14
703.59	292.70
703.93	292.97
704.26	292.56
704.60	291.90
704.93	291.36
705.26	290.58
705.60	290.20
705.93	289.48
706.27	289.09
706.60	288.73
706.94	288.42
707.27	287.84
707.61	287.40
707.94	286.73
708.27	285.42
708.61	284.19
708.94	283.54
709.28	282.87
709.61	282.35
709.94	281.77
710.28	281.16
710.61	280.58
710.95	279.09
711.28	279.08
711.61	278.51
711.95	278.10
712.28	277.59
712.61	276.90
712.95	276.89
713.28	276.69
713.61	275.97
713.95	275.17
714.28	274.77
714.61	274.14
714.95	273.52
715.28	272.91
715.61	272.44
715.95	271.96
716.28	271.39
716.61	271.00
716.95	270.22
717.28	269.59
717.61	269.08
717.94	268.63
718.28	267.35
718.61	266.87
718.94	266.31
719.27	265.80
719.61	265.37
719.94	264.55
720.27	263.71
720.60	263.34
720.94	262.89
721.27	262.54
721.60	262.23
721.93	261.86
722.27	261.71
722.60	261.39
722.93	260.83
723.26	260.61
723.59	260.01
723.93	259.95
724.26	259.78
724.59	259.44
724.92	259.27
725.25	259.35
725.59	259.02
725.92	258.80
726.25	258.63
726.58	258.48
726.91	258.19
727.24	257.95
727.57	257.67
727.91	257.31
728.24	257.05
728.57	256.62
728.90	256.53
729.23	255.94
729.56	256.18
729.89	256.00
730.22	255.65
730.55	255.56
730.89	255.31
731.22	255.06
731.55	254.80
731.88	254.58
732.21	254.05
732.54	253.66
732.87	253.38
733.20	253.10
733.53	252.82
733.86	252.69
734.19	252.29
734.52	252.12
734.85	252.54
735.18	252.13
735.51	252.33
735.84	252.03
736.17	252.18
736.50	251.40
736.83	252.26
737.16	252.03
737.49	251.88
737.82	251.60
738.15	251.48
738.48	251.18
738.81	250.85
739.14	250.70
739.47	250.63
739.80	250.49
740.13	250.42
740.46	250.13
740.79	249.79
741.12	249.72
741.45	249.44
741.78	248.66
742.11	248.74
742.44	248.30
742.77	248.20
743.10	247.85
743.43	247.67
743.75	246.44
744.08	247.50
744.41	247.27
744.74	247.11
745.07	246.76
745.40	246.81
745.73	247.06
746.06	246.93
746.39	246.78
746.71	246.49
747.04	246.13
747.37	245.92
747.70	245.97
748.03	245.93
748.36	245.95
748.68	245.83
749.01	245.41
749.34	245.25
749.67	245.18
750.00	245.05
750.33	245.69
750.65	245.62
750.98	244.25
751.31	244.11
751.64	243.92
751.97	244.33
752.29	244.13
752.62	243.59
752.95	243.34
753.28	243.06
753.60	242.90
753.93	243.03
754.26	242.99
754.59	242.51
754.91	242.14
755.24	241.84
755.57	241.74
755.90	241.57
756.22	241.42
756.55	241.24
756.88	240.94
757.20	240.08
757.53	239.73
757.86	239.61
758.19	239.59
758.51	239.50
758.84	238.91
759.17	238.64
759.49	238.54
759.82	238.93
760.15	239.08
760.47	238.95
760.80	238.60
761.13	238.67
761.45	238.56
761.78	238.55
762.11	238.48
762.43	238.30
762.76	238.20
763.08	238.13
763.41	238.02
763.74	237.97
764.06	237.92
764.39	237.85
764.71	237.72
765.04	237.42
765.37	237.15
765.69	237.00
766.02	236.92
766.34	236.72
766.67	236.15
767.00	236.10
767.32	236.50
767.65	236.98
767.97	236.65
768.30	236.80
768.62	236.69
768.95	236.46
769.27	236.30
769.60	236.36
769.92	236.10
770.25	235.82
770.57	235.61
770.90	235.52
771.22	235.30
771.55	235.20
771.87	235.26
772.20	235.33
772.52	235.97
772.85	237.00
773.17	237.04
773.50	237.00
773.82	236.75
774.15	236.33
774.47	235.57
774.80	235.47
775.12	235.30
775.45	235.24
775.77	235.29
776.09	235.27
776.42	235.24
776.74	235.50
777.07	235.43
777.39	235.53
777.72	235.30
778.04	235.50
778.36	235.40
778.69	235.30
779.01	235.32
779.33	234.57
779.66	233.48
779.98	233.31
780.31	233.29
780.63	233.72
780.95	233.69
781.28	233.78
781.60	233.67
781.92	233.52
782.25	233.37
782.57	233.29
782.89	233.23
783.22	233.10
783.54	232.84
783.86	232.90
784.19	232.69
784.51	233.08
784.83	232.82
785.16	232.85
785.48	232.81
785.80	232.89
786.12	232.82
786.45	232.88
786.77	232.96
787.09	232.87
787.42	232.45
787.74	232.45
788.06	232.39
788.38	232.39
788.71	232.27
789.03	232.30
789.35	232.45
789.67	232.39
789.99	232.36
790.32	232.25
790.64	232.26
790.96	233.19
791.28	232.81
791.61	232.80
791.93	232.85
792.25	232.85
792.57	233.35
792.89	233.22
793.21	233.25
793.54	233.13
793.86	233.11
794.18	233.15
794.50	233.01
794.82	232.96
795.14	233.00
795.47	233.26
795.79	233.41
796.11	233.17
796.43	233.06
796.75	233.05
797.07	233.08
797.39	233.02
797.71	232.26
798.04	232.23
798.36	232.25
798.68	232.12
799.00	232.03
799.32	231.54
799.64	231.76
799.96	231.63
800.28	231.86
800.60	231.73
800.92	231.75
801.24	231.65
801.56	231.85
801.89	231.82
802.21	231.84
802.53	231.63
802.85	231.82
803.17	232.20
803.49	232.06
803.81	231.99
804.13	231.90
804.45	231.72
804.77	231.89
805.09	231.98
805.41	232.00
805.73	231.97
806.05	231.75
806.37	231.69
806.69	231.58
807.01	231.42
807.33	231.44
807.65	231.01
807.97	231.39
808.28	231.14
808.60	231.01
808.92	230.80
809.24	231.28
809.56	231.05
809.88	230.78
810.20	230.80
810.52	230.96
810.84	230.82
811.16	230.72
811.48	230.50
811.80	230.79
812.12	230.70
812.43	230.80
812.75	230.74
813.07	230.52
813.39	230.60
813.71	230.43
814.03	230.32
814.35	230.38
814.67	229.96
814.98	229.88
815.30	229.86
815.62	229.61
815.94	228.95
816.26	229.36
816.58	229.08
816.89	229.09
817.21	228.80
