SpectraSuite Data File
++++++++++++++++++++++++++++++++++++
Date: Wed Sep 04 17:29:51 EDT 2013
User: lab3
Dark Spectrum Present: Yes
Reference Spectrum Present: No
Number of Sampled Component Spectra: 1
Spectrometers: USB2E7196
Integration Time (usec): 337000 (USB2E7196)
Spectra Averaged: 10 (USB2E7196)
Boxcar Smoothing: 10 (USB2E7196)
Correct for Electrical Dark: No (USB2E7196)
Strobe/Lamp Enabled: No (USB2E7196)
Correct for Detector Non-linearity: No (USB2E7196)
Correct for Stray Light: No (USB2E7196)
Number of Pixels in Processed Spectrum: 2048
>>>>>Begin Processed Spectral Data<<<<<
339.09	0.00
339.48	210.90
339.86	213.70
340.24	213.40
340.63	216.80
341.01	235.10
341.39	218.30
341.78	222.90
342.16	224.40
342.54	221.70
342.93	212.89
343.31	223.53
343.69	224.25
344.07	224.78
344.46	225.42
344.84	225.91
345.22	225.45
345.60	225.90
345.99	226.11
346.37	226.14
346.75	226.35
347.13	226.38
347.52	226.45
347.90	226.80
348.28	226.83
348.66	227.02
349.05	226.67
349.43	226.85
349.81	227.00
350.19	226.97
350.57	227.09
350.96	227.26
351.34	227.45
351.72	227.47
352.10	227.48
352.48	227.52
352.87	227.50
353.25	227.59
353.63	227.51
354.01	227.50
354.39	227.64
354.77	227.63
355.15	227.91
355.54	227.93
355.92	227.60
356.30	227.60
356.68	228.23
357.06	228.37
357.44	228.22
357.82	228.28
358.20	229.18
358.58	229.18
358.97	229.25
359.35	229.42
359.73	229.70
360.11	229.77
360.49	229.72
360.87	229.74
361.25	229.92
361.63	230.22
362.01	230.34
362.39	230.40
362.77	230.61
363.15	230.59
363.53	230.65
363.91	230.75
364.29	230.84
364.67	230.05
365.05	230.15
365.43	230.36
365.81	230.43
366.19	230.11
366.57	230.45
366.95	230.45
367.33	230.29
367.71	230.29
368.09	230.54
368.47	230.60
368.85	230.69
369.23	230.79
369.61	230.57
369.99	230.83
370.37	230.96
370.75	231.36
371.13	231.12
371.51	230.90
371.89	231.15
372.27	231.20
372.65	231.20
373.03	231.22
373.41	231.09
373.78	231.12
374.16	230.61
374.54	230.32
374.92	230.10
375.30	230.10
375.68	229.94
376.06	230.00
376.44	229.92
376.82	229.91
377.19	229.90
377.57	229.82
377.95	229.52
378.33	229.37
378.71	228.81
379.09	228.96
379.47	229.16
379.84	228.96
380.22	228.80
380.60	228.62
380.98	228.49
381.36	228.38
381.73	228.06
382.11	228.30
382.49	228.32
382.87	228.31
383.25	228.28
383.62	229.24
384.00	229.01
384.38	229.06
384.76	229.20
385.13	229.46
385.51	229.39
385.89	229.21
386.27	229.19
386.64	229.26
387.02	229.15
387.40	228.97
387.78	228.94
388.15	228.97
388.53	228.91
388.91	228.91
389.29	228.85
389.66	229.13
390.04	228.88
390.42	229.06
390.79	229.10
391.17	229.10
391.55	228.10
391.92	228.07
392.30	228.16
392.68	227.85
393.05	227.78
393.43	227.88
393.81	228.00
394.18	227.85
394.56	227.95
394.94	228.18
395.31	228.06
395.69	228.32
396.06	228.48
396.44	228.58
396.82	228.51
397.19	229.08
397.57	228.90
397.95	229.09
398.32	228.86
398.70	228.98
399.07	229.26
399.45	229.24
399.82	229.30
400.20	229.21
400.58	229.53
400.95	229.22
401.33	229.60
401.70	230.38
402.08	230.58
402.45	230.67
402.83	231.07
403.20	231.40
403.58	231.57
403.95	232.06
404.33	232.55
404.71	232.93
405.08	233.63
405.46	234.10
405.83	234.53
406.21	234.97
406.58	235.51
406.96	235.94
407.33	236.59
407.70	237.29
408.08	238.81
408.45	239.57
408.83	240.56
409.20	241.14
409.58	241.38
409.95	242.47
410.33	243.48
410.70	244.17
411.08	245.40
411.45	246.42
411.82	247.34
412.20	248.76
412.57	250.67
412.95	251.24
413.32	252.91
413.69	254.54
414.07	256.37
414.44	258.30
414.82	260.36
415.19	262.69
415.56	265.00
415.94	266.90
416.31	269.62
416.68	272.34
417.06	275.55
417.43	278.80
417.81	282.26
418.18	285.92
418.55	289.84
418.93	293.96
419.30	298.18
419.67	302.73
420.04	307.32
420.42	312.11
420.79	318.55
421.16	324.34
421.54	330.57
421.91	336.59
422.28	343.02
422.66	349.79
423.03	356.83
423.40	363.82
423.77	371.26
424.15	378.91
424.52	386.91
424.89	395.80
425.26	404.03
425.64	412.10
426.01	420.88
426.38	430.30
426.75	439.82
427.13	449.73
427.50	459.86
427.87	470.30
428.24	480.73
428.61	490.28
428.99	501.60
429.36	513.37
429.73	525.32
430.10	537.15
430.47	549.26
430.85	561.61
431.22	575.19
431.59	589.82
431.96	603.39
432.33	618.57
432.70	632.92
433.08	650.53
433.45	666.93
433.82	683.35
434.19	701.40
434.56	719.40
434.93	736.74
435.30	754.06
435.68	773.71
436.05	792.66
436.42	811.65
436.79	829.04
437.16	848.29
437.53	868.29
437.90	888.22
438.27	908.17
438.64	928.96
439.01	948.32
439.38	965.35
439.75	982.23
440.13	1001.31
440.50	1019.47
440.87	1034.14
441.24	1049.37
441.61	1066.41
441.98	1079.29
442.35	1093.99
442.72	1108.61
443.09	1123.24
443.46	1131.93
443.83	1138.59
444.20	1144.55
444.57	1152.53
444.94	1156.39
445.31	1160.54
445.68	1165.19
446.05	1167.05
446.42	1165.71
446.79	1164.14
447.16	1162.29
447.53	1161.10
447.90	1154.33
448.27	1147.67
448.64	1137.89
449.01	1131.52
449.37	1118.76
449.74	1106.34
450.11	1091.66
450.48	1075.35
450.85	1058.31
451.22	1044.34
451.59	1030.55
451.96	1017.31
452.33	999.57
452.70	983.72
453.07	965.14
453.43	945.44
453.80	927.03
454.17	909.23
454.54	892.22
454.91	874.05
455.28	856.15
455.65	839.82
456.02	824.32
456.38	810.40
456.75	792.72
457.12	778.30
457.49	764.05
457.86	750.12
458.23	738.65
458.59	726.02
458.96	712.82
459.33	701.47
459.70	690.06
460.07	680.99
460.43	670.42
460.80	660.66
461.17	652.11
461.54	643.19
461.91	634.88
462.27	626.18
462.64	618.78
463.01	610.96
463.38	603.30
463.74	594.43
464.11	587.69
464.48	581.84
464.85	575.26
465.21	570.52
465.58	565.19
465.95	558.67
466.32	553.69
466.68	548.58
467.05	543.52
467.42	538.28
467.78	532.86
468.15	528.06
468.52	524.39
468.88	519.36
469.25	514.97
469.62	511.43
469.98	507.54
470.35	504.00
470.72	500.65
471.08	496.80
471.45	493.91
471.82	490.90
472.18	487.46
472.55	485.20
472.92	482.27
473.28	479.75
473.65	477.43
474.02	474.96
474.38	472.83
474.75	470.99
475.11	469.15
475.48	467.77
475.85	466.44
476.21	464.85
476.58	463.63
476.94	462.84
477.31	461.80
477.67	460.91
478.04	460.29
478.41	459.70
478.77	460.12
479.14	459.44
479.50	459.11
479.87	459.14
480.23	459.00
480.60	458.70
480.96	458.63
481.33	459.25
481.69	459.43
482.06	459.81
482.42	460.30
482.79	460.85
483.15	461.41
483.52	462.54
483.88	463.40
484.25	464.44
484.61	465.58
484.98	466.56
485.34	468.19
485.71	469.73
486.07	471.44
486.44	472.38
486.80	474.25
487.17	476.30
487.53	478.62
487.90	480.99
488.26	484.08
488.62	487.00
488.99	489.46
489.35	492.38
489.72	495.61
490.08	498.83
490.44	502.16
490.81	505.90
491.17	509.29
491.54	513.40
491.90	517.44
492.26	521.73
492.63	526.13
492.99	530.33
493.36	535.11
493.72	540.18
494.08	545.38
494.45	550.96
494.81	556.73
495.17	562.33
495.54	568.41
495.90	573.96
496.26	580.00
496.63	586.33
496.99	592.66
497.35	599.27
497.72	606.04
498.08	613.10
498.44	620.21
498.80	627.83
499.17	634.76
499.53	642.07
499.89	649.80
500.26	657.56
500.62	665.37
500.98	673.54
501.34	681.32
501.71	689.51
502.07	697.30
502.43	705.23
502.79	713.40
503.16	721.79
503.52	730.31
503.88	738.72
504.24	747.60
504.60	756.58
504.97	765.56
505.33	774.41
505.69	783.66
506.05	792.50
506.41	801.19
506.78	810.33
507.14	819.49
507.50	828.27
507.86	837.43
508.22	846.80
508.59	855.17
508.95	864.25
509.31	873.72
509.67	882.96
510.03	891.46
510.39	900.38
510.75	908.82
511.12	917.41
511.48	925.87
511.84	934.10
512.20	942.59
512.56	950.70
512.92	959.18
513.28	966.97
513.64	975.17
514.00	983.27
514.37	991.20
514.73	999.12
515.09	1006.95
515.45	1014.14
515.81	1021.16
516.17	1028.66
516.53	1035.59
516.89	1041.62
517.25	1048.35
517.61	1056.26
517.97	1063.31
518.33	1070.49
518.69	1077.50
519.05	1084.20
519.41	1090.74
519.77	1097.58
520.13	1103.70
520.49	1109.14
520.85	1115.14
521.21	1121.20
521.57	1126.85
521.93	1132.38
522.29	1137.74
522.65	1142.49
523.01	1147.68
523.37	1152.41
523.73	1157.48
524.09	1161.98
524.45	1166.68
524.81	1171.03
525.17	1174.89
525.53	1179.05
525.89	1182.68
526.25	1186.31
526.61	1189.84
526.97	1193.61
527.33	1197.26
527.68	1202.10
528.04	1206.30
528.40	1210.23
528.76	1213.88
529.12	1217.45
529.48	1220.86
529.84	1224.06
530.20	1228.35
530.56	1232.03
530.91	1235.99
531.27	1239.24
531.63	1242.83
531.99	1246.36
532.35	1249.77
532.71	1253.15
533.07	1256.61
533.42	1260.90
533.78	1264.48
534.14	1268.19
534.50	1271.70
534.86	1275.11
535.21	1277.54
535.57	1280.61
535.93	1282.81
536.29	1285.94
536.65	1288.89
537.00	1291.83
537.36	1294.38
537.72	1296.63
538.08	1299.47
538.44	1301.95
538.79	1304.70
539.15	1307.53
539.51	1310.32
539.87	1312.67
540.22	1314.30
540.58	1316.40
540.94	1317.35
541.29	1318.75
541.65	1320.09
542.01	1321.79
542.37	1322.65
542.72	1323.45
543.08	1324.16
543.44	1326.13
543.79	1326.54
544.15	1327.51
544.51	1329.03
544.87	1330.51
545.22	1330.95
545.58	1331.13
545.94	1331.68
546.29	1331.86
546.65	1331.80
547.01	1331.72
547.36	1332.12
547.72	1332.69
548.07	1332.36
548.43	1332.53
548.79	1332.96
549.14	1333.15
549.50	1333.21
549.86	1333.03
550.21	1333.36
550.57	1333.94
550.92	1333.26
551.28	1333.10
551.64	1333.40
551.99	1333.15
552.35	1332.96
552.70	1333.50
553.06	1334.09
553.41	1334.39
553.77	1334.96
554.13	1335.06
554.48	1335.61
554.84	1336.08
555.19	1336.33
555.55	1337.78
555.90	1337.89
556.26	1337.78
556.61	1337.51
556.97	1336.58
557.32	1336.60
557.68	1336.47
558.03	1336.47
558.39	1336.60
558.74	1336.93
559.10	1336.15
559.45	1335.66
559.81	1335.00
560.16	1333.92
560.52	1332.77
560.87	1331.95
561.23	1330.85
561.58	1331.26
561.94	1329.68
562.29	1328.31
562.64	1327.31
563.00	1324.77
563.35	1324.02
563.71	1323.11
564.06	1322.43
564.42	1321.74
564.77	1321.28
565.12	1320.65
565.48	1320.20
565.83	1319.48
566.19	1318.27
566.54	1317.56
566.89	1316.51
567.25	1316.03
567.60	1316.04
567.96	1316.11
568.31	1315.89
568.66	1315.51
569.02	1313.44
569.37	1312.48
569.72	1311.66
570.08	1310.35
570.43	1309.28
570.78	1307.78
571.14	1306.30
571.49	1304.39
571.84	1302.95
572.20	1300.70
572.55	1298.70
572.90	1295.73
573.26	1293.41
573.61	1291.02
573.96	1288.69
574.31	1285.95
574.67	1283.13
575.02	1279.76
575.37	1276.28
575.72	1272.35
576.08	1269.05
576.43	1265.86
576.78	1262.71
577.13	1259.41
577.49	1256.72
577.84	1253.98
578.19	1251.35
578.54	1248.40
578.90	1246.10
579.25	1243.61
579.60	1241.10
579.95	1237.79
580.30	1234.96
580.66	1231.68
581.01	1228.34
581.36	1224.50
581.71	1221.33
582.06	1218.42
582.42	1215.20
582.77	1212.14
583.12	1209.46
583.47	1206.27
583.82	1203.55
584.17	1200.59
584.53	1197.77
584.88	1193.84
585.23	1190.43
585.58	1186.04
585.93	1182.25
586.28	1178.00
586.63	1173.51
586.98	1169.30
587.34	1165.67
587.69	1161.67
588.04	1158.23
588.39	1154.91
588.74	1151.26
589.09	1148.24
589.44	1144.01
589.79	1140.43
590.14	1136.64
590.49	1132.53
590.84	1128.80
591.19	1125.10
591.54	1121.30
591.89	1116.96
592.25	1114.70
592.60	1110.84
592.95	1107.60
593.30	1103.79
593.65	1100.00
594.00	1096.01
594.35	1094.80
594.70	1090.59
595.05	1086.61
595.40	1082.23
595.75	1077.89
596.10	1074.20
596.45	1069.70
596.80	1065.85
597.15	1061.80
597.50	1057.34
597.85	1053.82
598.19	1049.24
598.54	1044.60
598.89	1040.24
599.24	1036.52
599.59	1031.39
599.94	1027.16
600.29	1022.98
600.64	1019.04
600.99	1015.00
601.34	1011.21
601.69	1004.36
602.04	1000.60
602.39	996.70
602.74	993.41
603.08	989.79
603.43	986.44
603.78	982.59
604.13	978.68
604.48	974.75
604.83	971.07
605.18	966.71
605.53	963.00
605.87	959.18
606.22	955.69
606.57	951.72
606.92	947.56
607.27	943.72
607.62	939.84
607.96	935.90
608.31	932.52
608.66	928.97
609.01	925.36
609.36	921.26
609.70	917.38
610.05	913.07
610.40	909.18
610.75	904.73
611.10	900.87
611.44	896.62
611.79	892.29
612.14	888.29
612.49	884.27
612.83	880.60
613.18	876.92
613.53	873.04
613.88	868.79
614.22	864.64
614.57	860.50
614.92	856.12
615.27	852.30
615.61	847.84
615.96	843.62
616.31	839.54
616.65	836.02
617.00	832.12
617.35	828.14
617.70	824.08
618.04	819.89
618.39	815.80
618.74	812.54
619.08	808.83
619.43	804.54
619.78	800.51
620.12	796.25
620.47	792.05
620.82	787.88
621.16	783.84
621.51	780.42
621.85	776.55
622.20	772.71
622.55	768.51
622.89	764.82
623.24	761.02
623.59	756.96
623.93	752.91
624.28	749.09
624.62	746.13
624.97	742.96
625.32	739.42
625.66	735.60
626.01	731.28
626.35	727.87
626.70	724.46
627.04	721.11
627.39	717.37
627.73	714.19
628.08	710.77
628.43	707.12
628.77	703.19
629.12	699.70
629.46	696.70
629.81	693.80
630.15	690.33
630.50	686.83
630.84	683.67
631.19	680.30
631.53	677.16
631.88	672.92
632.22	669.02
632.57	666.08
632.91	662.99
633.26	660.09
633.60	656.32
633.95	653.08
634.29	649.50
634.64	646.22
634.98	642.44
635.32	639.21
635.67	636.35
636.01	633.42
636.36	630.08
636.70	627.20
637.05	623.75
637.39	620.72
637.73	617.91
638.08	614.90
638.42	611.61
638.77	608.25
639.11	604.89
639.45	601.40
639.80	597.62
640.14	594.17
640.49	590.79
640.83	587.92
641.17	585.10
641.52	582.19
641.86	579.46
642.20	577.28
642.55	574.06
642.89	571.22
643.23	568.33
643.58	566.02
643.92	562.45
644.26	559.63
644.61	557.04
644.95	553.99
645.29	551.08
645.64	548.43
645.98	545.56
646.32	543.19
646.66	540.48
647.01	537.74
647.35	535.59
647.69	533.13
648.04	530.85
648.38	528.04
648.72	525.49
649.06	522.58
649.41	519.54
649.75	516.90
650.09	514.20
650.43	511.45
650.78	508.42
651.12	506.08
651.46	503.51
651.80	500.70
652.14	498.30
652.49	496.04
652.83	493.64
653.17	491.25
653.51	488.58
653.85	486.59
654.20	484.60
654.54	481.86
654.88	479.39
655.22	477.40
655.56	475.16
655.90	472.93
656.25	470.80
656.59	468.40
656.93	466.32
657.27	464.36
657.61	462.04
657.95	459.87
658.29	457.67
658.64	455.73
658.98	453.50
659.32	451.13
659.66	448.70
660.00	446.57
660.34	444.56
660.68	442.70
661.02	440.55
661.36	438.34
661.70	436.35
662.05	434.47
662.39	432.06
662.73	430.41
663.07	428.94
663.41	427.17
663.75	425.30
664.09	423.48
664.43	421.33
664.77	419.61
665.11	417.80
665.45	416.02
665.79	414.15
666.13	412.33
666.47	410.53
666.81	408.72
667.15	406.81
667.49	405.19
667.83	403.75
668.17	402.13
668.51	400.67
668.85	399.30
669.19	398.17
669.53	396.49
669.87	394.49
670.21	392.50
670.55	390.92
670.89	389.98
671.23	388.29
671.57	386.87
671.91	385.43
672.25	383.99
672.58	382.76
672.92	381.07
673.26	379.75
673.60	378.44
673.94	377.21
674.28	376.04
674.62	374.78
674.96	373.13
675.30	371.70
675.64	370.30
675.97	368.91
676.31	367.11
676.65	365.71
676.99	364.80
677.33	363.46
677.67	362.20
678.01	360.40
678.34	359.29
678.68	358.11
679.02	356.77
679.36	355.51
679.70	354.22
680.04	353.18
680.37	352.03
680.71	350.80
681.05	349.69
681.39	348.64
681.73	347.61
682.06	346.50
682.40	345.37
682.74	344.38
683.08	343.50
683.42	342.37
683.75	341.36
684.09	339.96
684.43	338.80
684.77	337.59
685.10	336.67
685.44	335.58
685.78	334.33
686.12	333.22
686.45	332.20
686.79	331.02
687.13	330.01
687.46	328.93
687.80	328.22
688.14	327.26
688.48	326.02
688.81	324.86
689.15	324.10
689.49	323.04
689.82	322.02
690.16	320.65
690.50	319.83
690.83	318.91
691.17	317.85
691.51	316.98
691.84	316.28
692.18	315.22
692.52	314.35
692.85	313.63
693.19	313.20
693.52	312.43
693.86	311.40
694.20	310.52
694.53	309.80
694.87	308.72
695.21	307.60
695.54	306.80
695.88	305.83
696.21	304.67
696.55	303.93
696.88	302.95
697.22	302.08
697.56	301.21
697.89	300.26
698.23	299.56
698.56	298.71
698.90	297.96
699.23	297.16
699.57	296.41
699.90	295.56
700.24	294.50
700.58	293.77
700.91	293.41
701.25	293.53
701.58	293.43
701.92	293.00
702.25	292.46
702.59	291.76
702.92	291.11
703.26	290.66
703.59	290.00
703.93	290.29
704.26	289.92
704.60	289.39
704.93	288.83
705.26	288.30
705.60	288.00
705.93	287.27
706.27	286.98
706.60	286.67
706.94	286.54
707.27	285.96
707.61	285.57
707.94	284.95
708.27	283.54
708.61	282.38
708.94	281.78
709.28	281.23
709.61	280.72
709.94	280.26
710.28	279.62
710.61	279.14
710.95	277.73
711.28	277.70
711.61	277.02
711.95	276.75
712.28	276.13
712.61	275.47
712.95	275.52
713.28	275.25
713.61	274.53
713.95	273.66
714.28	273.32
714.61	272.53
714.95	271.94
715.28	271.38
715.61	270.80
715.95	270.33
716.28	269.81
716.61	269.50
716.95	268.87
717.28	268.45
717.61	267.96
717.94	267.54
718.28	266.42
718.61	266.07
718.94	265.51
719.27	265.16
719.61	264.91
719.94	264.20
720.27	263.40
720.60	262.86
720.94	262.45
721.27	261.98
721.60	261.87
721.93	261.44
722.27	261.52
722.60	261.29
722.93	260.90
723.26	260.75
723.59	260.32
723.93	260.28
724.26	260.02
724.59	259.67
724.92	259.44
725.25	259.38
725.59	259.11
725.92	258.86
726.25	258.57
726.58	258.21
726.91	257.83
727.24	257.63
727.57	257.36
727.91	257.00
728.24	256.85
728.57	256.49
728.90	256.47
729.23	255.82
729.56	255.96
729.89	255.70
730.22	255.43
730.55	255.14
730.89	254.91
731.22	254.68
731.55	254.53
731.88	254.27
732.21	253.79
732.54	253.45
732.87	253.24
733.20	253.07
733.53	252.80
733.86	252.67
734.19	252.42
734.52	252.46
734.85	252.87
735.18	252.53
735.51	252.63
735.84	252.35
736.17	252.44
736.50	251.69
736.83	252.58
737.16	252.22
737.49	251.96
737.82	251.60
738.15	251.55
738.48	251.34
738.81	251.16
739.14	250.93
739.47	250.75
739.80	250.44
740.13	250.22
740.46	249.79
740.79	249.44
741.12	249.13
741.45	248.67
741.78	248.02
742.11	248.07
742.44	247.62
742.77	247.58
743.10	247.25
743.43	247.02
743.75	245.67
744.08	246.80
744.41	246.70
744.74	246.49
745.07	245.93
745.40	245.88
745.73	246.06
746.06	245.99
746.39	246.00
746.71	245.74
747.04	245.46
747.37	245.31
747.70	245.32
748.03	245.26
748.36	245.27
748.68	245.06
749.01	244.69
749.34	244.55
749.67	244.35
750.00	244.40
750.33	245.04
750.65	245.10
750.98	243.77
751.31	243.63
751.64	243.51
751.97	243.98
752.29	243.74
752.62	243.15
752.95	242.85
753.28	242.43
753.60	242.36
753.93	242.49
754.26	242.48
754.59	242.16
754.91	241.92
755.24	241.75
755.57	241.71
755.90	241.53
756.22	241.20
756.55	240.82
756.88	240.33
757.20	239.55
757.53	239.16
757.86	239.01
758.19	238.94
758.51	238.82
758.84	238.24
759.17	238.00
759.49	237.92
759.82	238.38
760.15	238.48
760.47	238.18
760.80	237.81
761.13	237.94
761.45	237.75
761.78	237.66
762.11	237.66
762.43	237.41
762.76	237.30
763.08	237.34
763.41	237.43
763.74	237.48
764.06	237.39
764.39	237.44
764.71	237.29
765.04	237.13
765.37	237.02
765.69	236.92
766.02	236.81
766.34	236.75
766.67	236.33
767.00	236.36
767.32	236.93
767.65	237.49
767.97	237.28
768.30	237.27
768.62	237.17
768.95	236.98
769.27	236.95
769.60	236.93
769.92	236.81
770.25	236.54
770.57	236.30
770.90	236.19
771.22	236.02
771.55	236.01
771.87	235.99
772.20	235.88
772.52	236.66
772.85	237.92
773.17	237.83
773.50	237.71
773.82	237.58
774.15	237.08
774.47	236.39
774.80	236.27
775.12	236.20
775.45	236.25
775.77	236.28
776.09	236.33
776.42	236.37
776.74	236.54
777.07	236.49
777.39	236.54
777.72	236.45
778.04	236.44
778.36	236.31
778.69	236.23
779.01	236.29
779.33	235.44
779.66	234.14
779.98	234.09
780.31	233.99
780.63	234.29
780.95	234.36
781.28	234.33
781.60	234.18
781.92	234.13
782.25	234.04
782.57	233.96
782.89	233.81
783.22	233.72
783.54	233.50
783.86	233.65
784.19	233.51
784.51	233.74
784.83	233.60
785.16	233.50
785.48	233.45
785.80	233.39
786.12	233.46
786.45	233.49
786.77	233.53
787.09	233.50
787.42	233.07
787.74	233.14
788.06	233.13
788.38	233.01
788.71	232.83
789.03	232.78
789.35	232.86
789.67	232.58
789.99	232.57
790.32	232.31
790.64	232.26
790.96	232.92
791.28	232.57
791.61	232.44
791.93	232.58
792.25	232.50
792.57	233.05
792.89	232.79
793.21	232.77
793.54	232.60
793.86	232.54
794.18	232.53
794.50	232.24
794.82	232.28
795.14	232.42
795.47	232.58
795.79	232.64
796.11	232.37
796.43	232.40
796.75	232.33
797.07	232.41
797.39	232.31
797.71	231.67
798.04	231.66
798.36	231.68
798.68	231.54
799.00	231.57
799.32	231.09
799.64	231.22
799.96	231.13
800.28	231.19
800.60	230.98
800.92	231.12
801.24	231.14
801.56	231.04
801.89	230.88
802.21	231.03
802.53	230.79
802.85	230.99
803.17	231.36
803.49	231.17
803.81	231.10
804.13	231.04
804.45	230.98
804.77	231.14
805.09	231.20
805.41	231.09
805.73	230.93
806.05	230.68
806.37	230.60
806.69	230.52
807.01	230.54
807.33	230.68
807.65	230.30
807.97	230.74
808.28	230.62
808.60	230.59
808.92	230.40
809.24	231.06
809.56	230.85
809.88	230.55
810.20	230.67
810.52	230.88
810.84	230.77
811.16	230.68
811.48	230.57
811.80	230.80
812.12	230.81
812.43	231.05
812.75	231.19
813.07	231.12
813.39	231.18
813.71	231.01
814.03	230.97
814.35	231.00
814.67	230.54
814.98	230.52
815.30	230.61
815.62	230.46
815.94	229.76
816.26	230.18
816.58	230.07
816.89	230.06
817.21	229.81
817.53	229.88
817.85	229.98
