SpectraSuite Data File
++++++++++++++++++++++++++++++++++++
Date: Wed Sep 04 17:33:18 EDT 2013
User: lab3
Dark Spectrum Present: Yes
Reference Spectrum Present: No
Number of Sampled Component Spectra: 1
Spectrometers: USB2E7196
Integration Time (usec): 337000 (USB2E7196)
Spectra Averaged: 10 (USB2E7196)
Boxcar Smoothing: 10 (USB2E7196)
Correct for Electrical Dark: No (USB2E7196)
Strobe/Lamp Enabled: No (USB2E7196)
Correct for Detector Non-linearity: No (USB2E7196)
Correct for Stray Light: No (USB2E7196)
Number of Pixels in Processed Spectrum: 2048
>>>>>Begin Processed Spectral Data<<<<<
339.09	0.00
339.48	212.20
339.86	215.10
340.24	215.10
340.63	217.50
341.01	233.40
341.39	219.40
341.78	222.10
342.16	225.40
342.54	223.10
342.93	213.03
343.31	223.66
343.69	224.19
344.07	224.64
344.46	225.16
344.84	225.58
345.22	225.18
345.60	225.66
345.99	225.87
346.37	225.91
346.75	225.98
347.13	226.01
347.52	226.18
347.90	226.56
348.28	226.59
348.66	226.79
349.05	226.49
349.43	226.73
349.81	226.72
350.19	226.68
350.57	226.78
350.96	226.88
351.34	227.10
351.72	227.24
352.10	227.31
352.48	227.29
352.87	227.38
353.25	227.46
353.63	227.27
354.01	227.33
354.39	227.50
354.77	227.60
355.15	227.87
355.54	227.69
355.92	227.41
356.30	227.54
356.68	228.10
357.06	228.20
357.44	228.07
357.82	228.15
358.20	229.10
358.58	229.10
358.97	229.27
359.35	229.60
359.73	229.83
360.11	229.90
360.49	229.97
360.87	229.94
361.25	230.12
361.63	230.54
362.01	230.66
362.39	230.60
362.77	230.65
363.15	230.57
363.53	230.66
363.91	230.75
364.29	230.79
364.67	229.92
365.05	230.02
365.43	230.22
365.81	230.37
366.19	230.12
366.57	230.58
366.95	230.58
367.33	230.20
367.71	230.23
368.09	230.42
368.47	230.51
368.85	230.54
369.23	230.75
369.61	230.43
369.99	230.77
370.37	230.97
370.75	231.53
371.13	231.49
371.51	231.39
371.89	231.43
372.27	231.42
372.65	231.55
373.03	231.62
373.41	231.53
373.78	231.43
374.16	230.92
374.54	230.51
374.92	230.42
375.30	230.55
375.68	230.35
376.06	230.31
376.44	230.23
376.82	230.24
377.19	230.08
377.57	230.07
377.95	229.68
378.33	229.45
378.71	228.81
379.09	228.80
379.47	228.90
379.84	228.84
380.22	228.70
380.60	228.50
380.98	228.41
381.36	228.37
381.73	228.27
382.11	228.45
382.49	228.44
382.87	228.28
383.25	228.18
383.62	229.24
384.00	229.18
384.38	229.13
384.76	229.35
385.13	229.66
385.51	229.54
385.89	229.36
386.27	229.40
386.64	229.57
387.02	229.53
387.40	229.38
387.78	229.49
388.15	229.54
388.53	229.48
388.91	229.37
389.29	229.27
389.66	229.44
390.04	229.30
390.42	229.45
390.79	229.54
391.17	229.45
391.55	228.36
391.92	228.30
392.30	228.45
392.68	228.22
393.05	228.11
393.43	228.24
393.81	228.40
394.18	228.33
394.56	228.37
394.94	228.51
395.31	228.56
395.69	228.78
396.06	228.92
396.44	229.03
396.82	228.96
397.19	229.53
397.57	229.35
397.95	229.49
398.32	229.25
398.70	229.36
399.07	229.70
399.45	229.71
399.82	229.68
400.20	229.72
400.58	229.72
400.95	229.43
401.33	229.56
401.70	230.28
402.08	230.32
402.45	230.32
402.83	230.66
403.20	230.80
403.58	230.90
403.95	231.18
404.33	231.49
404.71	231.73
405.08	232.37
405.46	232.61
405.83	232.88
406.21	233.27
406.58	233.59
406.96	233.88
407.33	234.32
407.70	234.90
408.08	236.05
408.45	236.67
408.83	237.42
409.20	237.80
409.58	237.74
409.95	238.57
410.33	239.29
410.70	239.62
411.08	240.43
411.45	241.04
411.82	241.62
412.20	242.60
412.57	244.01
412.95	244.12
413.32	245.40
413.69	246.52
414.07	247.70
414.44	248.97
414.82	250.32
415.19	251.92
415.56	253.39
415.94	254.28
416.31	256.02
416.68	257.74
417.06	259.93
417.43	262.04
417.81	264.10
418.18	266.46
418.55	268.96
418.93	271.56
419.30	274.19
419.67	277.16
420.04	280.01
420.42	282.90
420.79	287.15
421.16	290.74
421.54	294.79
421.91	298.64
422.28	302.54
422.66	306.68
423.03	311.27
423.40	315.53
423.77	320.09
424.15	324.72
424.52	329.63
424.89	335.10
425.26	340.18
425.64	345.19
426.01	350.44
426.38	355.97
426.75	361.86
427.13	367.84
427.50	373.95
427.87	380.15
428.24	386.49
428.61	392.07
428.99	398.96
429.36	405.71
429.73	412.77
430.10	419.99
430.47	427.50
430.85	434.45
431.22	442.59
431.59	451.70
431.96	460.03
432.33	468.84
432.70	477.49
433.08	487.43
433.45	496.89
433.82	506.48
434.19	517.20
434.56	527.85
434.93	537.70
435.30	547.79
435.68	559.09
436.05	569.90
436.42	580.63
436.79	590.50
437.16	601.68
437.53	613.00
437.90	624.09
438.27	635.12
438.64	646.88
439.01	657.52
439.38	666.83
439.75	676.09
440.13	686.69
440.50	696.36
440.87	704.68
441.24	713.22
441.61	722.29
441.98	729.02
442.35	736.67
442.72	744.92
443.09	752.90
443.46	757.37
443.83	760.54
444.20	763.19
444.57	766.81
444.94	768.10
445.31	770.00
445.68	772.94
446.05	773.19
446.42	771.61
446.79	770.20
447.16	768.03
447.53	766.37
447.90	761.75
448.27	756.99
448.64	750.85
449.01	746.06
449.37	738.42
449.74	730.79
450.11	722.34
450.48	712.29
450.85	701.78
451.22	693.20
451.59	684.96
451.96	676.98
452.33	666.59
452.70	657.23
453.07	645.92
453.43	633.52
453.80	622.80
454.17	612.53
454.54	602.55
454.91	592.10
455.28	581.97
455.65	572.37
456.02	564.44
456.38	556.07
456.75	546.20
457.12	537.72
457.49	529.55
457.86	520.96
458.23	514.43
458.59	506.94
458.96	499.31
459.33	492.55
459.70	485.93
460.07	480.77
460.43	474.71
460.80	469.24
461.17	464.36
461.54	459.23
461.91	454.20
462.27	449.02
462.64	444.71
463.01	440.01
463.38	435.86
463.74	430.02
464.11	426.18
464.48	422.83
464.85	419.04
465.21	416.51
465.58	413.42
465.95	409.52
466.32	406.77
466.68	403.96
467.05	401.12
467.42	398.30
467.78	395.25
468.15	392.50
468.52	390.57
468.88	387.58
469.25	384.94
469.62	383.22
469.98	381.31
470.35	379.40
470.72	377.50
471.08	375.06
471.45	373.55
471.82	372.00
472.18	370.01
472.55	368.88
472.92	366.92
473.28	365.49
473.65	364.04
474.02	362.60
474.38	361.44
474.75	360.57
475.11	359.33
475.48	358.50
475.85	357.57
476.21	356.43
476.58	355.80
476.94	355.50
477.31	354.69
477.67	353.96
478.04	353.39
478.41	353.00
478.77	353.64
479.14	352.96
479.50	352.60
479.87	352.68
480.23	352.54
480.60	352.25
480.96	352.17
481.33	352.64
481.69	352.68
482.06	352.77
482.42	352.90
482.79	353.37
483.15	353.65
483.52	354.21
483.88	354.55
484.25	354.96
484.61	355.30
484.98	355.63
485.34	356.52
485.71	357.43
486.07	358.19
486.44	358.11
486.80	359.08
487.17	360.07
487.53	361.26
487.90	362.48
488.26	364.34
488.62	365.93
488.99	367.19
489.35	368.88
489.72	370.48
490.08	372.11
490.44	373.91
490.81	375.90
491.17	377.89
491.54	380.31
491.90	382.81
492.26	385.47
492.63	388.22
492.99	390.70
493.36	393.61
493.72	396.82
494.08	400.06
494.45	403.68
494.81	407.35
495.17	410.77
495.54	414.67
495.90	418.20
496.26	422.18
496.63	426.43
496.99	430.71
497.35	435.40
497.72	440.09
498.08	444.68
498.44	449.56
498.80	454.91
499.17	460.08
499.53	465.47
499.89	471.03
500.26	476.90
500.62	482.80
500.98	488.97
501.34	495.28
501.71	502.16
502.07	508.90
502.43	515.46
502.79	522.46
503.16	529.79
503.52	537.24
503.88	544.76
504.24	552.55
504.60	560.72
504.97	569.22
505.33	577.85
505.69	587.03
506.05	596.27
506.41	605.35
506.78	614.80
507.14	624.45
507.50	634.56
507.86	644.74
508.22	655.14
508.59	665.52
508.95	676.13
509.31	687.22
509.67	698.27
510.03	709.62
510.39	721.20
510.75	732.85
511.12	744.71
511.48	756.91
511.84	769.13
512.20	781.60
512.56	794.17
512.92	807.29
513.28	820.32
513.64	833.26
514.00	846.74
514.37	860.73
514.73	874.60
515.09	888.60
515.45	902.65
515.81	916.76
516.17	930.99
516.53	945.50
516.89	959.66
517.25	974.52
517.61	990.30
517.97	1006.20
518.33	1021.79
518.69	1037.52
519.05	1053.57
519.41	1069.88
519.77	1086.70
520.13	1102.88
520.49	1118.61
520.85	1137.83
521.21	1154.75
521.57	1171.62
521.93	1187.24
522.29	1204.07
522.65	1219.95
523.01	1236.42
523.37	1252.94
523.73	1269.50
524.09	1285.92
524.45	1302.64
524.81	1318.96
525.17	1335.32
525.53	1351.52
525.89	1368.18
526.25	1384.66
526.61	1400.68
526.97	1417.10
527.33	1433.64
527.68	1451.52
528.04	1468.90
528.40	1482.97
528.76	1499.90
529.12	1516.25
529.48	1533.64
529.84	1549.93
530.20	1567.60
530.56	1584.74
530.91	1602.03
531.27	1619.15
531.63	1635.87
531.99	1652.61
532.35	1669.65
532.71	1686.59
533.07	1703.40
533.42	1720.34
533.78	1736.82
534.14	1754.06
534.50	1770.50
534.86	1786.69
535.21	1801.08
535.57	1816.83
535.93	1832.28
536.29	1847.78
536.65	1863.93
537.00	1878.97
537.36	1893.75
537.72	1907.61
538.08	1922.69
538.44	1936.71
538.79	1951.09
539.15	1965.77
539.51	1979.95
539.87	1993.30
540.22	2005.44
540.58	2018.38
540.94	2029.85
541.29	2041.60
541.65	2052.53
542.01	2063.89
542.37	2073.87
542.72	2084.00
543.08	2093.70
543.44	2104.16
543.79	2113.31
544.15	2122.12
544.51	2131.39
544.87	2141.18
545.22	2150.22
545.58	2157.41
545.94	2164.92
546.29	2171.64
546.65	2178.31
547.01	2184.05
547.36	2190.29
547.72	2196.61
548.07	2201.96
548.43	2208.09
548.79	2213.69
549.14	2218.50
549.50	2223.66
549.86	2228.61
550.21	2233.52
550.57	2238.42
550.92	2241.19
551.28	2244.79
551.64	2248.55
551.99	2252.33
552.35	2255.30
552.70	2258.46
553.06	2262.77
553.41	2266.51
553.77	2270.88
554.13	2274.36
554.48	2278.32
554.84	2281.29
555.19	2285.02
555.55	2288.95
555.90	2290.40
556.26	2292.39
556.61	2293.82
556.97	2293.85
557.32	2295.49
557.68	2297.44
558.03	2298.47
558.39	2299.98
558.74	2301.39
559.10	2301.35
559.45	2301.07
559.81	2300.46
560.16	2298.92
560.52	2296.86
560.87	2295.52
561.23	2293.76
561.58	2291.93
561.94	2288.74
562.29	2285.58
562.64	2282.11
563.00	2277.40
563.35	2274.84
563.71	2271.84
564.06	2269.62
564.42	2267.63
564.77	2264.81
565.12	2261.22
565.48	2258.82
565.83	2256.12
566.19	2252.67
566.54	2249.17
566.89	2245.76
567.25	2242.18
567.60	2240.07
567.96	2237.41
568.31	2233.82
568.66	2229.55
569.02	2224.57
569.37	2220.74
569.72	2217.62
570.08	2213.29
570.43	2208.77
570.78	2204.29
571.14	2199.25
571.49	2193.72
571.84	2188.63
572.20	2183.02
572.55	2177.70
572.90	2170.30
573.26	2163.70
573.61	2156.92
573.96	2150.52
574.31	2143.21
574.67	2135.72
575.02	2127.20
575.37	2118.82
575.72	2110.58
576.08	2102.77
576.43	2095.10
576.78	2086.83
577.13	2077.91
577.49	2069.63
577.84	2062.48
578.19	2054.81
578.54	2047.42
578.90	2040.01
579.25	2032.04
579.60	2023.90
579.95	2015.33
580.30	2007.10
580.66	1998.01
581.01	1989.02
581.36	1979.58
581.71	1970.89
582.06	1962.86
582.42	1954.81
582.77	1946.30
583.12	1938.34
583.47	1929.89
583.82	1921.91
584.17	1913.89
584.53	1906.31
584.88	1897.46
585.23	1888.16
585.58	1878.03
585.93	1868.61
586.28	1859.17
586.63	1849.25
586.98	1838.73
587.34	1829.43
587.69	1819.93
588.04	1811.51
588.39	1803.05
588.74	1794.38
589.09	1786.19
589.44	1776.38
589.79	1768.04
590.14	1759.50
590.49	1750.61
590.84	1741.85
591.19	1732.99
591.54	1724.02
591.89	1714.89
592.25	1707.93
592.60	1699.32
592.95	1691.28
593.30	1682.65
593.65	1673.46
594.00	1664.47
594.35	1658.74
594.70	1649.89
595.05	1641.42
595.40	1631.98
595.75	1622.60
596.10	1613.94
596.45	1604.73
596.80	1597.11
597.15	1587.41
597.50	1578.27
597.85	1569.56
598.19	1560.11
598.54	1550.95
598.89	1542.04
599.24	1533.68
599.59	1523.78
599.94	1515.02
600.29	1506.52
600.64	1497.90
600.99	1489.27
601.34	1481.58
601.69	1470.85
602.04	1462.60
602.39	1454.46
602.74	1447.06
603.08	1439.29
603.43	1431.70
603.78	1423.41
604.13	1415.18
604.48	1407.46
604.83	1399.33
605.18	1390.63
605.53	1382.78
605.87	1374.59
606.22	1367.41
606.57	1359.03
606.92	1350.84
607.27	1342.85
607.62	1335.30
607.96	1327.97
608.31	1321.16
608.66	1313.77
609.01	1306.60
609.36	1298.99
609.70	1291.60
610.05	1283.91
610.40	1276.63
610.75	1268.73
611.10	1261.77
611.44	1253.42
611.79	1245.65
612.14	1238.37
612.49	1231.53
612.83	1224.78
613.18	1217.79
613.53	1210.39
613.88	1202.99
614.22	1195.78
614.57	1188.58
614.92	1180.80
615.27	1173.45
615.61	1166.02
615.96	1158.42
616.31	1151.08
616.65	1144.48
617.00	1137.39
617.35	1130.16
617.70	1122.75
618.04	1115.60
618.39	1108.60
618.74	1102.41
619.08	1095.94
619.43	1088.81
619.78	1081.48
620.12	1074.08
620.47	1067.10
620.82	1059.73
621.16	1052.95
621.51	1046.72
621.85	1039.85
622.20	1033.11
622.55	1026.00
622.89	1019.27
623.24	1012.93
623.59	1006.04
623.93	999.29
624.28	992.55
624.62	987.13
624.97	981.43
625.32	975.38
625.66	968.84
626.01	962.46
626.35	956.31
626.70	950.12
627.04	944.60
627.39	938.62
627.73	933.17
628.08	927.58
628.43	921.44
628.77	915.17
629.12	909.78
629.46	904.77
629.81	899.97
630.15	894.60
630.50	888.90
630.84	883.86
631.19	878.44
631.53	873.60
631.88	867.30
632.22	861.45
632.57	856.68
632.91	851.56
633.26	846.50
633.60	840.97
633.95	835.81
634.29	829.96
634.64	824.78
634.98	818.81
635.32	813.83
635.67	809.37
636.01	804.54
636.36	799.19
636.70	793.99
637.05	788.83
637.39	784.11
637.73	779.36
638.08	774.49
638.42	769.14
638.77	763.48
639.11	757.95
639.45	752.88
639.80	747.16
640.14	741.99
640.49	737.12
640.83	732.49
641.17	728.06
641.52	723.77
641.86	719.36
642.20	715.65
642.55	711.00
642.89	706.24
643.23	701.59
643.58	697.94
643.92	693.27
644.26	688.83
644.61	684.58
644.95	680.20
645.29	675.80
645.64	672.00
645.98	668.26
646.32	664.83
646.66	660.80
647.01	656.94
647.35	653.46
647.69	649.53
648.04	646.01
648.38	642.41
648.72	638.72
649.06	634.69
649.41	630.44
649.75	626.40
650.09	622.72
650.43	619.01
650.78	614.72
651.12	611.11
651.46	607.30
651.80	603.60
652.14	600.01
652.49	596.67
652.83	593.02
653.17	589.46
653.51	585.73
653.85	582.31
654.20	579.10
654.54	575.27
654.88	571.84
655.22	568.64
655.56	565.24
655.90	561.92
656.25	558.72
656.59	555.77
656.93	552.72
657.27	549.89
657.61	546.51
657.95	543.36
658.29	540.28
658.64	537.36
658.98	533.87
659.32	530.50
659.66	527.30
660.00	524.39
660.34	521.30
660.68	518.17
661.02	515.31
661.36	512.27
661.70	509.56
662.05	506.71
662.39	503.93
662.73	501.12
663.07	498.69
663.41	496.05
663.75	493.09
664.09	490.45
664.43	487.47
664.77	485.04
665.11	482.39
665.45	479.93
665.79	477.38
666.13	474.84
666.47	472.36
666.81	469.76
667.15	467.04
667.49	464.74
667.83	463.01
668.17	460.65
668.51	458.26
668.85	455.98
669.19	454.20
669.53	451.54
669.87	449.21
670.21	446.53
670.55	444.37
670.89	442.78
671.23	440.44
671.57	438.23
671.91	436.00
672.25	434.04
672.58	432.15
672.92	429.75
673.26	427.80
673.60	425.99
673.94	424.16
674.28	422.38
674.62	420.56
674.96	418.17
675.30	416.21
675.64	414.48
675.97	412.40
676.31	410.05
676.65	408.06
676.99	406.40
677.33	404.41
677.67	402.52
678.01	400.03
678.34	398.23
678.68	396.63
679.02	394.82
679.36	393.07
679.70	391.17
680.04	389.68
680.37	388.05
680.71	386.29
681.05	384.75
681.39	383.27
681.73	381.54
682.06	379.87
682.40	378.38
682.74	376.76
683.08	375.67
683.42	374.02
683.75	372.66
684.09	370.97
684.43	369.69
684.77	368.26
685.10	366.96
685.44	365.72
685.78	364.25
686.12	362.88
686.45	361.47
686.79	359.93
687.13	358.73
687.46	357.40
687.80	356.26
688.14	354.79
688.48	353.37
688.81	352.02
689.15	351.04
689.49	349.75
689.82	348.50
690.16	346.88
690.50	345.71
690.83	344.35
691.17	343.03
691.51	341.70
691.84	340.43
692.18	339.26
692.52	337.95
692.85	336.90
693.19	336.22
693.52	335.09
693.86	333.93
694.20	332.56
694.53	331.40
694.87	330.06
695.21	328.83
695.54	327.65
695.88	326.45
696.21	325.10
696.55	324.00
696.88	322.71
697.22	321.51
697.56	320.58
697.89	319.47
698.23	318.66
698.56	317.64
698.90	316.79
699.23	315.63
699.57	314.68
699.90	313.60
700.24	312.23
700.58	311.27
700.91	310.61
701.25	310.38
701.58	310.26
701.92	309.73
702.25	308.89
702.59	308.06
702.92	307.24
703.26	306.42
703.59	305.56
703.93	305.67
704.26	305.15
704.60	304.32
704.93	303.56
705.26	302.55
705.60	301.81
705.93	300.77
706.27	300.37
706.60	299.84
706.94	299.42
707.27	298.60
707.61	297.92
707.94	297.15
708.27	295.78
708.61	294.25
708.94	293.45
709.28	292.85
709.61	292.05
709.94	291.50
710.28	290.90
710.61	290.22
710.95	288.67
711.28	288.49
711.61	287.76
711.95	287.31
712.28	286.55
712.61	286.04
712.95	285.99
713.28	285.76
713.61	284.94
713.95	284.03
714.28	283.54
714.61	282.81
714.95	282.08
715.28	281.30
715.61	280.70
715.95	280.00
716.28	279.12
716.61	278.79
716.95	278.07
717.28	277.39
717.61	276.73
717.94	276.28
718.28	274.99
718.61	274.41
718.94	273.69
719.27	273.27
719.61	272.76
719.94	271.94
720.27	270.91
720.60	270.36
720.94	269.81
721.27	269.35
721.60	269.23
721.93	268.84
722.27	268.85
722.60	268.54
722.93	268.17
723.26	267.98
723.59	267.39
723.93	267.20
724.26	266.96
724.59	266.64
724.92	266.39
725.25	266.31
725.59	265.97
725.92	265.66
726.25	265.27
726.58	264.95
726.91	264.54
727.24	264.33
727.57	263.98
727.91	263.54
728.24	263.23
728.57	262.63
728.90	262.33
729.23	261.59
729.56	261.74
729.89	261.42
730.22	260.97
730.55	260.43
730.89	259.99
731.22	259.48
731.55	259.09
731.88	258.61
732.21	258.16
732.54	257.71
732.87	257.57
733.20	257.33
733.53	257.04
733.86	256.81
734.19	256.42
734.52	256.39
734.85	256.77
735.18	256.39
735.51	256.42
735.84	256.29
736.17	256.30
736.50	255.48
736.83	256.26
737.16	256.08
737.49	256.00
737.82	255.63
738.15	255.56
738.48	255.28
738.81	255.15
739.14	254.72
739.47	254.51
739.80	254.10
740.13	253.92
740.46	253.40
740.79	253.03
741.12	252.70
741.45	252.22
741.78	251.44
742.11	251.48
742.44	250.97
742.77	250.78
743.10	250.37
743.43	250.05
743.75	248.69
744.08	249.61
744.41	249.39
744.74	249.16
745.07	248.74
745.40	248.71
745.73	248.80
746.06	248.64
746.39	248.64
746.71	248.38
747.04	248.03
747.37	247.94
747.70	247.86
748.03	247.68
748.36	247.67
748.68	247.39
749.01	246.85
749.34	246.71
749.67	246.44
750.00	246.42
750.33	246.96
750.65	246.89
750.98	245.56
751.31	245.38
751.64	245.20
751.97	245.64
752.29	245.45
752.62	244.89
752.95	244.64
753.28	244.32
753.60	244.14
753.93	244.19
754.26	244.13
754.59	243.77
754.91	243.52
755.24	243.31
755.57	243.14
755.90	242.92
756.22	242.74
756.55	242.42
756.88	242.10
757.20	241.37
757.53	240.99
757.86	240.80
758.19	240.72
758.51	240.65
758.84	239.97
759.17	239.58
759.49	239.50
759.82	239.93
760.15	239.83
760.47	239.76
760.80	239.46
761.13	239.34
761.45	239.22
761.78	239.19
762.11	239.04
762.43	238.90
762.76	238.83
763.08	238.71
763.41	238.75
763.74	238.68
764.06	238.59
764.39	238.49
764.71	238.37
765.04	238.10
765.37	237.89
765.69	237.78
766.02	237.77
766.34	237.60
766.67	237.10
767.00	237.21
767.32	237.44
767.65	237.84
767.97	237.80
768.30	237.73
768.62	237.60
768.95	237.29
769.27	237.15
769.60	237.24
769.92	237.12
770.25	236.83
770.57	236.54
770.90	236.40
771.22	236.27
771.55	236.24
771.87	236.15
772.20	236.12
772.52	236.79
772.85	237.80
773.17	237.68
773.50	237.61
773.82	237.22
774.15	236.78
774.47	236.12
774.80	235.91
775.12	235.80
775.45	235.73
775.77	235.79
776.09	235.80
776.42	235.69
776.74	235.85
777.07	235.81
777.39	235.90
777.72	235.74
778.04	235.77
778.36	235.69
778.69	235.73
779.01	235.73
779.33	234.80
779.66	233.60
779.98	233.49
780.31	233.37
780.63	233.89
780.95	234.11
781.28	234.06
781.60	233.83
781.92	233.82
782.25	233.72
782.57	233.80
782.89	233.78
783.22	233.63
783.54	233.37
783.86	233.40
784.19	233.26
784.51	233.56
784.83	233.47
785.16	233.44
785.48	233.37
785.80	233.26
786.12	233.48
786.45	233.51
786.77	233.60
787.09	233.60
787.42	233.24
787.74	233.07
788.06	233.08
788.38	233.20
788.71	233.10
789.03	233.15
789.35	233.05
789.67	232.92
789.99	233.02
790.32	232.88
790.64	232.93
790.96	233.67
791.28	233.26
791.61	233.18
791.93	233.11
792.25	233.11
792.57	233.69
792.89	233.45
793.21	233.45
793.54	233.31
793.86	233.18
794.18	233.11
794.50	233.03
794.82	233.00
795.14	232.98
795.47	233.18
795.79	233.20
796.11	233.00
796.43	232.77
796.75	232.76
797.07	232.84
797.39	232.77
797.71	232.03
798.04	232.17
798.36	232.28
798.68	232.33
799.00	232.38
799.32	231.97
799.64	232.05
799.96	232.06
800.28	232.19
800.60	232.11
800.92	232.15
801.24	232.11
801.56	232.18
801.89	232.15
802.21	232.18
802.53	232.00
802.85	232.32
803.17	232.90
803.49	232.60
803.81	232.46
804.13	232.35
804.45	232.23
804.77	232.26
805.09	232.19
805.41	231.99
805.73	231.72
806.05	231.43
806.37	231.53
806.69	231.44
807.01	231.36
807.33	231.43
807.65	231.02
807.97	231.40
808.28	231.22
808.60	231.20
808.92	231.01
809.24	231.52
809.56	231.17
809.88	230.75
810.20	230.79
810.52	231.09
810.84	230.87
811.16	230.81
811.48	230.72
811.80	230.95
812.12	230.97
812.43	231.13
812.75	231.22
813.07	230.87
813.39	230.88
813.71	230.75
814.03	230.55
814.35	230.67
814.67	230.16
814.98	230.13
815.30	229.92
815.62	229.68
815.94	229.14
816.26	229.57
816.58	229.43
816.89	229.53
817.21	229.18
