SpectraSuite Data File
++++++++++++++++++++++++++++++++++++
Date: Wed Sep 04 17:31:48 EDT 2013
User: lab3
Dark Spectrum Present: Yes
Reference Spectrum Present: No
Number of Sampled Component Spectra: 1
Spectrometers: USB2E7196
Integration Time (usec): 337000 (USB2E7196)
Spectra Averaged: 10 (USB2E7196)
Boxcar Smoothing: 10 (USB2E7196)
Correct for Electrical Dark: No (USB2E7196)
Strobe/Lamp Enabled: No (USB2E7196)
Correct for Detector Non-linearity: No (USB2E7196)
Correct for Stray Light: No (USB2E7196)
Number of Pixels in Processed Spectrum: 2048
>>>>>Begin Processed Spectral Data<<<<<
339.09	0.00
339.48	212.60
339.86	214.80
340.24	215.10
340.63	217.60
341.01	233.80
341.39	218.90
341.78	222.60
342.16	228.20
342.54	223.00
342.93	213.45
343.31	224.18
343.69	224.74
344.07	225.16
344.46	225.77
344.84	226.19
345.22	225.76
345.60	226.18
345.99	226.36
346.37	226.21
346.75	226.29
347.13	226.31
347.52	226.36
347.90	226.70
348.28	226.71
348.66	226.93
349.05	226.59
349.43	226.75
349.81	226.74
350.19	226.80
350.57	226.88
350.96	226.97
351.34	227.07
351.72	227.11
352.10	227.24
352.48	227.14
352.87	227.14
353.25	227.19
353.63	227.11
354.01	227.18
354.39	227.36
354.77	227.47
355.15	227.78
355.54	227.60
355.92	227.46
356.30	227.46
356.68	228.07
357.06	228.19
357.44	228.01
357.82	228.07
358.20	228.90
358.58	228.92
358.97	228.94
359.35	229.14
359.73	229.33
360.11	229.34
360.49	229.45
360.87	229.59
361.25	229.75
361.63	230.11
362.01	230.10
362.39	230.08
362.77	230.19
363.15	230.10
363.53	230.35
363.91	230.33
364.29	230.49
364.67	229.74
365.05	229.81
365.43	230.10
365.81	230.25
366.19	229.93
366.57	230.25
366.95	230.21
367.33	230.00
367.71	230.10
368.09	230.32
368.47	230.32
368.85	230.25
369.23	230.49
369.61	230.22
369.99	230.62
370.37	230.68
370.75	231.18
371.13	230.93
371.51	230.70
371.89	230.86
372.27	230.95
372.65	230.99
373.03	231.03
373.41	230.79
373.78	230.65
374.16	230.11
374.54	229.85
374.92	229.80
375.30	229.80
375.68	229.55
376.06	229.55
376.44	229.36
376.82	229.40
377.19	229.30
377.57	229.25
377.95	228.81
378.33	228.75
378.71	228.01
379.09	228.17
379.47	228.21
379.84	227.91
380.22	227.64
380.60	227.36
380.98	227.20
381.36	227.19
381.73	227.04
382.11	227.14
382.49	227.08
382.87	226.88
383.25	226.81
383.62	227.85
384.00	227.65
384.38	227.70
384.76	227.79
385.13	227.96
385.51	227.82
385.89	227.76
386.27	227.68
386.64	227.84
387.02	227.65
387.40	227.62
387.78	227.66
388.15	227.72
388.53	227.67
388.91	227.57
389.29	227.47
389.66	227.60
390.04	227.51
390.42	227.69
390.79	227.67
391.17	227.60
391.55	226.58
391.92	226.56
392.30	226.67
392.68	226.40
393.05	226.26
393.43	226.32
393.81	226.38
394.18	226.26
394.56	226.29
394.94	226.59
395.31	226.52
395.69	226.75
396.06	226.79
396.44	226.97
396.82	226.92
397.19	227.43
397.57	227.35
397.95	227.50
398.32	227.24
398.70	227.42
399.07	227.77
399.45	227.75
399.82	227.67
400.20	227.60
400.58	227.77
400.95	227.56
401.33	227.86
401.70	228.52
402.08	228.75
402.45	228.90
402.83	229.11
403.20	229.31
403.58	229.37
403.95	229.74
404.33	229.91
404.71	230.27
405.08	230.97
405.46	231.22
405.83	231.58
406.21	231.90
406.58	232.29
406.96	232.39
407.33	232.90
407.70	233.58
408.08	234.77
408.45	235.34
408.83	236.08
409.20	236.51
409.58	236.64
409.95	237.42
410.33	238.01
410.70	238.43
411.08	239.38
411.45	240.19
411.82	240.81
412.20	242.03
412.57	243.54
412.95	243.80
413.32	245.00
413.69	246.05
414.07	247.37
414.44	248.67
414.82	250.11
415.19	251.72
415.56	253.17
415.94	254.34
416.31	256.23
416.68	258.23
417.06	260.35
417.43	262.67
417.81	265.00
418.18	267.58
418.55	270.28
418.93	272.93
419.30	275.78
419.67	278.87
420.04	281.80
420.42	284.68
420.79	289.16
421.16	292.89
421.54	297.31
421.91	301.33
422.28	305.55
422.66	310.09
423.03	314.89
423.40	319.46
423.77	324.46
424.15	329.25
424.52	334.29
424.89	340.27
425.26	345.40
425.64	350.56
426.01	356.27
426.38	362.23
426.75	368.58
427.13	374.96
427.50	381.67
427.87	388.48
428.24	395.34
428.61	401.14
428.99	408.60
429.36	415.94
429.73	423.54
430.10	431.18
430.47	439.14
430.85	446.79
431.22	455.43
431.59	464.98
431.96	473.87
432.33	483.38
432.70	492.45
433.08	503.58
433.45	514.01
433.82	524.31
434.19	535.79
434.56	547.17
434.93	558.00
435.30	568.75
435.68	580.93
436.05	592.61
436.42	604.53
436.79	615.64
437.16	627.55
437.53	640.15
437.90	652.64
438.27	664.78
438.64	677.63
439.01	689.52
439.38	699.64
439.75	709.98
440.13	721.77
440.50	732.76
440.87	741.66
441.24	750.97
441.61	761.25
441.98	768.86
442.35	777.41
442.72	786.20
443.09	795.27
443.46	800.48
443.83	804.40
444.20	807.46
444.57	811.49
444.94	813.32
445.31	815.60
445.68	818.65
446.05	819.63
446.42	818.21
446.79	817.10
447.16	815.55
447.53	814.32
447.90	809.78
448.27	804.90
448.64	798.66
449.01	793.86
449.37	785.62
449.74	777.46
450.11	768.40
450.48	758.08
450.85	746.71
451.22	737.39
451.59	728.43
451.96	720.21
452.33	708.98
452.70	698.98
453.07	686.75
453.43	673.45
453.80	661.75
454.17	650.68
454.54	639.52
454.91	627.97
455.28	616.79
455.65	606.19
456.02	597.46
456.38	588.50
456.75	577.80
457.12	568.60
457.49	560.00
457.86	550.84
458.23	543.62
458.59	535.90
458.96	527.96
459.33	520.79
459.70	513.38
460.07	507.84
460.43	501.39
460.80	495.50
461.17	490.48
461.54	484.82
461.91	479.43
462.27	474.15
462.64	469.45
463.01	464.40
463.38	459.91
463.74	453.46
464.11	449.14
464.48	445.35
464.85	441.38
465.21	438.36
465.58	435.09
465.95	430.91
466.32	427.53
466.68	424.23
467.05	421.22
467.42	418.19
467.78	414.84
468.15	411.65
468.52	409.30
468.88	405.80
469.25	402.89
469.62	400.84
469.98	398.45
470.35	396.34
470.72	394.35
471.08	391.66
471.45	390.05
471.82	388.23
472.18	386.13
472.55	384.59
472.92	382.53
473.28	380.89
473.65	379.19
474.02	377.64
474.38	376.19
474.75	374.94
475.11	373.54
475.48	372.38
475.85	371.53
476.21	370.45
476.58	369.85
476.94	369.21
477.31	368.22
477.67	367.40
478.04	366.60
478.41	366.02
478.77	366.46
479.14	365.70
479.50	365.32
479.87	365.01
480.23	364.70
480.60	364.31
480.96	363.97
481.33	364.26
481.69	364.14
482.06	364.17
482.42	364.04
482.79	364.19
483.15	364.44
483.52	364.69
483.88	364.76
484.25	364.85
484.61	365.25
484.98	365.75
485.34	366.62
485.71	367.49
486.07	367.96
486.44	367.79
486.80	368.60
487.17	369.21
487.53	370.42
487.90	371.41
488.26	372.92
488.62	374.30
488.99	375.34
489.35	376.70
489.72	378.07
490.08	379.41
490.44	380.79
490.81	382.44
491.17	383.90
491.54	385.79
491.90	387.72
492.26	389.48
492.63	391.34
492.99	393.19
493.36	395.27
493.72	397.48
494.08	399.77
494.45	402.32
494.81	404.99
495.17	407.25
495.54	410.06
495.90	412.42
496.26	415.01
496.63	417.75
496.99	420.70
497.35	423.70
497.72	426.84
498.08	429.83
498.44	432.96
498.80	436.40
499.17	439.44
499.53	442.53
499.89	446.11
500.26	449.46
500.62	452.95
500.98	456.56
501.34	460.12
501.71	463.75
502.07	467.17
502.43	470.62
502.79	474.07
503.16	477.50
503.52	481.15
503.88	484.73
504.24	488.58
504.60	492.17
504.97	496.14
505.33	500.01
505.69	504.47
506.05	508.43
506.41	512.35
506.78	516.43
507.14	520.51
507.50	524.41
507.86	528.51
508.22	532.44
508.59	535.95
508.95	540.08
509.31	544.66
509.67	548.80
510.03	552.84
510.39	556.93
510.75	561.03
511.12	564.96
511.48	568.80
511.84	572.61
512.20	576.49
512.56	580.21
512.92	584.09
513.28	587.78
513.64	591.40
514.00	595.25
514.37	599.28
514.73	603.34
515.09	607.31
515.45	611.37
515.81	615.47
516.17	619.55
516.53	623.48
516.89	626.90
517.25	630.79
517.61	635.30
517.97	639.50
518.33	643.92
518.69	648.39
519.05	653.07
519.41	657.66
519.77	662.79
520.13	667.23
520.49	671.50
520.85	678.42
521.21	683.44
521.57	688.01
521.93	692.09
522.29	696.59
522.65	700.73
523.01	704.90
523.37	708.97
523.73	713.51
524.09	717.89
524.45	722.34
524.81	726.90
525.17	731.09
525.53	735.87
525.89	740.07
526.25	744.68
526.61	748.98
526.97	753.53
527.33	757.74
527.68	763.40
528.04	768.57
528.40	771.06
528.76	776.11
529.12	781.10
529.48	786.49
529.84	791.49
530.20	797.12
530.56	802.92
530.91	808.60
531.27	814.48
531.63	820.06
531.99	825.89
532.35	831.77
532.71	837.68
533.07	843.43
533.42	850.28
533.78	856.15
534.14	862.49
534.50	868.44
534.86	874.76
535.21	879.78
535.57	886.02
535.93	891.75
536.29	898.17
536.65	904.48
537.00	910.70
537.36	917.23
537.72	923.06
538.08	929.26
538.44	935.37
538.79	941.53
539.15	947.70
539.51	953.78
539.87	959.56
540.22	965.37
540.58	971.32
540.94	976.26
541.29	982.03
541.65	987.07
542.01	992.68
542.37	997.73
542.72	1002.75
543.08	1007.78
543.44	1013.21
543.79	1017.50
544.15	1022.46
544.51	1027.88
544.87	1032.64
545.22	1037.66
545.58	1042.23
545.94	1046.72
546.29	1050.75
546.65	1055.16
547.01	1059.30
547.36	1063.71
547.72	1068.19
548.07	1072.46
548.43	1076.72
548.79	1080.62
549.14	1085.16
549.50	1089.40
549.86	1093.33
550.21	1097.93
550.57	1102.25
550.92	1106.12
551.28	1110.40
551.64	1114.35
551.99	1118.19
552.35	1121.67
552.70	1125.14
553.06	1128.95
553.41	1132.62
553.77	1137.18
554.13	1140.96
554.48	1144.93
554.84	1148.60
555.19	1151.94
555.55	1156.28
555.90	1159.32
556.26	1162.34
556.61	1165.06
556.97	1167.33
557.32	1170.37
557.68	1172.99
558.03	1175.45
558.39	1178.21
558.74	1180.69
559.10	1182.39
559.45	1184.42
559.81	1186.90
560.16	1189.01
560.52	1190.77
560.87	1193.07
561.23	1194.18
561.58	1196.45
561.94	1197.34
562.29	1198.26
562.64	1199.81
563.00	1199.92
563.35	1201.56
563.71	1203.21
564.06	1204.52
564.42	1206.20
564.77	1207.48
565.12	1209.24
565.48	1211.35
565.83	1212.53
566.19	1213.51
566.54	1215.20
566.89	1216.07
567.25	1216.67
567.60	1218.23
567.96	1220.15
568.31	1221.37
568.66	1222.18
569.02	1221.84
569.37	1222.74
569.72	1223.77
570.08	1223.99
570.43	1224.16
570.78	1223.84
571.14	1223.56
571.49	1223.35
571.84	1223.11
572.20	1222.56
572.55	1221.58
572.90	1219.53
573.26	1218.55
573.61	1217.31
573.96	1215.99
574.31	1214.56
574.67	1213.32
575.02	1211.05
575.37	1208.48
575.72	1205.76
576.08	1203.87
576.43	1201.87
576.78	1199.72
577.13	1197.06
577.49	1194.56
577.84	1192.56
578.19	1190.66
578.54	1188.84
578.90	1187.17
579.25	1185.10
579.60	1182.88
579.95	1180.52
580.30	1178.39
580.66	1175.66
581.01	1173.28
581.36	1170.20
581.71	1167.55
582.06	1165.08
582.42	1162.79
582.77	1159.93
583.12	1157.71
583.47	1154.96
583.82	1152.70
584.17	1150.04
584.53	1147.99
584.88	1145.08
585.23	1142.43
585.58	1138.96
585.93	1135.60
586.28	1131.74
586.63	1128.16
586.98	1124.58
587.34	1121.18
587.69	1117.45
588.04	1114.64
588.39	1111.21
588.74	1108.14
589.09	1105.30
589.44	1101.35
589.79	1097.89
590.14	1095.00
590.49	1091.39
590.84	1088.23
591.19	1085.19
591.54	1081.69
591.89	1077.85
592.25	1075.99
592.60	1072.24
592.95	1069.17
593.30	1065.80
593.65	1062.38
594.00	1058.74
594.35	1057.78
594.70	1053.95
595.05	1050.72
595.40	1046.74
595.75	1042.75
596.10	1039.32
596.45	1035.17
596.80	1031.95
597.15	1028.11
597.50	1023.70
597.85	1020.08
598.19	1015.89
598.54	1011.68
598.89	1007.70
599.24	1004.15
599.59	999.43
599.94	995.60
600.29	991.80
600.64	988.00
600.99	984.19
601.34	980.56
601.69	974.54
602.04	970.87
602.39	967.19
602.74	963.50
603.08	960.39
603.43	956.93
603.78	953.00
604.13	949.01
604.48	944.98
604.83	941.22
605.18	937.29
605.53	933.66
605.87	929.72
606.22	926.33
606.57	922.29
606.92	917.97
607.27	914.18
607.62	910.36
607.96	906.71
608.31	903.45
608.66	900.13
609.01	896.49
609.36	892.69
609.70	889.10
610.05	885.36
610.40	881.44
610.75	877.38
611.10	874.05
611.44	869.94
611.79	866.29
612.14	862.79
612.49	858.80
612.83	855.19
613.18	851.27
613.53	847.37
613.88	843.68
614.22	839.97
614.57	835.98
614.92	832.17
615.27	828.07
615.61	824.00
615.96	819.85
616.31	815.67
616.65	812.26
617.00	807.96
617.35	803.95
617.70	800.02
618.04	796.20
618.39	792.40
618.74	789.39
619.08	785.78
619.43	781.81
619.78	778.00
620.12	773.98
620.47	770.20
620.82	766.20
621.16	762.18
621.51	758.89
621.85	755.46
622.20	751.90
622.55	748.04
622.89	744.37
623.24	740.82
623.59	737.34
623.93	733.62
624.28	730.18
624.62	727.67
624.97	724.59
625.32	720.94
625.66	717.08
626.01	713.16
626.35	709.82
626.70	706.32
627.04	703.33
627.39	699.98
627.73	696.89
628.08	693.77
628.43	690.34
628.77	686.39
629.12	682.90
629.46	679.60
629.81	676.81
630.15	673.43
630.50	670.00
630.84	666.65
631.19	663.49
631.53	660.61
631.88	656.61
632.22	653.07
632.57	650.27
632.91	647.11
633.26	644.34
633.60	641.19
633.95	638.05
634.29	634.38
634.64	631.13
634.98	627.81
635.32	624.87
635.67	622.31
636.01	619.36
636.36	616.20
636.70	613.37
637.05	609.90
637.39	607.20
637.73	604.49
638.08	601.88
638.42	598.48
638.77	595.07
639.11	591.79
639.45	588.45
639.80	585.01
640.14	582.14
640.49	579.06
640.83	576.04
641.17	573.37
641.52	570.82
641.86	568.12
642.20	565.94
642.55	563.09
642.89	560.08
643.23	557.57
643.58	555.35
643.92	552.20
644.26	549.71
644.61	547.15
644.95	544.40
645.29	541.44
645.64	539.11
645.98	536.69
646.32	534.38
646.66	531.87
647.01	529.55
647.35	527.28
647.69	524.80
648.04	522.47
648.38	520.11
648.72	517.52
649.06	514.87
649.41	511.82
649.75	508.92
650.09	506.50
650.43	503.89
650.78	501.09
651.12	498.69
651.46	496.20
651.80	493.64
652.14	491.07
652.49	489.00
652.83	486.69
653.17	484.36
653.51	481.77
653.85	479.81
654.20	477.43
654.54	475.04
654.88	472.59
655.22	470.68
655.56	468.22
655.90	466.21
656.25	464.22
656.59	462.12
656.93	460.29
657.27	458.43
657.61	456.23
657.95	454.25
658.29	452.30
658.64	450.50
658.98	448.27
659.32	446.18
659.66	443.92
660.00	441.82
660.34	439.87
660.68	437.84
661.02	435.91
661.36	434.06
661.70	431.94
662.05	429.94
662.39	427.90
662.73	426.32
663.07	424.89
663.41	422.98
663.75	421.03
664.09	419.34
664.43	417.13
664.77	415.51
665.11	413.52
665.45	411.75
665.79	409.95
666.13	408.28
666.47	406.60
666.81	405.00
667.15	403.17
667.49	401.52
667.83	400.33
668.17	398.44
668.51	396.87
668.85	395.60
669.19	394.82
669.53	392.96
669.87	391.22
670.21	389.28
670.55	387.82
670.89	386.85
671.23	385.21
671.57	383.96
671.91	382.51
672.25	381.12
672.58	379.82
672.92	378.15
673.26	376.82
673.60	375.47
673.94	373.99
674.28	372.84
674.62	371.59
674.96	369.99
675.30	368.90
675.64	367.50
675.97	366.01
676.31	364.04
676.65	362.76
676.99	361.97
677.33	360.70
677.67	359.49
678.01	357.76
678.34	356.57
678.68	355.40
679.02	354.08
679.36	352.90
679.70	351.81
680.04	350.71
680.37	349.63
680.71	348.36
681.05	347.31
681.39	346.26
681.73	345.07
682.06	344.05
682.40	342.86
682.74	342.00
683.08	341.32
683.42	340.42
683.75	339.39
684.09	337.91
684.43	336.84
684.77	335.69
685.10	334.64
685.44	333.65
685.78	332.55
686.12	331.40
686.45	330.39
686.79	329.16
687.13	328.34
687.46	327.22
687.80	326.56
688.14	325.55
688.48	324.55
688.81	323.63
689.15	322.90
689.49	321.93
689.82	320.95
690.16	319.65
690.50	318.60
690.83	317.64
691.17	316.51
691.51	315.63
691.84	315.01
692.18	314.22
692.52	313.11
692.85	312.35
693.19	311.96
693.52	311.19
693.86	310.30
694.20	309.30
694.53	308.55
694.87	307.48
695.21	306.57
695.54	305.64
695.88	304.51
696.21	303.21
696.55	302.30
696.88	301.32
697.22	300.46
697.56	299.83
697.89	299.03
698.23	298.49
698.56	297.71
698.90	296.90
699.23	296.07
699.57	295.53
699.90	294.62
700.24	293.57
700.58	292.90
700.91	292.30
701.25	292.39
701.58	292.30
701.92	292.00
702.25	291.40
702.59	290.72
702.92	290.44
703.26	289.98
703.59	289.29
703.93	289.61
704.26	289.11
704.60	288.62
704.93	287.93
705.26	287.26
705.60	286.70
705.93	285.85
706.27	285.43
706.60	285.04
706.94	284.99
707.27	284.45
707.61	283.95
707.94	283.45
708.27	282.29
708.61	281.07
708.94	280.37
709.28	280.01
709.61	279.40
709.94	278.74
710.28	278.30
710.61	277.89
710.95	276.48
711.28	276.50
711.61	275.84
711.95	275.64
712.28	274.99
712.61	274.60
712.95	274.61
713.28	274.58
713.61	273.97
713.95	273.10
714.28	272.66
714.61	272.03
714.95	271.48
715.28	270.84
715.61	270.37
715.95	269.94
716.28	269.20
716.61	268.87
716.95	268.35
717.28	267.88
717.61	267.40
717.94	266.95
718.28	265.80
718.61	265.45
718.94	264.82
719.27	264.49
719.61	263.97
719.94	263.33
720.27	262.46
720.60	262.01
720.94	261.71
721.27	261.43
721.60	261.30
721.93	261.01
722.27	260.94
722.60	260.76
722.93	260.32
723.26	260.20
723.59	259.95
723.93	259.85
724.26	259.51
724.59	259.29
724.92	259.08
725.25	259.22
725.59	258.83
725.92	258.65
726.25	258.41
726.58	258.34
726.91	258.09
727.24	257.91
727.57	257.72
727.91	257.28
728.24	257.11
728.57	256.75
728.90	256.61
729.23	256.16
729.56	256.24
729.89	255.94
730.22	255.60
730.55	255.28
730.89	254.96
731.22	254.79
731.55	254.53
731.88	254.33
732.21	253.82
732.54	253.57
732.87	253.32
733.20	253.04
733.53	252.73
733.86	252.56
734.19	252.20
734.52	252.03
734.85	252.57
735.18	252.20
735.51	252.29
735.84	252.01
736.17	251.99
736.50	251.30
736.83	252.24
737.16	252.05
737.49	251.87
737.82	251.51
738.15	251.46
738.48	251.22
738.81	250.89
739.14	250.61
739.47	250.44
739.80	250.21
740.13	250.13
740.46	249.77
740.79	249.41
741.12	249.20
741.45	248.87
741.78	248.10
742.11	248.11
742.44	247.58
742.77	247.49
743.10	247.13
743.43	246.98
743.75	245.72
744.08	246.76
744.41	246.46
744.74	246.29
745.07	245.83
745.40	245.82
745.73	246.06
746.06	245.94
746.39	245.85
746.71	245.70
747.04	245.48
747.37	245.29
747.70	245.30
748.03	245.34
748.36	245.30
748.68	245.08
749.01	244.65
749.34	244.50
749.67	244.30
750.00	244.24
750.33	244.76
750.65	244.68
750.98	243.40
751.31	243.30
751.64	243.21
751.97	243.61
752.29	243.40
752.62	242.88
752.95	242.71
753.28	242.58
753.60	242.39
753.93	242.45
754.26	242.40
754.59	242.08
754.91	241.74
755.24	241.56
755.57	241.45
755.90	241.42
756.22	241.32
756.55	241.09
756.88	240.87
757.20	240.08
757.53	239.74
757.86	239.64
758.19	239.66
758.51	239.55
758.84	238.94
759.17	238.80
759.49	238.75
759.82	239.12
760.15	239.04
760.47	238.96
760.80	238.60
761.13	238.67
761.45	238.54
761.78	238.56
762.11	238.55
762.43	238.36
762.76	238.15
763.08	238.17
763.41	238.23
763.74	238.10
764.06	238.08
764.39	238.04
764.71	237.90
765.04	237.66
765.37	237.59
765.69	237.59
766.02	237.50
766.34	237.34
766.67	236.82
767.00	236.77
767.32	237.21
767.65	237.71
767.97	237.45
768.30	237.41
768.62	237.36
768.95	237.04
769.27	237.10
769.60	237.23
769.92	236.97
770.25	236.63
770.57	236.58
770.90	236.51
771.22	236.31
771.55	236.24
771.87	236.20
772.20	236.09
772.52	236.77
772.85	237.78
773.17	237.66
773.50	237.52
773.82	237.39
774.15	236.82
774.47	236.17
774.80	236.03
775.12	235.95
775.45	235.76
775.77	235.75
776.09	235.65
776.42	235.48
776.74	235.67
777.07	235.59
777.39	235.53
777.72	235.28
778.04	235.49
778.36	235.40
778.69	235.35
779.01	235.34
779.33	234.36
779.66	233.22
779.98	233.20
780.31	233.21
780.63	233.51
780.95	233.69
781.28	233.64
781.60	233.54
781.92	233.47
782.25	233.38
782.57	233.39
782.89	233.27
783.22	233.19
783.54	232.93
783.86	232.97
784.19	232.84
784.51	233.18
784.83	233.03
785.16	232.92
785.48	232.81
785.80	232.85
786.12	232.99
786.45	232.95
786.77	232.91
787.09	232.81
787.42	232.46
787.74	232.38
788.06	232.25
788.38	232.20
788.71	232.04
789.03	232.13
789.35	232.15
789.67	231.91
789.99	231.86
790.32	231.79
790.64	231.87
790.96	232.67
791.28	232.24
791.61	232.10
791.93	232.20
792.25	232.22
792.57	232.80
792.89	232.55
793.21	232.57
793.54	232.48
793.86	232.39
794.18	232.38
794.50	232.03
794.82	232.10
795.14	232.23
795.47	232.31
795.79	232.28
796.11	232.04
796.43	232.17
796.75	232.29
797.07	232.19
797.39	232.14
797.71	231.26
798.04	231.32
798.36	231.34
798.68	231.21
799.00	231.18
799.32	230.64
799.64	230.83
799.96	230.82
800.28	231.01
800.60	230.98
800.92	230.94
801.24	231.02
801.56	231.06
801.89	230.95
802.21	231.06
802.53	230.84
802.85	231.17
803.17	231.54
803.49	231.35
803.81	231.46
804.13	231.38
804.45	231.35
804.77	231.45
805.09	231.53
805.41	231.46
805.73	231.36
806.05	231.13
806.37	231.08
806.69	231.02
807.01	230.98
807.33	231.06
807.65	230.82
807.97	231.33
808.28	231.30
808.60	231.26
808.92	231.07
809.24	231.65
809.56	231.41
809.88	231.09
810.20	231.03
810.52	231.16
810.84	231.04
811.16	230.96
811.48	230.81
811.80	231.12
812.12	231.13
812.43	231.32
812.75	231.40
813.07	231.15
813.39	231.09
813.71	230.87
814.03	230.88
814.35	230.93
814.67	230.45
814.98	230.33
815.30	230.32
815.62	230.24
815.94	229.63
816.26	230.05
816.58	229.86
816.89	229.97
817.21	229.63
817.53	229.67
817.85	229.69
818.17	229.70
818.48	229.24
818.80	229.46
819.12	229.30
819.44	229.10
819.76	229.12
820.07	229.20
820.39	229.18
