SpectraSuite Data File
++++++++++++++++++++++++++++++++++++
Date: Wed Sep 04 17:33:28 EDT 2013
User: lab3
Dark Spectrum Present: Yes
Reference Spectrum Present: No
Number of Sampled Component Spectra: 1
Spectrometers: USB2E7196
Integration Time (usec): 337000 (USB2E7196)
Spectra Averaged: 10 (USB2E7196)
Boxcar Smoothing: 10 (USB2E7196)
Correct for Electrical Dark: No (USB2E7196)
Strobe/Lamp Enabled: No (USB2E7196)
Correct for Detector Non-linearity: No (USB2E7196)
Correct for Stray Light: No (USB2E7196)
Number of Pixels in Processed Spectrum: 2048
>>>>>Begin Processed Spectral Data<<<<<
339.09	0.00
339.48	213.00
339.86	213.70
340.24	214.80
340.63	216.30
341.01	231.80
341.39	218.90
341.78	222.60
342.16	224.20
342.54	222.90
342.93	212.85
343.31	223.54
343.69	224.00
344.07	224.54
344.46	225.13
344.84	225.56
345.22	225.31
345.60	225.71
345.99	225.90
346.37	226.12
346.75	226.17
347.13	226.21
347.52	226.33
347.90	226.67
348.28	226.77
348.66	226.96
349.05	226.60
349.43	226.81
349.81	226.86
350.19	226.93
350.57	227.04
350.96	227.19
351.34	227.28
351.72	227.56
352.10	227.63
352.48	227.48
352.87	227.61
353.25	227.60
353.63	227.52
354.01	227.60
354.39	227.63
354.77	227.76
355.15	228.20
355.54	228.16
355.92	227.87
356.30	227.90
356.68	228.50
357.06	228.73
357.44	228.61
357.82	228.53
358.20	229.38
358.58	229.33
358.97	229.41
359.35	229.70
359.73	229.85
360.11	229.80
360.49	230.03
360.87	230.02
361.25	230.16
361.63	230.61
362.01	230.69
362.39	230.67
362.77	230.74
363.15	230.65
363.53	230.68
363.91	230.86
364.29	230.94
364.67	230.06
365.05	230.11
365.43	230.33
365.81	230.64
366.19	230.34
366.57	230.77
366.95	230.78
367.33	230.54
367.71	230.47
368.09	230.75
368.47	230.77
368.85	230.81
369.23	231.09
369.61	230.75
369.99	231.10
370.37	231.15
370.75	231.66
371.13	231.37
371.51	231.22
371.89	231.27
372.27	231.30
372.65	231.29
373.03	231.21
373.41	231.09
373.78	230.91
374.16	230.52
374.54	230.17
374.92	230.05
375.30	229.95
375.68	229.83
376.06	229.85
376.44	229.73
376.82	229.70
377.19	229.48
377.57	229.46
377.95	228.96
378.33	228.80
378.71	228.13
379.09	228.33
379.47	228.47
379.84	228.33
380.22	228.17
380.60	228.03
380.98	228.05
381.36	227.85
381.73	227.62
382.11	227.75
382.49	227.71
382.87	227.53
383.25	227.58
383.62	228.44
384.00	228.13
384.38	228.08
384.76	228.21
385.13	228.57
385.51	228.40
385.89	228.33
386.27	228.43
386.64	228.54
387.02	228.40
387.40	228.18
387.78	228.12
388.15	228.08
388.53	228.00
388.91	227.84
389.29	227.80
389.66	227.92
390.04	227.61
390.42	227.83
390.79	227.97
391.17	227.90
391.55	227.00
391.92	227.10
392.30	227.27
392.68	227.04
393.05	226.96
393.43	227.09
393.81	227.20
394.18	227.00
394.56	227.08
394.94	227.16
395.31	227.31
395.69	227.68
396.06	227.80
396.44	228.00
396.82	228.12
397.19	228.75
397.57	228.72
397.95	229.02
398.32	228.70
398.70	228.85
399.07	229.21
399.45	229.30
399.82	229.37
400.20	229.19
400.58	229.34
400.95	229.00
401.33	229.27
401.70	230.02
402.08	230.31
402.45	230.56
402.83	230.92
403.20	231.02
403.58	230.97
403.95	231.42
404.33	231.80
404.71	232.02
405.08	232.62
405.46	232.84
405.83	233.13
406.21	233.56
406.58	233.90
406.96	234.04
407.33	234.55
407.70	235.07
408.08	236.39
408.45	237.00
408.83	237.86
409.20	238.31
409.58	238.23
409.95	238.92
410.33	239.59
410.70	240.02
411.08	241.00
411.45	241.90
411.82	242.53
412.20	243.44
412.57	244.94
412.95	245.23
413.32	246.60
413.69	247.62
414.07	248.86
414.44	250.16
414.82	251.62
415.19	253.14
415.56	254.68
415.94	255.77
416.31	257.68
416.68	259.34
417.06	261.50
417.43	263.83
417.81	266.18
418.18	268.50
418.55	270.92
418.93	273.51
419.30	276.08
419.67	278.94
420.04	281.80
420.42	284.57
420.79	288.80
421.16	292.42
421.54	296.54
421.91	300.42
422.28	304.38
422.66	308.60
423.03	313.31
423.40	317.82
423.77	322.40
424.15	326.80
424.52	331.71
424.89	337.14
425.26	342.20
425.64	347.10
426.01	352.44
426.38	358.21
426.75	364.23
427.13	370.25
427.50	376.44
427.87	383.04
428.24	389.46
428.61	394.97
428.99	402.14
429.36	409.01
429.73	416.29
430.10	423.54
430.47	431.01
430.85	438.30
431.22	446.32
431.59	455.55
431.96	464.00
432.33	473.12
432.70	481.71
433.08	492.00
433.45	501.66
433.82	511.45
434.19	522.18
434.56	532.75
434.93	542.90
435.30	553.27
435.68	564.66
436.05	575.82
436.42	586.87
436.79	596.68
437.16	607.54
437.53	619.10
437.90	630.66
438.27	642.16
438.64	653.71
439.01	664.64
439.38	673.68
439.75	683.09
440.13	693.86
440.50	703.87
440.87	711.89
441.24	720.50
441.61	729.85
441.98	736.68
442.35	744.26
442.72	752.31
443.09	760.20
443.46	764.54
443.83	767.95
444.20	770.72
444.57	774.57
444.94	776.50
445.31	778.28
445.68	780.70
446.05	781.06
446.42	779.59
446.79	778.03
447.16	776.38
447.53	774.95
447.90	770.23
448.27	765.70
448.64	759.62
449.01	754.80
449.37	746.71
449.74	739.16
450.11	731.00
450.48	720.69
450.85	710.20
451.22	701.33
451.59	692.68
451.96	684.45
452.33	673.77
452.70	664.22
453.07	652.68
453.43	640.13
453.80	629.01
454.17	618.51
454.54	608.28
454.91	597.57
455.28	587.04
455.65	577.30
456.02	569.11
456.38	560.62
456.75	550.42
457.12	541.98
457.49	533.71
457.86	524.75
458.23	518.40
458.59	510.66
458.96	503.42
459.33	496.57
459.70	490.11
460.07	484.74
460.43	478.47
460.80	473.00
461.17	468.26
461.54	463.19
461.91	458.19
462.27	452.98
462.64	448.52
463.01	443.82
463.38	439.70
463.74	433.68
464.11	429.86
464.48	426.39
464.85	422.50
465.21	419.52
465.58	416.50
465.95	412.64
466.32	409.99
466.68	406.80
467.05	403.80
467.42	400.82
467.78	397.86
468.15	395.28
468.52	393.10
468.88	390.07
469.25	387.40
469.62	385.51
469.98	383.46
470.35	381.54
470.72	379.74
471.08	377.16
471.45	375.55
471.82	374.02
472.18	372.30
472.55	371.09
472.92	369.25
473.28	367.80
473.65	366.24
474.02	364.65
474.38	363.49
474.75	362.53
475.11	361.20
475.48	360.37
475.85	359.40
476.21	358.45
476.58	357.78
476.94	357.24
477.31	356.65
477.67	356.01
478.04	355.59
478.41	355.02
478.77	355.64
479.14	355.17
479.50	354.81
479.87	354.57
480.23	354.50
480.60	354.49
480.96	354.37
481.33	354.90
481.69	355.10
482.06	355.28
482.42	355.50
482.79	355.94
483.15	356.09
483.52	356.51
483.88	356.90
484.25	357.40
484.61	358.00
484.98	358.44
485.34	359.67
485.71	360.55
486.07	361.57
486.44	361.84
486.80	362.82
487.17	363.78
487.53	365.27
487.90	366.65
488.26	368.47
488.62	370.32
488.99	371.68
489.35	373.52
489.72	375.40
490.08	377.39
490.44	379.38
490.81	381.87
491.17	384.20
491.54	386.71
491.90	389.35
492.26	391.95
492.63	394.84
492.99	397.61
493.36	400.68
493.72	403.98
494.08	407.40
494.45	411.20
494.81	415.23
495.17	419.01
495.54	423.17
495.90	427.20
496.26	431.46
496.63	436.13
496.99	440.69
497.35	445.79
497.72	450.98
498.08	456.27
498.44	461.74
498.80	467.62
499.17	473.46
499.53	479.36
499.89	485.84
500.26	492.27
500.62	498.78
500.98	505.88
501.34	513.21
501.71	520.63
502.07	527.95
502.43	535.39
502.79	543.20
503.16	551.51
503.52	559.97
503.88	568.57
504.24	577.60
504.60	586.87
504.97	596.28
505.33	605.99
505.69	616.67
506.05	626.90
506.41	637.16
506.78	648.05
507.14	659.30
507.50	670.57
507.86	682.18
508.22	694.09
508.59	705.85
508.95	718.15
509.31	731.22
509.67	744.17
510.03	757.32
510.39	770.69
510.75	783.97
511.12	797.48
511.48	811.36
511.84	825.20
512.20	839.48
512.56	853.70
512.92	868.51
513.28	883.12
513.64	898.33
514.00	914.03
514.37	929.74
514.73	945.82
515.09	961.99
515.45	978.32
515.81	994.57
516.17	1011.29
516.53	1027.63
516.89	1043.58
517.25	1060.80
517.61	1078.90
517.97	1097.07
518.33	1115.24
518.69	1133.47
519.05	1151.89
519.41	1170.57
519.77	1189.85
520.13	1208.41
520.49	1226.79
520.85	1248.00
521.21	1266.72
521.57	1285.64
521.93	1304.02
522.29	1323.03
522.65	1341.20
523.01	1359.66
523.37	1377.83
523.73	1396.90
524.09	1415.17
524.45	1434.07
524.81	1452.60
525.17	1471.18
525.53	1489.45
525.89	1508.11
526.25	1526.72
526.61	1544.79
526.97	1563.52
527.33	1582.32
527.68	1602.37
528.04	1621.67
528.40	1637.83
528.76	1657.42
529.12	1675.90
529.48	1695.18
529.84	1712.87
530.20	1732.85
530.56	1751.97
530.91	1771.82
531.27	1790.45
531.63	1809.64
531.99	1828.69
532.35	1848.00
532.71	1866.56
533.07	1885.79
533.42	1904.64
533.78	1923.30
534.14	1942.45
534.50	1960.48
534.86	1978.48
535.21	1994.76
535.57	2012.33
535.93	2029.28
536.29	2045.95
536.65	2063.72
537.00	2080.93
537.36	2098.23
537.72	2113.58
538.08	2130.22
538.44	2145.90
538.79	2161.31
539.15	2177.06
539.51	2192.42
539.87	2206.53
540.22	2219.70
540.58	2233.38
540.94	2246.03
541.29	2258.48
541.65	2270.59
542.01	2282.75
542.37	2293.15
542.72	2304.54
543.08	2314.80
543.44	2326.76
543.79	2336.50
544.15	2346.29
544.51	2355.94
544.87	2366.04
545.22	2375.34
545.58	2383.55
545.94	2391.13
546.29	2398.66
546.65	2405.88
547.01	2412.34
547.36	2419.40
547.72	2426.70
548.07	2432.30
548.43	2438.24
548.79	2444.38
549.14	2449.80
549.50	2455.60
549.86	2460.97
550.21	2466.24
550.57	2471.90
550.92	2474.77
551.28	2478.05
551.64	2481.62
551.99	2485.18
552.35	2487.88
552.70	2491.64
553.06	2494.83
553.41	2497.98
553.77	2501.98
554.13	2505.17
554.48	2508.93
554.84	2511.82
555.19	2514.53
555.55	2518.67
555.90	2520.41
556.26	2521.40
556.61	2522.37
556.97	2522.09
557.32	2524.06
557.68	2524.76
558.03	2524.93
558.39	2525.91
558.74	2527.54
559.10	2527.03
559.45	2525.72
559.81	2524.32
560.16	2521.70
560.52	2519.72
560.87	2518.70
561.23	2515.32
561.58	2513.35
561.94	2509.14
562.29	2504.67
562.64	2500.89
563.00	2495.32
563.35	2491.74
563.71	2488.25
564.06	2484.77
564.42	2481.08
564.77	2476.74
565.12	2472.67
565.48	2469.47
565.83	2465.07
566.19	2460.54
566.54	2456.36
566.89	2452.14
567.25	2448.11
567.60	2444.69
567.96	2441.04
568.31	2436.56
568.66	2432.40
569.02	2426.45
569.37	2421.89
569.72	2417.82
570.08	2412.39
570.43	2406.37
570.78	2401.20
571.14	2395.29
571.49	2388.27
571.84	2382.51
572.20	2375.32
572.55	2368.67
572.90	2360.50
573.26	2353.34
573.61	2345.60
573.96	2337.74
574.31	2329.01
574.67	2320.73
575.02	2311.57
575.37	2301.81
575.72	2291.63
576.08	2282.98
576.43	2273.32
576.78	2263.43
577.13	2252.98
577.49	2243.27
577.84	2234.53
578.19	2225.50
578.54	2216.64
578.90	2208.61
579.25	2199.77
579.60	2190.83
579.95	2181.10
580.30	2171.27
580.66	2160.79
581.01	2150.26
581.36	2139.46
581.71	2129.88
582.06	2119.89
582.42	2110.35
582.77	2100.76
583.12	2091.93
583.47	2081.53
583.82	2072.96
584.17	2064.09
584.53	2055.49
584.88	2045.64
585.23	2035.81
585.58	2024.18
585.93	2013.05
586.28	2001.76
586.63	1990.32
586.98	1979.06
587.34	1968.51
587.69	1957.70
588.04	1948.55
588.39	1939.03
588.74	1929.21
589.09	1919.95
589.44	1909.47
589.79	1899.50
590.14	1889.70
590.49	1879.78
590.84	1870.33
591.19	1860.64
591.54	1850.32
591.89	1840.20
592.25	1832.47
592.60	1823.01
592.95	1813.88
593.30	1804.43
593.65	1794.61
594.00	1784.97
594.35	1778.04
594.70	1768.09
595.05	1758.77
595.40	1747.85
595.75	1737.87
596.10	1728.53
596.45	1718.51
596.80	1709.05
597.15	1699.32
597.50	1689.38
597.85	1679.70
598.19	1669.68
598.54	1659.34
598.89	1649.47
599.24	1640.34
599.59	1629.53
599.94	1619.65
600.29	1610.61
600.64	1601.23
600.99	1591.87
601.34	1583.24
601.69	1571.73
602.04	1562.94
602.39	1553.95
602.74	1546.37
603.08	1537.74
603.43	1529.29
603.78	1520.34
604.13	1511.64
604.48	1502.80
604.83	1493.64
605.18	1484.21
605.53	1475.38
605.87	1466.67
606.22	1458.63
606.57	1449.60
606.92	1440.69
607.27	1432.24
607.62	1423.89
607.96	1415.84
608.31	1408.17
608.66	1399.62
609.01	1391.31
609.36	1382.77
609.70	1374.41
610.05	1365.50
610.40	1357.22
610.75	1348.39
611.10	1339.92
611.44	1331.36
611.79	1322.71
612.14	1315.08
612.49	1307.09
612.83	1299.48
613.18	1291.73
613.53	1283.78
613.88	1275.43
614.22	1267.35
614.57	1258.89
614.92	1250.20
615.27	1242.40
615.61	1234.28
615.96	1226.07
616.31	1218.47
616.65	1211.19
617.00	1203.25
617.35	1195.56
617.70	1187.80
618.04	1180.08
618.39	1173.00
618.74	1166.25
619.08	1159.01
619.43	1151.20
619.78	1143.49
620.12	1135.58
620.47	1127.78
620.82	1119.59
621.16	1112.03
621.51	1105.02
621.85	1097.90
622.20	1090.77
622.55	1083.00
622.89	1075.52
623.24	1068.71
623.59	1061.40
623.93	1054.39
624.28	1047.49
624.62	1041.40
624.97	1035.00
625.32	1028.30
625.66	1020.98
626.01	1013.40
626.35	1006.83
626.70	1000.35
627.04	994.10
627.39	987.18
627.73	980.98
628.08	975.10
628.43	968.60
628.77	961.35
629.12	955.10
629.46	949.18
629.81	943.90
630.15	938.39
630.50	932.44
630.84	926.36
631.19	920.45
631.53	915.07
631.88	907.96
632.22	901.85
632.57	896.59
632.91	890.89
633.26	885.82
633.60	880.00
633.95	874.21
634.29	868.21
634.64	863.10
634.98	856.87
635.32	851.26
635.67	846.51
636.01	841.75
636.36	836.22
636.70	831.26
637.05	825.47
637.39	820.25
637.73	814.93
638.08	809.82
638.42	804.20
638.77	798.73
639.11	793.35
639.45	787.21
639.80	781.45
640.14	776.35
640.49	770.73
640.83	765.83
641.17	761.30
641.52	756.49
641.86	751.40
642.20	747.19
642.55	742.53
642.89	737.53
643.23	732.78
643.58	728.54
643.92	723.29
644.26	718.61
644.61	714.08
644.95	709.50
645.29	704.80
645.64	700.33
645.98	695.61
646.32	691.55
646.66	687.52
647.01	683.30
647.35	679.29
647.69	675.46
648.04	671.38
648.38	667.20
648.72	663.28
649.06	658.95
649.41	654.58
649.75	650.15
650.09	645.82
650.43	641.57
650.78	637.24
651.12	633.34
651.46	629.24
651.80	625.23
652.14	621.39
652.49	618.00
652.83	614.26
653.17	610.23
653.51	606.12
653.85	602.95
654.20	599.14
654.54	595.33
654.88	591.51
655.22	588.24
655.56	584.48
655.90	580.92
656.25	577.67
656.59	574.38
656.93	571.10
657.27	568.12
657.61	564.50
657.95	561.17
658.29	557.80
658.64	554.76
658.98	551.09
659.32	547.50
659.66	543.96
660.00	540.78
660.34	537.74
660.68	534.90
661.02	531.50
661.36	528.58
661.70	525.41
662.05	522.34
662.39	519.10
662.73	516.27
663.07	513.67
663.41	510.76
663.75	507.60
664.09	504.63
664.43	501.49
664.77	498.97
665.11	496.03
665.45	493.20
665.79	490.53
666.13	487.83
666.47	485.07
666.81	482.25
667.15	479.27
667.49	476.89
667.83	474.57
668.17	472.02
668.51	469.58
668.85	467.46
669.19	465.77
669.53	463.17
669.87	460.34
670.21	457.67
670.55	455.28
670.89	453.48
671.23	451.18
671.57	448.71
671.91	446.34
672.25	444.21
672.58	442.19
672.92	439.58
673.26	437.55
673.60	435.42
673.94	433.36
674.28	431.51
674.62	429.50
674.96	427.10
675.30	425.04
675.64	422.85
675.97	420.52
676.31	417.87
676.65	415.77
676.99	414.37
677.33	412.25
677.67	410.40
678.01	408.09
678.34	406.23
678.68	404.61
679.02	402.68
679.36	400.79
679.70	398.85
680.04	397.21
680.37	395.44
680.71	393.79
681.05	392.16
681.39	390.50
681.73	388.67
682.06	387.13
682.40	385.60
682.74	384.07
683.08	382.90
683.42	381.25
683.75	379.91
684.09	378.01
684.43	376.63
684.77	374.92
685.10	373.38
685.44	371.85
685.78	370.26
686.12	368.77
686.45	367.42
686.79	365.95
687.13	364.81
687.46	363.44
687.80	362.32
688.14	360.80
688.48	359.36
688.81	357.94
689.15	356.72
689.49	355.15
689.82	353.88
690.16	352.22
690.50	351.05
690.83	349.67
691.17	348.24
691.51	346.92
691.84	345.95
692.18	344.64
692.52	343.32
692.85	342.24
693.19	341.53
693.52	340.26
693.86	338.98
694.20	337.54
694.53	336.34
694.87	334.93
695.21	333.68
695.54	332.60
695.88	331.35
696.21	329.89
696.55	328.97
696.88	327.69
697.22	326.37
697.56	325.28
697.89	324.01
698.23	323.08
698.56	321.85
698.90	320.82
699.23	319.73
699.57	318.82
699.90	317.72
700.24	316.26
700.58	315.27
700.91	314.52
701.25	314.13
701.58	313.70
701.92	312.90
702.25	312.00
702.59	310.87
702.92	310.14
703.26	309.33
703.59	308.40
703.93	308.40
704.26	307.94
704.60	307.14
704.93	306.33
705.26	305.38
705.60	304.79
705.93	303.55
706.27	303.02
706.60	302.36
706.94	302.02
707.27	301.29
707.61	300.59
707.94	299.92
708.27	298.46
708.61	297.11
708.94	296.34
709.28	295.71
709.61	294.94
709.94	294.14
710.28	293.38
710.61	292.56
710.95	291.00
711.28	290.62
711.61	289.76
711.95	289.31
712.28	288.61
712.61	287.92
712.95	287.75
713.28	287.45
713.61	286.70
713.95	285.54
714.28	284.98
714.61	284.23
714.95	283.39
715.28	282.63
715.61	281.90
715.95	281.26
716.28	280.47
716.61	279.98
716.95	279.20
717.28	278.61
717.61	278.12
717.94	277.44
718.28	276.17
718.61	275.59
718.94	274.93
719.27	274.37
719.61	273.79
719.94	273.10
720.27	272.10
720.60	271.55
720.94	271.16
721.27	270.68
721.60	270.44
721.93	269.94
722.27	269.97
722.60	269.77
722.93	269.30
723.26	268.99
723.59	268.56
723.93	268.33
724.26	268.13
724.59	267.67
724.92	267.43
725.25	267.32
725.59	266.89
725.92	266.67
726.25	266.35
726.58	266.07
726.91	265.61
727.24	265.39
727.57	265.03
727.91	264.54
728.24	264.37
728.57	263.77
728.90	263.55
729.23	262.87
729.56	262.93
729.89	262.61
730.22	262.27
730.55	261.93
730.89	261.60
731.22	261.16
731.55	260.79
731.88	260.38
732.21	259.86
732.54	259.53
732.87	259.10
733.20	258.74
733.53	258.40
733.86	258.19
734.19	257.77
734.52	257.58
734.85	258.00
735.18	257.42
735.51	257.41
735.84	257.22
736.17	257.23
736.50	256.39
736.83	257.13
737.16	256.84
737.49	256.61
737.82	256.32
738.15	256.16
738.48	255.89
738.81	255.63
739.14	255.32
739.47	255.01
739.80	254.71
740.13	254.60
740.46	254.20
740.79	253.82
741.12	253.55
741.45	253.14
741.78	252.20
742.11	252.24
742.44	251.83
742.77	251.63
743.10	251.25
743.43	251.01
743.75	249.78
744.08	250.80
744.41	250.41
744.74	250.19
745.07	249.71
745.40	249.62
745.73	249.79
746.06	249.74
746.39	249.65
746.71	249.37
747.04	248.95
747.37	248.77
747.70	248.73
748.03	248.54
748.36	248.48
748.68	248.34
749.01	247.91
749.34	247.79
749.67	247.65
750.00	247.62
750.33	248.20
750.65	248.07
750.98	246.67
751.31	246.61
751.64	246.45
751.97	246.93
752.29	246.69
752.62	246.06
752.95	245.75
753.28	245.50
753.60	245.42
753.93	245.52
754.26	245.47
754.59	245.04
754.91	244.90
755.24	244.64
755.57	244.51
755.90	244.38
756.22	244.12
756.55	243.80
756.88	243.42
757.20	242.57
757.53	242.21
757.86	242.13
758.19	242.01
758.51	241.85
758.84	241.10
759.17	240.85
759.49	240.77
759.82	241.11
760.15	241.12
760.47	240.94
760.80	240.60
761.13	240.46
761.45	240.40
761.78	240.29
762.11	240.20
762.43	239.96
762.76	239.85
763.08	239.82
763.41	239.88
763.74	239.73
764.06	239.66
764.39	239.68
764.71	239.35
765.04	239.17
765.37	239.01
765.69	238.86
766.02	238.86
766.34	238.67
766.67	238.22
767.00	238.24
767.32	238.64
767.65	239.16
767.97	239.07
768.30	239.05
768.62	238.85
768.95	238.69
769.27	238.70
769.60	238.76
769.92	238.52
770.25	238.22
770.57	238.09
770.90	238.05
771.22	237.81
771.55	237.87
771.87	237.89
772.20	237.90
772.52	238.75
772.85	239.75
773.17	239.83
773.50	239.67
773.82	239.48
774.15	238.96
774.47	238.31
774.80	238.14
775.12	238.03
775.45	237.94
775.77	237.86
776.09	237.76
776.42	237.60
776.74	237.82
777.07	237.70
777.39	237.57
777.72	237.40
778.04	237.42
778.36	237.28
778.69	237.32
779.01	237.23
779.33	236.27
779.66	235.15
779.98	235.03
780.31	235.03
780.63	235.34
780.95	235.39
781.28	235.27
781.60	235.14
781.92	235.03
782.25	234.99
782.57	234.95
782.89	234.87
783.22	234.77
783.54	234.63
783.86	234.70
784.19	234.75
784.51	234.97
784.83	234.76
785.16	234.73
785.48	234.56
785.80	234.50
786.12	234.54
786.45	234.51
786.77	234.41
787.09	234.28
787.42	233.81
787.74	233.75
788.06	233.70
788.38	233.63
788.71	233.52
789.03	233.55
789.35	233.66
789.67	233.45
789.99	233.41
790.32	233.11
790.64	233.10
790.96	233.82
791.28	233.43
791.61	233.43
791.93	233.41
792.25	233.27
792.57	233.81
792.89	233.63
793.21	233.58
793.54	233.50
793.86	233.41
794.18	233.45
794.50	233.28
794.82	233.23
795.14	233.19
795.47	233.30
795.79	233.22
796.11	232.93
796.43	232.92
796.75	232.85
797.07	232.87
797.39	232.75
797.71	231.92
798.04	231.89
798.36	231.94
798.68	231.77
799.00	231.80
799.32	231.25
799.64	231.30
799.96	231.31
800.28	231.40
800.60	231.36
800.92	231.33
801.24	231.22
801.56	231.33
801.89	231.30
802.21	231.33
802.53	231.12
802.85	231.32
803.17	231.69
803.49	231.54
803.81	231.50
804.13	231.44
804.45	231.44
804.77	231.46
805.09	231.40
805.41	231.36
805.73	231.19
806.05	230.93
806.37	230.94
806.69	230.74
807.01	230.69
807.33	230.59
807.65	230.28
807.97	230.76
808.28	230.60
808.60	230.55
808.92	230.41
809.24	230.98
809.56	230.82
809.88	230.57
810.20	230.64
810.52	230.72
810.84	230.67
811.16	230.60
811.48	230.65
811.80	230.96
812.12	231.01
812.43	231.18
812.75	231.36
813.07	231.19
813.39	231.18
813.71	231.04
814.03	231.11
814.35	231.22
814.67	230.81
814.98	230.72
815.30	230.78
815.62	230.71
815.94	230.11
816.26	230.50
816.58	230.32
816.89	230.47
