SpectraSuite Data File
++++++++++++++++++++++++++++++++++++
Date: Wed Sep 04 17:29:40 EDT 2013
User: lab3
Dark Spectrum Present: Yes
Reference Spectrum Present: No
Number of Sampled Component Spectra: 1
Spectrometers: USB2E7196
Integration Time (usec): 337000 (USB2E7196)
Spectra Averaged: 10 (USB2E7196)
Boxcar Smoothing: 10 (USB2E7196)
Correct for Electrical Dark: No (USB2E7196)
Strobe/Lamp Enabled: No (USB2E7196)
Correct for Detector Non-linearity: No (USB2E7196)
Correct for Stray Light: No (USB2E7196)
Number of Pixels in Processed Spectrum: 2048
>>>>>Begin Processed Spectral Data<<<<<
339.09	0.00
339.48	213.50
339.86	214.50
340.24	216.40
340.63	216.50
341.01	232.00
341.39	219.30
341.78	222.80
342.16	224.80
342.54	223.40
342.93	212.91
343.31	223.64
343.69	224.22
344.07	224.68
344.46	225.20
344.84	225.70
345.22	225.38
345.60	225.70
345.99	225.87
346.37	225.92
346.75	225.99
347.13	226.11
347.52	226.19
347.90	226.60
348.28	226.70
348.66	226.96
349.05	226.74
349.43	226.82
349.81	226.96
350.19	226.98
350.57	227.20
350.96	227.32
351.34	227.43
351.72	227.52
352.10	227.68
352.48	227.67
352.87	227.67
353.25	227.74
353.63	227.76
354.01	227.70
354.39	227.83
354.77	228.00
355.15	228.08
355.54	228.00
355.92	227.82
356.30	227.81
356.68	228.35
357.06	228.48
357.44	228.43
357.82	228.42
358.20	229.27
358.58	229.15
358.97	229.21
359.35	229.43
359.73	229.65
360.11	229.67
360.49	229.78
360.87	229.83
361.25	229.97
361.63	230.30
362.01	230.52
362.39	230.47
362.77	230.56
363.15	230.68
363.53	230.79
363.91	230.87
364.29	230.95
364.67	230.13
365.05	230.15
365.43	230.30
365.81	230.50
366.19	230.20
366.57	230.61
366.95	230.65
367.33	230.52
367.71	230.48
368.09	230.70
368.47	230.66
368.85	230.60
369.23	230.89
369.61	230.68
369.99	230.93
370.37	231.17
370.75	231.63
371.13	231.40
371.51	231.30
371.89	231.37
372.27	231.36
372.65	231.40
373.03	231.40
373.41	231.29
373.78	231.19
374.16	230.70
374.54	230.46
374.92	230.35
375.30	230.33
375.68	230.10
376.06	230.17
376.44	230.13
376.82	230.19
377.19	230.00
377.57	229.89
377.95	229.57
378.33	229.36
378.71	228.61
379.09	228.78
379.47	228.83
379.84	228.67
380.22	228.63
380.60	228.47
380.98	228.39
381.36	228.37
381.73	228.17
382.11	228.32
382.49	228.34
382.87	228.32
383.25	228.24
383.62	229.36
384.00	228.96
384.38	228.96
384.76	229.12
385.13	229.42
385.51	229.34
385.89	229.20
386.27	229.27
386.64	229.47
387.02	229.33
387.40	229.25
387.78	229.24
388.15	229.30
388.53	229.27
388.91	229.21
389.29	229.06
389.66	229.29
390.04	229.10
390.42	229.27
390.79	229.20
391.17	229.17
391.55	228.11
391.92	228.18
392.30	228.29
392.68	228.07
393.05	228.04
393.43	228.22
393.81	228.39
394.18	228.19
394.56	228.27
394.94	228.47
395.31	228.47
395.69	228.74
396.06	228.82
396.44	229.00
396.82	229.00
397.19	229.72
397.57	229.60
397.95	229.93
398.32	229.61
398.70	229.84
399.07	230.19
399.45	230.28
399.82	230.47
400.20	230.48
400.58	230.68
400.95	230.37
401.33	230.65
401.70	231.54
402.08	231.82
402.45	232.01
402.83	232.40
403.20	232.69
403.58	232.90
403.95	233.32
404.33	233.69
404.71	234.05
405.08	234.80
405.46	235.28
405.83	235.62
406.21	236.09
406.58	236.51
406.96	236.91
407.33	237.51
407.70	238.21
408.08	239.70
408.45	240.60
408.83	241.65
409.20	242.34
409.58	242.49
409.95	243.63
410.33	244.78
410.70	245.61
411.08	246.76
411.45	247.92
411.82	249.12
412.20	250.64
412.57	252.68
412.95	253.36
413.32	255.09
413.69	256.73
414.07	258.70
414.44	260.74
414.82	262.85
415.19	265.37
415.56	267.81
415.94	269.87
416.31	272.71
416.68	275.60
417.06	279.00
417.43	282.52
417.81	286.18
418.18	289.96
418.55	294.11
418.93	298.56
419.30	303.07
419.67	307.93
420.04	312.93
420.42	317.93
420.79	324.50
421.16	330.58
421.54	337.30
421.91	343.97
422.28	350.78
422.66	358.11
423.03	365.65
423.40	372.90
423.77	380.84
424.15	388.93
424.52	397.49
424.89	406.75
425.26	415.46
425.64	423.90
426.01	433.32
426.38	443.10
426.75	453.15
427.13	463.45
427.50	474.16
427.87	485.20
428.24	496.43
428.61	506.85
428.99	519.09
429.36	531.74
429.73	544.43
430.10	557.03
430.47	570.09
430.85	583.02
431.22	597.43
431.59	613.13
431.96	627.85
432.33	643.92
432.70	659.53
433.08	678.19
433.45	695.79
433.82	713.32
434.19	733.10
434.56	752.63
434.93	771.15
435.30	789.72
435.68	810.52
436.05	830.87
436.42	851.07
436.79	869.55
437.16	890.12
437.53	911.65
437.90	933.33
438.27	954.56
438.64	976.76
439.01	997.54
439.38	1015.85
439.75	1033.77
440.13	1054.26
440.50	1073.49
440.87	1089.04
441.24	1105.53
441.61	1123.65
441.98	1137.03
442.35	1152.14
442.72	1168.09
443.09	1183.71
443.46	1193.43
443.83	1200.65
444.20	1207.00
444.57	1215.40
444.94	1219.49
445.31	1223.89
445.68	1228.51
446.05	1230.53
446.42	1229.36
446.79	1227.84
447.16	1225.58
447.53	1224.40
447.90	1217.00
448.27	1210.06
448.64	1200.29
449.01	1193.01
449.37	1179.38
449.74	1166.14
450.11	1150.96
450.48	1133.66
450.85	1115.63
451.22	1100.42
451.59	1085.55
451.96	1071.50
452.33	1052.54
452.70	1035.98
453.07	1015.80
453.43	994.75
453.80	975.25
454.17	956.34
454.54	937.97
454.91	918.55
455.28	899.41
455.65	882.04
456.02	865.43
456.38	850.37
456.75	831.84
457.12	816.51
457.49	801.64
457.86	786.66
458.23	774.24
458.59	760.50
458.96	746.47
459.33	734.34
459.70	722.18
460.07	712.76
460.43	701.27
460.80	690.64
461.17	681.71
461.54	672.13
461.91	663.06
462.27	653.81
462.64	645.99
463.01	637.45
463.38	629.35
463.74	619.88
464.11	612.52
464.48	606.26
464.85	599.49
465.21	594.19
465.58	588.69
465.95	581.70
466.32	576.23
466.68	570.83
467.05	565.27
467.42	559.97
467.78	554.34
468.15	549.11
468.52	545.50
468.88	539.95
469.25	535.20
469.62	531.47
469.98	527.67
470.35	524.25
470.72	520.87
471.08	516.70
471.45	513.70
471.82	510.45
472.18	506.75
472.55	504.18
472.92	501.01
473.28	498.29
473.65	495.91
474.02	493.38
474.38	491.23
474.75	489.70
475.11	487.46
475.48	485.73
475.85	484.27
476.21	482.79
476.58	482.01
476.94	481.22
477.31	480.07
477.67	479.05
478.04	478.19
478.41	477.51
478.77	478.05
479.14	477.20
479.50	476.90
479.87	477.11
480.23	477.02
480.60	476.87
480.96	476.76
481.33	477.42
481.69	477.83
482.06	478.23
482.42	478.49
482.79	479.01
483.15	480.10
483.52	481.44
483.88	482.35
484.25	483.26
484.61	484.62
484.98	485.97
485.34	487.79
485.71	489.62
486.07	491.59
486.44	492.98
486.80	495.37
487.17	497.71
487.53	500.25
487.90	503.00
488.26	506.46
488.62	509.93
488.99	512.66
489.35	516.13
489.72	519.73
490.08	523.32
490.44	527.31
490.81	531.40
491.17	535.22
491.54	539.78
491.90	544.52
492.26	549.21
492.63	554.29
492.99	559.26
493.36	564.50
493.72	570.20
494.08	575.88
494.45	582.10
494.81	588.42
495.17	594.73
495.54	601.51
495.90	607.82
496.26	614.59
496.63	621.61
496.99	628.63
497.35	636.08
497.72	643.88
498.08	651.55
498.44	659.40
498.80	668.07
499.17	676.26
499.53	684.43
499.89	693.09
500.26	701.33
500.62	710.21
500.98	719.57
501.34	728.36
501.71	737.45
502.07	746.20
502.43	755.39
502.79	764.71
503.16	774.10
503.52	783.64
503.88	792.99
504.24	803.29
504.60	813.58
504.97	823.93
505.33	833.92
505.69	844.81
506.05	855.00
506.41	865.02
506.78	875.34
507.14	885.91
507.50	896.62
507.86	907.70
508.22	918.46
508.59	928.34
508.95	939.22
509.31	950.36
509.67	961.30
510.03	971.89
510.39	982.38
510.75	992.93
511.12	1003.43
511.48	1014.10
511.84	1024.40
512.20	1034.31
512.56	1044.07
512.92	1054.41
513.28	1064.11
513.64	1074.06
514.00	1083.72
514.37	1093.58
514.73	1103.10
515.09	1112.31
515.45	1121.33
515.81	1129.91
516.17	1139.02
516.53	1147.31
516.89	1155.18
517.25	1163.94
517.61	1173.03
517.97	1181.86
518.33	1189.86
518.69	1198.12
519.05	1206.49
519.41	1214.28
519.77	1222.78
520.13	1230.82
520.49	1237.97
520.85	1245.38
521.21	1252.99
521.57	1260.10
521.93	1266.52
522.29	1273.63
522.65	1279.68
523.01	1285.87
523.37	1291.62
523.73	1297.47
524.09	1303.36
524.45	1309.08
524.81	1314.08
525.17	1319.12
525.53	1324.12
525.89	1329.26
526.25	1334.03
526.61	1337.92
526.97	1342.36
527.33	1346.60
527.68	1351.82
528.04	1356.60
528.40	1360.87
528.76	1365.42
529.12	1369.56
529.48	1374.18
529.84	1377.59
530.20	1382.66
530.56	1387.02
530.91	1391.87
531.27	1396.07
531.63	1400.19
531.99	1404.11
532.35	1408.24
532.71	1411.99
533.07	1416.28
533.42	1420.60
533.78	1424.60
534.14	1428.79
534.50	1432.30
534.86	1436.35
535.21	1438.64
535.57	1442.10
535.93	1444.73
536.29	1447.78
536.65	1451.04
537.00	1453.81
537.36	1457.05
537.72	1459.17
538.08	1462.19
538.44	1464.74
538.79	1467.34
539.15	1469.73
539.51	1472.52
539.87	1474.78
540.22	1476.71
540.58	1478.60
540.94	1479.63
541.29	1481.00
541.65	1482.20
542.01	1483.75
542.37	1484.33
542.72	1485.19
543.08	1485.55
543.44	1487.08
543.79	1486.72
544.15	1487.22
544.51	1487.98
544.87	1488.32
545.22	1488.22
545.58	1487.78
545.94	1487.19
546.29	1486.65
546.65	1486.30
547.01	1485.12
547.36	1484.21
547.72	1483.59
548.07	1482.29
548.43	1481.57
548.79	1480.57
549.14	1479.89
549.50	1479.19
549.86	1477.83
550.21	1477.19
550.57	1476.55
550.92	1474.88
551.28	1474.14
551.64	1473.64
551.99	1472.99
552.35	1472.00
552.70	1471.35
553.06	1470.61
553.41	1470.20
553.77	1470.22
554.13	1469.75
554.48	1469.49
554.84	1469.08
555.19	1468.55
555.55	1469.00
555.90	1468.42
556.26	1468.07
556.61	1466.65
556.97	1465.08
557.32	1464.84
557.68	1463.95
558.03	1463.13
558.39	1462.60
558.74	1461.65
559.10	1459.66
559.45	1458.01
559.81	1456.59
560.16	1454.63
560.52	1453.00
560.87	1451.43
561.23	1449.54
561.58	1448.48
561.94	1446.08
562.29	1443.83
562.64	1441.83
563.00	1438.80
563.35	1437.15
563.71	1435.17
564.06	1434.10
564.42	1432.78
564.77	1431.57
565.12	1429.83
565.48	1429.13
565.83	1427.45
566.19	1426.58
566.54	1425.35
566.89	1423.64
567.25	1422.51
567.60	1422.20
567.96	1421.91
568.31	1421.10
568.66	1419.74
569.02	1417.06
569.37	1416.28
569.72	1415.27
570.08	1413.09
570.43	1410.68
570.78	1408.64
571.14	1406.57
571.49	1403.78
571.84	1401.41
572.20	1398.51
572.55	1396.26
572.90	1392.34
573.26	1389.76
573.61	1386.39
573.96	1383.26
574.31	1379.53
574.67	1375.85
575.02	1371.47
575.37	1366.98
575.72	1362.45
576.08	1358.36
576.43	1354.78
576.78	1350.55
577.13	1346.14
577.49	1342.76
577.84	1340.02
578.19	1336.41
578.54	1332.84
578.90	1329.91
579.25	1327.17
579.60	1323.21
579.95	1319.19
580.30	1315.63
580.66	1311.55
581.01	1307.07
581.36	1302.98
581.71	1299.49
582.06	1296.05
582.42	1292.20
582.77	1287.95
583.12	1284.43
583.47	1280.87
583.82	1277.39
584.17	1273.75
584.53	1270.90
584.88	1266.86
585.23	1262.34
585.58	1257.42
585.93	1252.72
586.28	1248.24
586.63	1242.81
586.98	1238.18
587.34	1233.80
587.69	1228.97
588.04	1224.81
588.39	1221.25
588.74	1216.88
589.09	1213.15
589.44	1208.00
589.79	1203.91
590.14	1200.19
590.49	1196.00
590.84	1191.80
591.19	1187.85
591.54	1183.45
591.89	1178.54
592.25	1175.63
592.60	1171.53
592.95	1167.63
593.30	1163.33
593.65	1158.47
594.00	1153.62
594.35	1152.12
594.70	1147.37
595.05	1143.21
595.40	1138.44
595.75	1133.28
596.10	1129.08
596.45	1124.33
596.80	1120.23
597.15	1115.70
597.50	1110.79
597.85	1106.50
598.19	1101.55
598.54	1096.40
598.89	1091.40
599.24	1087.00
599.59	1081.20
599.94	1076.48
600.29	1072.15
600.64	1067.82
600.99	1063.52
601.34	1059.95
601.69	1052.74
602.04	1048.56
602.39	1044.40
602.74	1040.66
603.08	1036.80
603.43	1032.90
603.78	1028.36
604.13	1023.96
604.48	1019.70
604.83	1015.20
605.18	1010.35
605.53	1005.93
605.87	1001.70
606.22	998.21
606.57	993.72
606.92	989.29
607.27	985.42
607.62	981.46
607.96	977.61
608.31	974.00
608.66	969.88
609.01	965.76
609.36	961.75
609.70	957.50
610.05	952.89
610.40	948.76
610.75	944.14
611.10	940.08
611.44	935.64
611.79	931.21
612.14	927.17
612.49	922.77
612.83	919.12
613.18	914.91
613.53	910.33
613.88	906.17
614.22	901.99
614.57	897.04
614.92	892.13
615.27	887.69
615.61	882.81
615.96	878.40
616.31	873.92
616.65	870.01
617.00	865.53
617.35	861.10
617.70	856.43
618.04	852.01
618.39	847.55
618.74	843.90
619.08	839.61
619.43	835.12
619.78	830.95
620.12	825.83
620.47	821.74
620.82	817.20
621.16	812.82
621.51	809.09
621.85	804.97
622.20	800.89
622.55	796.36
622.89	792.17
623.24	787.87
623.59	783.73
623.93	779.17
624.28	775.09
624.62	771.92
624.97	768.80
625.32	764.89
625.66	760.93
626.01	756.42
626.35	752.70
626.70	749.04
627.04	745.54
627.39	741.80
627.73	738.09
628.08	734.40
628.43	730.27
628.77	725.79
629.12	722.32
629.46	718.91
629.81	715.79
630.15	712.47
630.50	708.65
630.84	705.21
631.19	701.65
631.53	698.39
631.88	693.90
632.22	689.47
632.57	686.12
632.91	682.55
633.26	679.26
633.60	675.53
633.95	671.83
634.29	667.68
634.64	664.41
634.98	660.28
635.32	656.99
635.67	653.91
636.01	650.83
636.36	647.09
636.70	643.91
637.05	640.28
637.39	636.66
637.73	633.56
638.08	630.29
638.42	626.75
638.77	623.16
639.11	619.51
639.45	615.86
639.80	612.14
640.14	608.71
640.49	605.35
640.83	602.30
641.17	599.17
641.52	596.14
641.86	592.90
642.20	590.54
642.55	587.30
642.89	584.38
643.23	581.16
643.58	578.60
643.92	575.05
644.26	571.99
644.61	569.39
644.95	566.32
645.29	563.07
645.64	560.47
645.98	557.50
646.32	555.08
646.66	552.39
647.01	549.57
647.35	547.18
647.69	544.57
648.04	541.81
648.38	539.33
648.72	536.81
649.06	533.95
649.41	530.75
649.75	528.05
650.09	525.10
650.43	522.42
650.78	519.45
651.12	516.82
651.46	514.03
651.80	511.20
652.14	508.51
652.49	506.37
652.83	503.85
653.17	501.38
653.51	498.67
653.85	496.46
654.20	494.20
654.54	491.47
654.88	489.08
655.22	487.13
655.56	484.50
655.90	481.96
656.25	479.79
656.59	477.67
656.93	475.45
657.27	473.49
657.61	471.00
657.95	468.85
658.29	466.54
658.64	464.65
658.98	462.18
659.32	459.88
659.66	457.44
660.00	455.21
660.34	453.03
660.68	450.77
661.02	448.55
661.36	446.42
661.70	444.13
662.05	441.86
662.39	439.58
662.73	437.74
663.07	436.46
663.41	434.44
663.75	432.28
664.09	430.27
664.43	427.98
664.77	426.23
665.11	424.23
665.45	422.39
665.79	420.55
666.13	418.74
666.47	416.90
666.81	415.07
667.15	412.99
667.49	411.33
667.83	409.98
668.17	408.19
668.51	406.44
668.85	405.12
669.19	403.91
669.53	402.02
669.87	400.19
670.21	398.12
670.55	396.53
670.89	395.45
671.23	393.81
671.57	392.32
671.91	390.78
672.25	389.26
672.58	388.04
672.92	386.18
673.26	384.72
673.60	383.41
673.94	382.14
674.28	380.86
674.62	379.42
674.96	377.67
675.30	376.26
675.64	374.83
675.97	373.33
676.31	371.64
676.65	370.19
676.99	369.13
677.33	367.57
677.67	366.41
678.01	364.41
678.34	363.12
678.68	361.94
679.02	360.45
679.36	359.16
679.70	357.63
680.04	356.47
680.37	355.30
680.71	354.00
681.05	352.78
681.39	351.60
681.73	350.36
682.06	349.28
682.40	348.14
682.74	347.02
683.08	346.24
683.42	345.05
683.75	344.13
684.09	342.73
684.43	341.72
684.77	340.38
685.10	339.50
685.44	338.51
685.78	337.45
686.12	336.39
686.45	335.29
686.79	334.16
687.13	333.31
687.46	332.21
687.80	331.48
688.14	330.06
688.48	329.07
688.81	328.03
689.15	327.13
689.49	326.01
689.82	325.00
690.16	323.48
690.50	322.47
690.83	321.34
691.17	320.14
691.51	319.19
691.84	318.42
692.18	317.39
692.52	316.23
692.85	315.32
693.19	314.90
693.52	314.10
693.86	313.21
694.20	312.22
694.53	311.46
694.87	310.48
695.21	309.74
695.54	308.87
695.88	307.88
696.21	306.78
696.55	306.10
696.88	305.35
697.22	304.60
697.56	303.85
697.89	303.04
698.23	302.51
698.56	301.58
698.90	300.74
699.23	300.03
699.57	299.54
699.90	298.64
700.24	297.58
700.58	296.87
700.91	296.28
701.25	296.41
701.58	296.33
701.92	295.74
702.25	295.08
702.59	294.39
702.92	293.88
703.26	293.42
703.59	292.77
703.93	293.00
704.26	292.56
704.60	291.97
704.93	291.36
705.26	290.64
705.60	290.22
705.93	289.49
706.27	289.09
706.60	288.57
706.94	288.44
707.27	287.81
707.61	287.37
707.94	286.77
708.27	285.35
708.61	284.00
708.94	283.23
709.28	282.82
709.61	282.23
709.94	281.60
710.28	280.98
710.61	280.48
710.95	279.00
711.28	279.09
711.61	278.59
711.95	278.21
712.28	277.59
712.61	277.06
712.95	277.11
713.28	276.97
713.61	276.24
713.95	275.43
714.28	274.99
714.61	274.27
714.95	273.82
715.28	273.25
715.61	272.80
715.95	272.45
716.28	271.85
716.61	271.51
716.95	271.01
717.28	270.54
717.61	269.93
717.94	269.41
718.28	268.19
718.61	267.67
718.94	267.12
719.27	266.80
719.61	266.46
719.94	265.77
720.27	264.86
720.60	264.38
720.94	264.01
721.27	263.64
721.60	263.52
721.93	263.08
722.27	263.09
722.60	262.95
722.93	262.53
723.26	262.20
723.59	261.65
723.93	261.43
724.26	261.17
724.59	260.93
724.92	260.71
725.25	260.62
725.59	260.33
725.92	260.02
726.25	259.63
726.58	259.19
726.91	258.82
727.24	258.65
727.57	258.45
727.91	257.96
728.24	257.77
728.57	257.17
728.90	257.06
729.23	256.45
729.56	256.52
729.89	256.21
730.22	255.84
730.55	255.58
730.89	255.25
731.22	254.96
731.55	254.61
731.88	254.38
732.21	253.94
732.54	253.61
732.87	253.47
733.20	253.34
733.53	253.10
733.86	252.90
734.19	252.48
734.52	252.41
734.85	252.82
735.18	252.39
735.51	252.57
735.84	252.29
736.17	252.36
736.50	251.62
736.83	252.47
737.16	252.31
737.49	252.26
737.82	252.00
738.15	251.86
738.48	251.75
738.81	251.47
739.14	251.16
739.47	250.91
739.80	250.61
740.13	250.44
740.46	250.10
740.79	249.71
741.12	249.52
741.45	249.21
741.78	248.49
742.11	248.51
742.44	248.08
742.77	248.09
743.10	247.72
743.43	247.61
743.75	246.37
744.08	247.35
744.41	247.05
744.74	246.79
745.07	246.33
745.40	246.23
745.73	246.45
746.06	246.37
746.39	246.35
746.71	246.20
747.04	245.98
747.37	245.90
747.70	245.97
748.03	245.90
748.36	245.76
748.68	245.50
749.01	245.11
749.34	244.92
749.67	244.71
750.00	244.69
750.33	245.17
750.65	245.19
750.98	243.87
751.31	243.70
751.64	243.66
751.97	244.17
752.29	243.93
752.62	243.37
752.95	243.15
753.28	242.87
753.60	242.65
753.93	242.67
754.26	242.66
754.59	242.19
754.91	241.99
755.24	241.78
755.57	241.73
755.90	241.64
756.22	241.50
756.55	241.17
756.88	240.92
757.20	240.13
757.53	239.68
757.86	239.52
758.19	239.59
758.51	239.57
758.84	238.94
759.17	238.81
759.49	238.71
759.82	239.11
760.15	239.03
760.47	238.99
760.80	238.64
761.13	238.60
761.45	238.58
761.78	238.43
762.11	238.50
762.43	238.28
762.76	238.12
763.08	238.09
763.41	238.01
763.74	238.00
764.06	237.94
764.39	237.92
764.71	237.83
765.04	237.53
765.37	237.27
765.69	237.20
766.02	237.04
766.34	236.91
766.67	236.36
767.00	236.45
767.32	236.84
767.65	237.46
767.97	237.29
768.30	237.27
768.62	237.11
768.95	236.86
769.27	236.74
769.60	236.74
769.92	236.61
770.25	236.42
770.57	236.07
770.90	235.93
771.22	235.71
771.55	235.68
771.87	235.68
772.20	235.57
772.52	236.28
772.85	237.37
773.17	237.33
773.50	237.33
773.82	237.06
774.15	236.60
774.47	235.87
774.80	235.70
775.12	235.56
775.45	235.58
775.77	235.53
776.09	235.67
776.42	235.67
776.74	235.83
777.07	235.73
777.39	235.81
777.72	235.68
778.04	235.88
778.36	235.81
778.69	235.66
779.01	235.73
779.33	234.83
779.66	233.73
779.98	233.61
780.31	233.51
780.63	233.93
780.95	233.97
781.28	233.83
781.60	233.81
781.92	233.85
782.25	233.75
782.57	233.76
782.89	233.63
783.22	233.46
783.54	233.27
783.86	233.34
784.19	233.17
784.51	233.44
784.83	233.20
785.16	233.08
785.48	233.20
785.80	233.18
786.12	233.20
786.45	233.12
786.77	233.21
787.09	233.17
787.42	232.81
787.74	232.71
788.06	232.81
788.38	232.77
788.71	232.74
789.03	232.80
789.35	232.91
789.67	232.74
789.99	232.84
790.32	232.66
790.64	232.79
790.96	233.57
791.28	233.12
791.61	233.24
791.93	233.32
792.25	233.13
792.57	233.73
792.89	233.54
793.21	233.64
793.54	233.49
793.86	233.36
794.18	233.27
794.50	233.11
794.82	233.05
795.14	233.14
795.47	233.17
795.79	233.09
796.11	232.78
796.43	232.62
796.75	232.64
797.07	232.67
797.39	232.53
797.71	231.81
798.04	231.95
798.36	231.83
798.68	231.66
799.00	231.76
799.32	231.21
799.64	231.41
799.96	231.27
800.28	231.35
800.60	231.33
800.92	231.34
801.24	231.31
801.56	231.29
801.89	231.13
802.21	231.16
802.53	231.04
802.85	231.23
803.17	231.79
803.49	231.42
803.81	231.34
804.13	231.29
804.45	231.20
804.77	231.20
805.09	231.09
805.41	231.04
805.73	230.87
806.05	230.64
806.37	230.53
806.69	230.36
807.01	230.34
807.33	230.33
807.65	230.14
807.97	230.52
808.28	230.48
808.60	230.46
808.92	230.26
809.24	230.83
809.56	230.64
809.88	230.22
810.20	230.39
810.52	230.55
810.84	230.33
811.16	230.16
811.48	230.14
811.80	230.59
812.12	230.56
812.43	230.72
812.75	230.81
813.07	230.78
813.39	230.95
813.71	230.79
814.03	230.82
814.35	230.83
814.67	230.44
814.98	230.31
815.30	230.22
815.62	230.03
815.94	229.47
816.26	229.88
816.58	229.79
816.89	229.90
817.21	229.68
