SpectraSuite Data File
++++++++++++++++++++++++++++++++++++
Date: Wed Sep 04 17:33:14 EDT 2013
User: lab3
Dark Spectrum Present: Yes
Reference Spectrum Present: No
Number of Sampled Component Spectra: 1
Spectrometers: USB2E7196
Integration Time (usec): 337000 (USB2E7196)
Spectra Averaged: 10 (USB2E7196)
Boxcar Smoothing: 10 (USB2E7196)
Correct for Electrical Dark: No (USB2E7196)
Strobe/Lamp Enabled: No (USB2E7196)
Correct for Detector Non-linearity: No (USB2E7196)
Correct for Stray Light: No (USB2E7196)
Number of Pixels in Processed Spectrum: 2048
>>>>>Begin Processed Spectral Data<<<<<
339.09	0.00
339.48	212.50
339.86	213.80
340.24	215.90
340.63	218.00
341.01	233.50
341.39	221.80
341.78	222.30
342.16	227.50
342.54	222.40
342.93	213.62
343.31	224.32
343.69	224.90
344.07	225.41
344.46	225.97
344.84	226.42
345.22	226.06
345.60	226.35
345.99	226.56
346.37	226.52
346.75	226.60
347.13	226.63
347.52	226.63
347.90	226.88
348.28	226.89
348.66	227.04
349.05	226.79
349.43	226.98
349.81	227.13
350.19	227.15
350.57	227.20
350.96	227.43
351.34	227.66
351.72	227.75
352.10	227.93
352.48	227.90
352.87	227.88
353.25	227.93
353.63	227.92
354.01	227.87
354.39	228.05
354.77	228.21
355.15	228.56
355.54	228.59
355.92	228.40
356.30	228.47
356.68	229.14
357.06	229.20
357.44	229.13
357.82	229.17
358.20	230.12
358.58	230.07
358.97	230.08
359.35	230.24
359.73	230.49
360.11	230.54
360.49	230.64
360.87	230.75
361.25	230.86
361.63	231.17
362.01	231.42
362.39	231.29
362.77	231.45
363.15	231.37
363.53	231.47
363.91	231.59
364.29	231.64
364.67	230.85
365.05	230.92
365.43	231.13
365.81	231.33
366.19	230.87
366.57	231.30
366.95	231.26
367.33	230.98
367.71	230.92
368.09	231.12
368.47	231.16
368.85	231.08
369.23	231.33
369.61	230.99
369.99	231.29
370.37	231.51
370.75	231.98
371.13	231.78
371.51	231.62
371.89	231.60
372.27	231.67
372.65	231.61
373.03	231.65
373.41	231.42
373.78	231.22
374.16	230.73
374.54	230.44
374.92	230.41
375.30	230.46
375.68	230.28
376.06	230.22
376.44	230.06
376.82	230.11
377.19	229.96
377.57	229.95
377.95	229.48
378.33	229.29
378.71	228.56
379.09	228.63
379.47	228.70
379.84	228.59
380.22	228.37
380.60	228.24
380.98	228.14
381.36	228.07
381.73	227.78
382.11	227.97
382.49	227.94
382.87	227.74
383.25	227.69
383.62	228.69
384.00	228.36
384.38	228.44
384.76	228.68
385.13	228.96
385.51	228.92
385.89	228.86
386.27	228.87
386.64	228.99
387.02	228.88
387.40	228.79
387.78	228.76
388.15	228.83
388.53	228.77
388.91	228.77
389.29	228.69
389.66	228.90
390.04	228.77
390.42	228.84
390.79	228.97
391.17	229.05
391.55	228.03
391.92	228.04
392.30	228.00
392.68	227.67
393.05	227.50
393.43	227.54
393.81	227.55
394.18	227.43
394.56	227.36
394.94	227.58
395.31	227.45
395.69	227.81
396.06	227.90
396.44	227.96
396.82	227.82
397.19	228.34
397.57	228.26
397.95	228.43
398.32	228.21
398.70	228.29
399.07	228.44
399.45	228.49
399.82	228.57
400.20	228.60
400.58	228.76
400.95	228.57
401.33	228.84
401.70	229.61
402.08	229.78
402.45	230.10
402.83	230.38
403.20	230.60
403.58	230.63
403.95	231.01
404.33	231.40
404.71	231.76
405.08	232.51
405.46	232.83
405.83	233.15
406.21	233.48
406.58	233.83
406.96	234.10
407.33	234.50
407.70	235.06
408.08	236.20
408.45	236.72
408.83	237.49
409.20	237.89
409.58	237.80
409.95	238.62
410.33	239.20
410.70	239.54
411.08	240.37
411.45	241.10
411.82	241.65
412.20	242.70
412.57	244.13
412.95	244.20
413.32	245.39
413.69	246.31
414.07	247.57
414.44	248.77
414.82	250.10
415.19	251.70
415.56	253.15
415.94	254.30
416.31	256.20
416.68	257.95
417.06	260.00
417.43	262.19
417.81	264.27
418.18	266.60
418.55	269.12
418.93	271.61
419.30	274.26
419.67	277.28
420.04	279.95
420.42	282.79
420.79	286.94
421.16	290.41
421.54	294.65
421.91	298.46
422.28	302.33
422.66	306.46
423.03	311.14
423.40	315.40
423.77	319.91
424.15	324.36
424.52	329.21
424.89	334.63
425.26	339.59
425.64	344.46
426.01	349.74
426.38	355.31
426.75	361.17
427.13	367.08
427.50	372.96
427.87	379.34
428.24	385.50
428.61	391.06
428.99	397.89
429.36	404.79
429.73	411.76
430.10	419.02
430.47	426.28
430.85	433.14
431.22	440.91
431.59	449.88
431.96	457.92
432.33	466.64
432.70	475.30
433.08	485.33
433.45	494.91
433.82	504.35
434.19	515.05
434.56	525.73
434.93	535.48
435.30	545.54
435.68	556.55
436.05	567.45
436.42	578.12
436.79	588.03
437.16	598.77
437.53	610.14
437.90	621.33
438.27	632.77
438.64	644.28
439.01	655.39
439.38	664.41
439.75	673.60
440.13	684.28
440.50	694.15
440.87	702.21
441.24	710.47
441.61	719.80
441.98	726.46
442.35	733.85
442.72	741.81
443.09	749.80
443.46	754.25
443.83	757.50
444.20	760.27
444.57	764.15
444.94	765.60
445.31	767.20
445.68	769.66
446.05	769.79
446.42	768.32
446.79	766.57
447.16	764.69
447.53	763.61
447.90	758.81
448.27	754.00
448.64	747.77
449.01	743.16
449.37	735.23
449.74	727.65
450.11	719.42
450.48	709.69
450.85	699.10
451.22	690.68
451.59	682.36
451.96	674.54
452.33	664.16
452.70	654.70
453.07	643.75
453.43	631.68
453.80	621.05
454.17	610.94
454.54	601.08
454.91	590.81
455.28	580.32
455.65	570.74
456.02	562.50
456.38	554.55
456.75	544.65
457.12	536.50
457.49	528.22
457.86	519.69
458.23	512.97
458.59	505.84
458.96	498.21
459.33	491.56
459.70	484.88
460.07	479.48
460.43	473.67
460.80	468.22
461.17	463.23
461.54	458.11
461.91	453.21
462.27	448.23
462.64	443.70
463.01	439.21
463.38	435.29
463.74	429.48
464.11	425.54
464.48	422.26
464.85	418.46
465.21	415.97
465.58	412.95
465.95	409.33
466.32	406.36
466.68	403.49
467.05	400.50
467.42	397.71
467.78	394.73
468.15	391.86
468.52	389.90
468.88	387.02
469.25	384.45
469.62	382.51
469.98	380.38
470.35	378.56
470.72	376.74
471.08	374.34
471.45	372.99
471.82	371.44
472.18	369.56
472.55	368.23
472.92	366.35
473.28	364.96
473.65	363.77
474.02	362.46
474.38	361.35
474.75	360.45
475.11	359.21
475.48	358.39
475.85	357.50
476.21	356.39
476.58	355.85
476.94	355.18
477.31	354.37
477.67	353.73
478.04	353.17
478.41	352.60
478.77	353.15
479.14	352.57
479.50	352.33
479.87	352.11
480.23	351.77
480.60	351.57
480.96	351.46
481.33	351.60
481.69	351.47
482.06	351.65
482.42	351.77
482.79	352.04
483.15	352.25
483.52	352.70
483.88	353.00
484.25	353.37
484.61	353.85
484.98	354.37
485.34	355.28
485.71	356.03
486.07	356.92
486.44	356.99
486.80	357.93
487.17	358.75
487.53	360.00
487.90	361.46
488.26	363.17
488.62	364.70
488.99	365.94
489.35	367.66
489.72	369.17
490.08	370.89
490.44	372.63
490.81	374.70
491.17	376.57
491.54	378.86
491.90	381.25
492.26	383.65
492.63	386.29
492.99	388.73
493.36	391.57
493.72	394.48
494.08	397.40
494.45	400.55
494.81	404.20
495.17	407.58
495.54	411.23
495.90	414.42
496.26	418.12
496.63	422.20
496.99	426.25
497.35	430.51
497.72	434.93
498.08	439.50
498.44	444.32
498.80	449.52
499.17	454.41
499.53	459.34
499.89	464.81
500.26	470.12
500.62	475.94
500.98	482.00
501.34	487.98
501.71	494.52
502.07	500.93
502.43	507.23
502.79	513.81
503.16	520.60
503.52	527.71
503.88	534.73
504.24	542.29
504.60	550.24
504.97	558.54
505.33	566.70
505.69	575.35
506.05	583.91
506.41	592.58
506.78	601.44
507.14	610.84
507.50	620.54
507.86	630.49
508.22	640.32
508.59	649.88
508.95	659.97
509.31	670.57
509.67	681.13
510.03	691.78
510.39	702.62
510.75	713.80
511.12	725.25
511.48	736.88
511.84	748.41
512.20	759.95
512.56	771.82
512.92	783.95
513.28	796.15
513.64	808.44
514.00	821.10
514.37	834.23
514.73	847.29
515.09	860.47
515.45	873.41
515.81	886.61
516.17	900.24
516.53	914.04
516.89	927.12
517.25	940.89
517.61	955.86
517.97	970.89
518.33	985.66
518.69	1000.41
519.05	1016.02
519.41	1031.39
519.77	1047.29
520.13	1062.47
520.49	1077.61
520.85	1095.69
521.21	1111.75
521.57	1127.58
521.93	1142.71
522.29	1158.45
522.65	1173.49
523.01	1189.14
523.37	1204.53
523.73	1220.38
524.09	1235.90
524.45	1251.16
524.81	1266.98
525.17	1282.37
525.53	1297.82
525.89	1313.13
526.25	1328.99
526.61	1344.00
526.97	1359.29
527.33	1375.05
527.68	1391.99
528.04	1408.85
528.40	1422.39
528.76	1438.44
529.12	1454.08
529.48	1470.33
529.84	1485.94
530.20	1502.54
530.56	1519.16
530.91	1535.89
531.27	1551.73
531.63	1567.79
531.99	1584.47
532.35	1600.96
532.71	1617.08
533.07	1633.42
533.42	1650.59
533.78	1666.63
534.14	1682.68
534.50	1698.57
534.86	1713.97
535.21	1727.96
535.57	1742.82
535.93	1757.28
536.29	1771.87
536.65	1787.05
537.00	1801.35
537.36	1815.98
537.72	1829.69
538.08	1843.78
538.44	1857.43
538.79	1871.33
539.15	1885.21
539.51	1898.83
539.87	1911.59
540.22	1923.40
540.58	1935.61
540.94	1946.11
541.29	1957.00
541.65	1967.56
542.01	1978.54
542.37	1988.27
542.72	1998.08
543.08	2006.98
543.44	2017.44
543.79	2026.37
544.15	2035.52
544.51	2045.14
544.87	2053.62
545.22	2062.19
545.58	2069.74
545.94	2076.62
546.29	2083.78
546.65	2090.46
547.01	2096.71
547.36	2103.01
547.72	2109.39
548.07	2114.57
548.43	2120.78
548.79	2126.35
549.14	2132.05
549.50	2137.48
549.86	2142.68
550.21	2148.27
550.57	2153.67
550.92	2156.90
551.28	2160.49
551.64	2164.39
551.99	2168.07
552.35	2171.59
552.70	2174.99
553.06	2178.98
553.41	2183.06
553.77	2186.94
554.13	2190.11
554.48	2193.45
554.84	2196.67
555.19	2199.48
555.55	2203.73
555.90	2205.10
556.26	2207.05
556.61	2207.96
556.97	2208.19
557.32	2209.88
557.68	2210.85
558.03	2211.92
558.39	2213.23
558.74	2214.57
559.10	2214.62
559.45	2214.31
559.81	2213.90
560.16	2212.67
560.52	2211.24
560.87	2210.31
561.23	2208.19
561.58	2207.13
561.94	2204.51
562.29	2201.50
562.64	2199.06
563.00	2194.43
563.35	2192.45
563.71	2189.87
564.06	2188.04
564.42	2185.77
564.77	2183.61
565.12	2181.10
565.48	2178.62
565.83	2175.82
566.19	2172.90
566.54	2169.67
566.89	2166.46
567.25	2163.72
567.60	2161.40
567.96	2159.00
568.31	2155.95
568.66	2152.69
569.02	2148.43
569.37	2145.03
569.72	2141.91
570.08	2138.01
570.43	2134.09
570.78	2129.72
571.14	2125.32
571.49	2119.90
571.84	2115.13
572.20	2108.90
572.55	2103.15
572.90	2096.60
573.26	2090.53
573.61	2084.32
573.96	2078.36
574.31	2071.38
574.67	2064.49
575.02	2056.83
575.37	2048.87
575.72	2040.54
576.08	2033.10
576.43	2025.23
576.78	2017.20
577.13	2008.95
577.49	2000.63
577.84	1993.31
578.19	1986.00
578.54	1978.48
578.90	1971.84
579.25	1964.60
579.60	1957.20
579.95	1949.49
580.30	1942.05
580.66	1933.83
581.01	1925.38
581.36	1916.11
581.71	1908.21
582.06	1900.48
582.42	1892.53
582.77	1884.29
583.12	1876.91
583.47	1869.10
583.82	1861.96
584.17	1854.90
584.53	1847.69
584.88	1839.22
585.23	1830.60
585.58	1821.10
585.93	1812.24
586.28	1803.10
586.63	1793.53
586.98	1784.18
587.34	1775.33
587.69	1766.24
588.04	1758.25
588.39	1750.52
588.74	1742.16
589.09	1734.32
589.44	1724.98
589.79	1716.92
590.14	1708.90
590.49	1700.80
590.84	1692.39
591.19	1683.99
591.54	1675.11
591.89	1665.93
592.25	1659.72
592.60	1651.86
592.95	1644.01
593.30	1635.40
593.65	1626.74
594.00	1618.10
594.35	1612.70
594.70	1603.82
595.05	1595.25
595.40	1586.09
595.75	1576.72
596.10	1568.96
596.45	1560.31
596.80	1552.26
597.15	1543.62
597.50	1534.94
597.85	1526.33
598.19	1517.81
598.54	1508.49
598.89	1499.61
599.24	1491.95
599.59	1482.68
599.94	1474.10
600.29	1466.37
600.64	1458.40
600.99	1450.17
601.34	1443.13
601.69	1432.70
602.04	1425.00
602.39	1417.60
602.74	1410.49
603.08	1403.19
603.43	1395.86
603.78	1388.11
604.13	1380.53
604.48	1372.62
604.83	1364.35
605.18	1355.91
605.53	1347.74
605.87	1340.73
606.22	1333.88
606.57	1325.83
606.92	1318.02
607.27	1310.68
607.62	1303.25
607.96	1296.25
608.31	1289.35
608.66	1282.19
609.01	1275.01
609.36	1267.60
609.70	1260.26
610.05	1252.73
610.40	1245.53
610.75	1237.71
611.10	1230.55
611.44	1222.71
611.79	1215.47
612.14	1208.79
612.49	1201.64
612.83	1195.36
613.18	1187.83
613.53	1180.78
613.88	1173.74
614.22	1166.58
614.57	1159.40
614.92	1151.94
615.27	1144.98
615.61	1138.12
615.96	1130.77
616.31	1123.60
616.65	1117.29
617.00	1110.18
617.35	1103.48
617.70	1096.65
618.04	1090.18
618.39	1083.51
618.74	1077.85
619.08	1071.45
619.43	1064.68
619.78	1058.27
620.12	1051.25
620.47	1045.03
620.82	1038.05
621.16	1031.35
621.51	1025.58
621.85	1019.50
622.20	1013.17
622.55	1006.34
622.89	999.80
623.24	993.76
623.59	987.31
623.93	980.94
624.28	974.81
624.62	969.45
624.97	964.02
625.32	957.74
625.66	951.28
626.01	944.72
626.35	938.98
626.70	933.18
627.04	927.72
627.39	921.80
627.73	916.21
628.08	910.77
628.43	904.87
628.77	898.60
629.12	892.72
629.46	887.35
629.81	882.55
630.15	877.10
630.50	871.69
630.84	866.62
631.19	861.41
631.53	856.57
631.88	850.70
632.22	845.10
632.57	840.27
632.91	835.34
633.26	830.41
633.60	825.02
633.95	819.60
634.29	814.02
634.64	809.08
634.98	803.48
635.32	798.66
635.67	794.40
636.01	789.72
636.36	784.89
636.70	780.65
637.05	775.73
637.39	771.31
637.73	766.57
638.08	762.14
638.42	757.11
638.77	751.96
639.11	746.64
639.45	741.23
639.80	735.91
640.14	731.00
640.49	726.35
640.83	721.95
641.17	717.86
641.52	713.58
641.86	709.16
642.20	705.54
642.55	700.87
642.89	696.37
643.23	692.10
643.58	688.13
643.92	683.11
644.26	678.91
644.61	674.78
644.95	670.46
645.29	665.99
645.64	662.49
645.98	658.55
646.32	654.91
646.66	651.00
647.01	647.26
647.35	643.85
647.69	640.19
648.04	636.54
648.38	632.80
648.72	629.18
649.06	625.24
649.41	621.04
649.75	617.11
650.09	613.50
650.43	609.61
650.78	605.76
651.12	602.40
651.46	598.71
651.80	595.08
652.14	591.52
652.49	588.43
652.83	584.63
653.17	581.18
653.51	577.31
653.85	574.37
654.20	571.04
654.54	567.42
654.88	563.76
655.22	560.77
655.56	557.55
655.90	554.41
656.25	551.40
656.59	548.34
656.93	545.62
657.27	542.68
657.61	539.54
657.95	536.42
658.29	533.28
658.64	530.47
658.98	527.37
659.32	524.33
659.66	521.20
660.00	518.37
660.34	515.51
660.68	512.85
661.02	509.71
661.36	507.03
661.70	504.15
662.05	501.37
662.39	498.45
662.73	495.90
663.07	493.41
663.41	490.82
663.75	488.01
664.09	485.21
664.43	482.23
664.77	479.86
665.11	477.35
665.45	474.95
665.79	472.39
666.13	469.87
666.47	467.44
666.81	464.80
667.15	462.11
667.49	459.85
667.83	457.92
668.17	455.63
668.51	453.33
668.85	451.40
669.19	449.82
669.53	447.39
669.87	444.93
670.21	442.51
670.55	440.14
670.89	438.46
671.23	436.44
671.57	434.21
671.91	432.07
672.25	429.97
672.58	428.08
672.92	425.72
673.26	423.80
673.60	421.80
673.94	419.86
674.28	418.01
674.62	415.99
674.96	413.87
675.30	412.11
675.64	410.09
675.97	408.09
676.31	405.70
676.65	403.61
676.99	402.00
677.33	399.94
677.67	398.28
678.01	396.00
678.34	394.33
678.68	392.83
679.02	390.95
679.36	389.32
679.70	387.57
680.04	386.14
680.37	384.42
680.71	382.78
681.05	381.28
681.39	379.79
681.73	378.23
682.06	376.81
682.40	375.34
682.74	374.07
683.08	372.96
683.42	371.56
683.75	370.45
684.09	368.78
684.43	367.57
684.77	366.00
685.10	364.86
685.44	363.43
685.78	362.03
686.12	360.77
686.45	359.41
686.79	357.90
687.13	356.88
687.46	355.51
687.80	354.42
688.14	353.08
688.48	351.84
688.81	350.57
689.15	349.33
689.49	347.94
689.82	346.81
690.16	345.14
690.50	343.98
690.83	342.71
691.17	341.40
691.51	340.14
691.84	339.20
692.18	337.74
692.52	336.36
692.85	335.45
693.19	334.80
693.52	333.61
693.86	332.49
694.20	331.09
694.53	330.00
694.87	328.78
695.21	327.50
695.54	326.35
695.88	325.07
696.21	323.68
696.55	322.67
696.88	321.42
697.22	320.22
697.56	319.24
697.89	318.09
698.23	317.19
698.56	316.16
698.90	315.24
699.23	314.31
699.57	313.39
699.90	312.16
700.24	310.76
700.58	309.90
700.91	309.21
701.25	309.01
701.58	308.80
701.92	308.14
702.25	307.44
702.59	306.46
702.92	305.94
703.26	305.30
703.59	304.54
703.93	304.60
704.26	304.10
704.60	303.30
704.93	302.45
705.26	301.58
705.60	300.95
705.93	299.89
706.27	299.46
706.60	299.05
706.94	298.80
707.27	297.99
707.61	297.41
707.94	296.64
708.27	295.17
708.61	293.78
708.94	292.91
709.28	292.24
709.61	291.60
709.94	290.80
710.28	290.05
710.61	289.24
710.95	287.64
711.28	287.42
711.61	286.60
711.95	286.13
712.28	285.45
712.61	284.75
712.95	284.71
713.28	284.43
713.61	283.60
713.95	282.58
714.28	282.16
714.61	281.43
714.95	280.74
715.28	280.11
715.61	279.63
715.95	279.12
716.28	278.36
716.61	278.01
716.95	277.37
717.28	276.87
717.61	276.39
717.94	275.84
718.28	274.76
718.61	274.43
718.94	273.85
719.27	273.36
719.61	273.02
719.94	272.18
720.27	271.23
720.60	270.67
720.94	270.27
721.27	269.82
721.60	269.52
721.93	269.03
722.27	268.90
722.60	268.50
722.93	268.02
723.26	267.83
723.59	267.20
723.93	266.99
724.26	266.68
724.59	266.27
724.92	266.07
725.25	265.90
725.59	265.39
725.92	265.14
726.25	264.77
726.58	264.32
726.91	263.97
727.24	263.73
727.57	263.51
727.91	263.04
728.24	262.66
728.57	262.09
728.90	261.88
729.23	261.36
729.56	261.52
729.89	261.24
730.22	260.83
730.55	260.50
730.89	260.11
731.22	259.69
731.55	259.40
731.88	259.10
732.21	258.63
732.54	258.28
732.87	257.93
733.20	257.70
733.53	257.38
733.86	257.24
734.19	256.87
734.52	256.70
734.85	257.04
735.18	256.62
735.51	256.74
735.84	256.48
736.17	256.37
736.50	255.49
736.83	256.27
737.16	255.98
737.49	255.74
737.82	255.22
738.15	255.14
738.48	254.80
738.81	254.49
739.14	254.08
739.47	253.72
739.80	253.40
740.13	253.28
740.46	252.88
740.79	252.51
741.12	252.20
741.45	251.74
741.78	250.96
742.11	251.09
742.44	250.53
742.77	250.44
743.10	250.10
743.43	249.88
743.75	248.60
744.08	249.71
744.41	249.51
744.74	249.37
745.07	248.81
745.40	248.73
745.73	248.88
746.06	248.78
746.39	248.78
746.71	248.52
747.04	248.11
747.37	247.93
747.70	247.80
748.03	247.59
748.36	247.54
748.68	247.38
749.01	246.84
749.34	246.65
749.67	246.34
750.00	246.36
750.33	246.88
750.65	246.74
750.98	245.33
751.31	245.24
751.64	245.18
751.97	245.52
752.29	245.30
752.62	244.77
752.95	244.64
753.28	244.36
753.60	244.24
753.93	244.43
754.26	244.30
754.59	243.85
754.91	243.73
755.24	243.51
755.57	243.39
755.90	243.26
756.22	243.10
756.55	242.88
756.88	242.52
757.20	241.79
757.53	241.47
757.86	241.31
758.19	241.20
758.51	240.97
758.84	240.41
759.17	240.12
759.49	240.00
759.82	240.21
760.15	240.13
760.47	239.89
760.80	239.42
761.13	239.49
761.45	239.38
761.78	239.16
762.11	239.09
762.43	238.81
762.76	238.67
763.08	238.70
763.41	238.72
763.74	238.61
764.06	238.41
764.39	238.24
764.71	238.08
765.04	237.87
765.37	237.68
765.69	237.59
766.02	237.53
766.34	237.33
766.67	236.95
767.00	237.03
767.32	237.58
767.65	238.09
767.97	237.90
768.30	237.90
768.62	237.81
768.95	237.60
769.27	237.48
769.60	237.57
769.92	237.32
770.25	237.03
770.57	236.81
770.90	236.79
771.22	236.61
771.55	236.46
771.87	236.39
772.20	236.40
772.52	237.12
772.85	238.11
773.17	238.09
773.50	237.96
773.82	237.79
774.15	237.16
774.47	236.45
774.80	236.41
775.12	236.29
775.45	236.24
775.77	236.17
776.09	236.18
776.42	236.06
776.74	236.32
777.07	236.25
777.39	236.20
777.72	236.08
778.04	236.16
778.36	236.08
778.69	236.06
779.01	236.01
779.33	235.15
779.66	234.10
779.98	233.97
780.31	233.86
780.63	234.17
780.95	234.33
781.28	234.25
781.60	233.96
781.92	233.92
782.25	233.84
782.57	233.80
782.89	233.67
783.22	233.59
783.54	233.25
783.86	233.21
784.19	233.10
784.51	233.29
784.83	233.16
785.16	233.15
785.48	233.07
785.80	233.05
786.12	233.16
786.45	233.07
786.77	233.10
787.09	233.09
787.42	232.66
787.74	232.59
788.06	232.65
788.38	232.69
788.71	232.49
789.03	232.55
789.35	232.66
789.67	232.60
789.99	232.62
790.32	232.45
790.64	232.58
790.96	233.36
791.28	233.11
791.61	232.96
791.93	233.09
792.25	233.00
792.57	233.69
792.89	233.39
793.21	233.51
793.54	233.39
793.86	233.23
794.18	233.20
794.50	233.04
794.82	232.97
795.14	233.09
795.47	233.38
795.79	233.30
796.11	233.00
796.43	232.92
796.75	232.82
797.07	232.90
797.39	232.81
797.71	232.09
798.04	232.04
798.36	232.17
798.68	232.01
799.00	232.06
799.32	231.52
799.64	231.63
799.96	231.56
800.28	231.77
800.60	231.71
800.92	231.80
801.24	231.72
801.56	231.85
801.89	231.69
802.21	231.67
802.53	231.46
802.85	231.80
803.17	232.30
803.49	232.20
803.81	232.05
804.13	231.95
804.45	231.87
804.77	232.02
805.09	232.12
805.41	231.95
805.73	231.79
806.05	231.51
806.37	231.56
806.69	231.51
807.01	231.38
807.33	231.42
807.65	231.09
807.97	231.53
808.28	231.35
808.60	231.40
808.92	231.21
809.24	231.88
809.56	231.69
809.88	231.29
810.20	231.29
810.52	231.62
810.84	231.43
811.16	231.38
811.48	231.24
811.80	231.48
812.12	231.63
812.43	231.80
812.75	231.84
813.07	231.75
813.39	231.70
813.71	231.60
814.03	231.52
814.35	231.60
814.67	231.28
814.98	231.23
815.30	231.09
815.62	230.92
815.94	230.31
816.26	230.72
816.58	230.57
816.89	230.58
817.21	230.29
817.53	230.54
