SpectraSuite Data File
++++++++++++++++++++++++++++++++++++
Date: Wed Sep 04 17:33:31 EDT 2013
User: lab3
Dark Spectrum Present: Yes
Reference Spectrum Present: No
Number of Sampled Component Spectra: 1
Spectrometers: USB2E7196
Integration Time (usec): 337000 (USB2E7196)
Spectra Averaged: 10 (USB2E7196)
Boxcar Smoothing: 10 (USB2E7196)
Correct for Electrical Dark: No (USB2E7196)
Strobe/Lamp Enabled: No (USB2E7196)
Correct for Detector Non-linearity: No (USB2E7196)
Correct for Stray Light: No (USB2E7196)
Number of Pixels in Processed Spectrum: 2048
>>>>>Begin Processed Spectral Data<<<<<
339.09	0.00
339.48	213.20
339.86	214.20
340.24	216.00
340.63	218.00
341.01	232.20
341.39	219.40
341.78	223.40
342.16	224.10
342.54	225.60
342.93	213.45
343.31	224.15
343.69	224.64
344.07	225.14
344.46	225.72
344.84	226.20
345.22	225.93
345.60	226.26
345.99	226.51
346.37	226.72
346.75	226.72
347.13	226.69
347.52	226.76
347.90	227.17
348.28	227.22
348.66	227.42
349.05	227.20
349.43	227.31
349.81	227.47
350.19	227.52
350.57	227.57
350.96	227.71
351.34	227.80
351.72	227.99
352.10	228.03
352.48	227.95
352.87	227.98
353.25	227.94
353.63	227.94
354.01	227.87
354.39	227.82
354.77	227.93
355.15	228.25
355.54	228.11
355.92	227.84
356.30	227.88
356.68	228.51
357.06	228.75
357.44	228.61
357.82	228.48
358.20	229.38
358.58	229.40
358.97	229.55
359.35	229.89
359.73	230.01
360.11	230.19
360.49	230.27
360.87	230.23
361.25	230.44
361.63	230.85
362.01	231.01
362.39	231.07
362.77	231.17
363.15	231.13
363.53	231.27
363.91	231.35
364.29	231.34
364.67	230.43
365.05	230.42
365.43	230.58
365.81	230.79
366.19	230.43
366.57	230.89
366.95	230.78
367.33	230.56
367.71	230.74
368.09	230.84
368.47	230.91
368.85	230.92
369.23	231.04
369.61	230.73
369.99	231.02
370.37	231.16
370.75	231.63
371.13	231.56
371.51	231.45
371.89	231.60
372.27	231.74
372.65	231.81
373.03	231.78
373.41	231.61
373.78	231.51
374.16	231.04
374.54	230.70
374.92	230.59
375.30	230.51
375.68	230.18
376.06	230.25
376.44	230.08
376.82	230.10
377.19	229.99
377.57	229.95
377.95	229.57
378.33	229.47
378.71	228.82
379.09	228.88
379.47	228.99
379.84	228.86
380.22	228.70
380.60	228.62
380.98	228.62
381.36	228.65
381.73	228.43
382.11	228.54
382.49	228.56
382.87	228.45
383.25	228.39
383.62	229.52
384.00	229.21
384.38	229.31
384.76	229.46
385.13	229.77
385.51	229.62
385.89	229.50
386.27	229.47
386.64	229.56
387.02	229.46
387.40	229.22
387.78	229.21
388.15	229.21
388.53	229.07
388.91	229.02
389.29	228.90
389.66	229.11
390.04	228.96
390.42	229.08
390.79	229.11
391.17	229.10
391.55	228.07
391.92	228.10
392.30	228.12
392.68	227.94
393.05	227.98
393.43	228.23
393.81	228.20
394.18	228.08
394.56	228.13
394.94	228.39
395.31	228.38
395.69	228.69
396.06	228.88
396.44	229.08
396.82	228.96
397.19	229.57
397.57	229.52
397.95	229.67
398.32	229.37
398.70	229.51
399.07	229.76
399.45	229.78
399.82	229.87
400.20	229.81
400.58	229.84
400.95	229.55
401.33	229.77
401.70	230.70
402.08	230.94
402.45	231.08
402.83	231.20
403.20	231.50
403.58	231.41
403.95	231.73
404.33	232.02
404.71	232.34
405.08	233.09
405.46	233.42
405.83	233.81
406.21	234.06
406.58	234.45
406.96	234.80
407.33	235.27
407.70	235.73
408.08	236.99
408.45	237.66
408.83	238.35
409.20	238.69
409.58	238.70
409.95	239.41
410.33	240.13
410.70	240.66
411.08	241.54
411.45	242.39
411.82	242.98
412.20	243.99
412.57	245.54
412.95	245.53
413.32	246.68
413.69	247.76
414.07	249.19
414.44	250.45
414.82	251.83
415.19	253.40
415.56	254.93
415.94	256.03
416.31	257.82
416.68	259.64
417.06	261.73
417.43	263.79
417.81	266.06
418.18	268.43
418.55	270.87
418.93	273.40
419.30	276.11
419.67	279.01
420.04	281.83
420.42	284.82
420.79	289.18
421.16	292.89
421.54	297.00
421.91	300.77
422.28	304.68
422.66	309.01
423.03	313.87
423.40	318.24
423.77	322.89
424.15	327.70
424.52	332.64
424.89	338.27
425.26	343.42
425.64	348.38
426.01	353.88
426.38	359.51
426.75	365.70
427.13	371.65
427.50	378.00
427.87	384.63
428.24	390.98
428.61	396.70
428.99	403.75
429.36	410.83
429.73	418.33
430.10	425.78
430.47	433.20
430.85	440.12
431.22	448.40
431.59	457.76
431.96	465.91
432.33	475.09
432.70	483.82
433.08	494.30
433.45	504.23
433.82	513.88
434.19	525.00
434.56	535.66
434.93	545.95
435.30	556.34
435.68	567.64
436.05	578.86
436.42	589.80
436.79	600.10
437.16	611.22
437.53	622.80
437.90	634.33
438.27	645.90
438.64	657.85
439.01	668.79
439.38	678.03
439.75	687.70
440.13	698.37
440.50	708.41
440.87	716.64
441.24	725.06
441.61	734.50
441.98	741.49
442.35	749.20
442.72	757.40
443.09	765.58
443.46	770.61
443.83	773.67
444.20	776.44
444.57	779.93
444.94	781.45
445.31	783.18
445.68	785.68
446.05	786.15
446.42	784.67
446.79	783.22
447.16	781.34
447.53	779.97
447.90	775.17
448.27	770.45
448.64	764.04
449.01	759.40
449.37	751.51
449.74	743.51
450.11	734.84
450.48	724.54
450.85	713.56
451.22	704.32
451.59	695.90
451.96	687.75
452.33	677.20
452.70	667.60
453.07	656.05
453.43	643.54
453.80	632.38
454.17	621.65
454.54	611.33
454.91	600.51
455.28	589.89
455.65	580.14
456.02	571.77
456.38	563.45
456.75	553.21
457.12	544.30
457.49	535.87
457.86	527.08
458.23	520.36
458.59	512.81
458.96	505.07
459.33	498.19
459.70	491.43
460.07	485.97
460.43	479.79
460.80	474.23
461.17	469.45
461.54	464.09
461.91	459.19
462.27	454.07
462.64	449.66
463.01	444.77
463.38	440.57
463.74	434.45
464.11	430.45
464.48	426.93
464.85	423.29
465.21	420.56
465.58	417.67
465.95	413.80
466.32	411.01
466.68	408.02
467.05	405.12
467.42	402.16
467.78	399.20
468.15	396.22
468.52	394.25
468.88	391.13
469.25	388.65
469.62	386.66
469.98	384.61
470.35	382.53
470.72	380.62
471.08	378.13
471.45	376.75
471.82	375.01
472.18	373.02
472.55	371.73
472.92	369.97
473.28	368.43
473.65	367.17
474.02	365.65
474.38	364.54
474.75	363.45
475.11	362.29
475.48	361.37
475.85	360.66
476.21	359.53
476.58	358.90
476.94	358.27
477.31	357.70
477.67	356.94
478.04	356.60
478.41	356.17
478.77	356.95
479.14	356.40
479.50	356.21
479.87	356.32
480.23	356.32
480.60	356.11
480.96	356.02
481.33	356.40
481.69	356.66
482.06	356.83
482.42	357.20
482.79	357.58
483.15	358.07
483.52	358.69
483.88	359.16
484.25	359.60
484.61	360.32
484.98	360.83
485.34	361.94
485.71	362.80
486.07	363.82
486.44	363.93
486.80	365.00
487.17	366.11
487.53	367.47
487.90	369.01
488.26	370.86
488.62	372.63
488.99	373.99
489.35	375.63
489.72	377.63
490.08	379.42
490.44	381.51
490.81	383.80
491.17	386.18
491.54	388.95
491.90	391.88
492.26	394.57
492.63	397.57
492.99	400.48
493.36	403.70
493.72	407.30
494.08	410.98
494.45	414.95
494.81	419.20
495.17	423.12
495.54	427.43
495.90	431.75
496.26	436.42
496.63	441.43
496.99	446.39
497.35	451.50
497.72	457.12
498.08	462.60
498.44	468.17
498.80	474.46
499.17	480.34
499.53	486.25
499.89	492.90
500.26	499.60
500.62	506.56
500.98	514.00
501.34	521.27
501.71	529.00
502.07	536.57
502.43	544.41
502.79	552.69
503.16	561.12
503.52	569.78
503.88	578.68
504.24	587.90
504.60	597.58
504.97	607.54
505.33	617.43
505.69	628.41
506.05	639.17
506.41	649.80
506.78	661.17
507.14	672.85
507.50	684.67
507.86	696.98
508.22	709.31
508.59	721.65
508.95	734.69
509.31	748.31
509.67	761.91
510.03	775.46
510.39	789.41
510.75	803.33
511.12	817.74
511.48	832.43
511.84	847.08
512.20	862.20
512.56	877.11
512.92	893.05
513.28	908.62
513.64	924.27
514.00	940.78
514.37	957.29
514.73	974.28
515.09	991.49
515.45	1008.12
515.81	1025.32
516.17	1042.57
516.53	1059.99
516.89	1077.01
517.25	1094.79
517.61	1113.72
517.97	1132.79
518.33	1151.70
518.69	1170.80
519.05	1190.07
519.41	1209.73
519.77	1229.30
520.13	1248.91
520.49	1268.13
520.85	1290.48
521.21	1310.89
521.57	1330.81
521.93	1350.06
522.29	1369.96
522.65	1389.18
523.01	1409.31
523.37	1428.69
523.73	1448.99
524.09	1468.28
524.45	1487.72
524.81	1507.29
525.17	1526.49
525.53	1545.24
525.89	1565.31
526.25	1584.62
526.61	1603.80
526.97	1623.39
527.33	1643.22
527.68	1664.20
528.04	1684.47
528.40	1701.34
528.76	1721.31
529.12	1740.82
529.48	1761.00
529.84	1780.26
530.20	1800.47
530.56	1820.22
530.91	1840.81
531.27	1860.30
531.63	1880.32
531.99	1900.08
532.35	1919.80
532.71	1939.36
533.07	1959.78
533.42	1979.12
533.78	1999.00
534.14	2018.40
534.50	2037.38
534.86	2056.30
535.21	2073.22
535.57	2091.41
535.93	2109.01
536.29	2126.80
536.65	2144.66
537.00	2161.73
537.36	2178.75
537.72	2195.12
538.08	2212.33
538.44	2228.16
538.79	2244.46
539.15	2260.66
539.51	2276.87
539.87	2292.03
540.22	2305.94
540.58	2320.27
540.94	2333.61
541.29	2346.06
541.65	2358.58
542.01	2371.11
542.37	2382.53
542.72	2394.10
543.08	2404.51
543.44	2416.91
543.79	2427.00
544.15	2437.20
544.51	2447.82
544.87	2458.11
545.22	2467.60
545.58	2475.76
545.94	2483.65
546.29	2491.09
546.65	2498.00
547.01	2504.52
547.36	2511.35
547.72	2518.27
548.07	2523.43
548.43	2529.56
548.79	2535.71
549.14	2541.30
549.50	2546.88
549.86	2551.68
550.21	2556.67
550.57	2562.53
550.92	2564.96
551.28	2567.96
551.64	2571.73
551.99	2575.67
552.35	2578.44
552.70	2581.69
553.06	2585.10
553.41	2588.45
553.77	2591.91
554.13	2595.45
554.48	2599.07
554.84	2602.11
555.19	2605.10
555.55	2608.80
555.90	2609.80
556.26	2610.66
556.61	2611.35
556.97	2610.81
557.32	2611.93
557.68	2613.25
558.03	2612.90
558.39	2613.89
558.74	2615.21
559.10	2614.60
559.45	2613.47
559.81	2611.61
560.16	2609.21
560.52	2606.70
560.87	2605.13
561.23	2602.43
561.58	2599.54
561.94	2594.86
562.29	2590.47
562.64	2586.02
563.00	2580.03
563.35	2576.37
563.71	2573.08
564.06	2569.36
564.42	2565.68
564.77	2562.24
565.12	2557.39
565.48	2553.98
565.83	2549.60
566.19	2544.21
566.54	2539.60
566.89	2534.27
567.25	2530.21
567.60	2526.47
567.96	2522.99
568.31	2518.05
568.66	2512.87
569.02	2506.89
569.37	2502.20
569.72	2497.98
570.08	2492.17
570.43	2486.48
570.78	2480.81
571.14	2474.15
571.49	2466.94
571.84	2460.78
572.20	2452.80
572.55	2445.51
572.90	2436.67
573.26	2428.56
573.61	2420.86
573.96	2411.90
574.31	2402.92
574.67	2393.80
575.02	2384.25
575.37	2373.79
575.72	2363.53
576.08	2354.07
576.43	2344.19
576.78	2333.56
577.13	2322.33
577.49	2312.32
577.84	2303.29
578.19	2293.82
578.54	2284.34
578.90	2275.74
579.25	2266.17
579.60	2256.53
579.95	2246.59
580.30	2236.34
580.66	2226.40
581.01	2215.26
581.36	2204.42
581.71	2194.28
582.06	2184.24
582.42	2173.99
582.77	2163.59
583.12	2153.96
583.47	2144.17
583.82	2135.00
584.17	2125.65
584.53	2116.66
584.88	2106.15
585.23	2095.13
585.58	2083.48
585.93	2072.06
586.28	2060.62
586.63	2048.58
586.98	2036.70
587.34	2025.48
587.69	2014.27
588.04	2003.58
588.39	1993.91
588.74	1983.80
589.09	1973.77
589.44	1962.85
589.79	1952.57
590.14	1942.75
590.49	1932.45
590.84	1922.21
591.19	1911.73
591.54	1900.97
591.89	1890.23
592.25	1882.46
592.60	1872.70
592.95	1863.18
593.30	1853.05
593.65	1842.63
594.00	1832.22
594.35	1824.85
594.70	1814.56
595.05	1804.89
595.40	1794.20
595.75	1783.55
596.10	1773.28
596.45	1763.20
596.80	1753.60
597.15	1743.15
597.50	1732.83
597.85	1723.04
598.19	1712.33
598.54	1701.72
598.89	1691.68
599.24	1682.02
599.59	1670.80
599.94	1660.95
600.29	1651.21
600.64	1641.76
600.99	1631.94
601.34	1623.36
601.69	1611.87
602.04	1602.67
602.39	1593.50
602.74	1584.50
603.08	1575.51
603.43	1567.02
603.78	1557.47
604.13	1548.46
604.48	1539.65
604.83	1529.76
605.18	1519.85
605.53	1510.34
605.87	1501.59
606.22	1493.33
606.57	1483.65
606.92	1473.98
607.27	1465.31
607.62	1456.19
607.96	1447.66
608.31	1439.86
608.66	1431.17
609.01	1422.17
609.36	1413.37
609.70	1404.73
610.05	1396.10
610.40	1387.58
610.75	1378.56
611.10	1370.38
611.44	1361.11
611.79	1352.22
612.14	1344.41
612.49	1336.04
612.83	1328.32
613.18	1320.12
613.53	1312.09
613.88	1303.88
614.22	1295.72
614.57	1286.76
614.92	1278.24
615.27	1269.97
615.61	1261.41
615.96	1252.89
616.31	1244.91
616.65	1237.54
617.00	1229.50
617.35	1221.46
617.70	1213.32
618.04	1205.37
618.39	1197.38
618.74	1190.42
619.08	1182.65
619.43	1174.61
619.78	1166.63
620.12	1158.62
620.47	1150.60
620.82	1141.98
621.16	1134.32
621.51	1127.38
621.85	1120.13
622.20	1112.55
622.55	1104.98
622.89	1097.52
623.24	1090.43
623.59	1082.75
623.93	1075.07
624.28	1067.73
624.62	1061.66
624.97	1055.19
625.32	1048.39
625.66	1041.30
626.01	1033.93
626.35	1027.48
626.70	1020.87
627.04	1014.61
627.39	1007.61
627.73	1001.37
628.08	995.15
628.43	988.48
628.77	981.71
629.12	975.45
629.46	969.92
629.81	964.12
630.15	958.00
630.50	952.01
630.84	946.52
631.19	940.64
631.53	935.00
631.88	928.00
632.22	921.56
632.57	915.80
632.91	909.89
633.26	904.41
633.60	898.23
633.95	892.11
634.29	885.78
634.64	880.16
634.98	873.61
635.32	868.00
635.67	862.88
636.01	857.15
636.36	851.43
636.70	845.88
637.05	840.33
637.39	834.96
637.73	829.36
638.08	823.88
638.42	818.12
638.77	812.18
639.11	806.21
639.45	800.32
639.80	794.21
640.14	788.60
640.49	782.98
640.83	777.85
641.17	773.08
641.52	768.10
641.86	763.29
642.20	759.10
642.55	754.05
642.89	748.84
643.23	743.96
643.58	739.50
643.92	734.12
644.26	729.06
644.61	724.38
644.95	719.67
645.29	714.78
645.64	710.47
645.98	705.94
646.32	701.96
646.66	697.54
647.01	693.20
647.35	689.36
647.69	685.09
648.04	680.96
648.38	676.60
648.72	672.57
649.06	667.88
649.41	663.24
649.75	658.85
650.09	654.52
650.43	650.29
650.78	645.82
651.12	641.57
651.46	637.44
651.80	633.39
652.14	629.38
652.49	625.55
652.83	621.69
653.17	617.84
653.51	613.69
653.85	610.05
654.20	606.52
654.54	602.43
654.88	598.66
655.22	595.23
655.56	591.48
655.90	587.73
656.25	584.30
656.59	580.82
656.93	577.34
657.27	574.35
657.61	570.68
657.95	567.26
658.29	563.88
658.64	560.70
658.98	557.12
659.32	553.54
659.66	549.98
660.00	546.53
660.34	543.43
660.68	540.34
661.02	537.24
661.36	533.86
661.70	530.66
662.05	527.57
662.39	524.32
662.73	521.78
663.07	519.09
663.41	516.18
663.75	513.03
664.09	510.31
664.43	507.06
664.77	504.32
665.11	501.43
665.45	498.73
665.79	495.73
666.13	493.00
666.47	490.25
666.81	487.89
667.15	485.11
667.49	482.52
667.83	480.32
668.17	477.67
668.51	475.34
668.85	473.16
669.19	471.18
669.53	468.63
669.87	465.67
670.21	463.00
670.55	460.74
670.89	458.89
671.23	456.51
671.57	454.06
671.91	451.84
672.25	449.57
672.58	447.53
672.92	445.31
673.26	442.97
673.60	440.91
673.94	438.63
674.28	436.61
674.62	434.62
674.96	432.22
675.30	430.36
675.64	428.20
675.97	425.90
676.31	423.27
676.65	420.84
676.99	419.24
677.33	417.15
677.67	415.10
678.01	412.75
678.34	410.67
678.68	409.20
679.02	407.14
679.36	405.19
679.70	403.32
680.04	401.61
680.37	399.92
680.71	397.98
681.05	396.41
681.39	394.66
681.73	392.69
682.06	390.93
682.40	389.11
682.74	387.72
683.08	386.45
683.42	384.83
683.75	383.63
684.09	381.83
684.43	380.43
684.77	378.80
685.10	377.35
685.44	375.88
685.78	374.00
686.12	372.49
686.45	370.98
686.79	369.43
687.13	367.97
687.46	366.48
687.80	365.33
688.14	363.59
688.48	362.10
688.81	360.66
689.15	359.45
689.49	357.99
689.82	356.46
690.16	354.67
690.50	353.29
690.83	351.86
691.17	350.33
691.51	348.97
691.84	347.65
692.18	346.16
692.52	344.86
692.85	343.66
693.19	342.77
693.52	341.64
693.86	340.36
694.20	339.02
694.53	337.82
694.87	336.50
695.21	335.25
695.54	334.08
695.88	332.76
696.21	331.15
696.55	329.90
696.88	328.65
697.22	327.26
697.56	326.21
697.89	324.74
698.23	323.75
698.56	322.42
698.90	321.55
699.23	320.58
699.57	319.40
699.90	318.26
700.24	316.96
700.58	315.99
700.91	315.11
701.25	315.00
701.58	314.68
701.92	313.85
702.25	312.94
702.59	311.85
702.92	311.07
703.26	310.32
703.59	309.50
703.93	309.40
704.26	308.87
704.60	308.11
704.93	307.29
705.26	306.20
705.60	305.56
705.93	304.44
706.27	303.85
706.60	303.30
706.94	303.06
707.27	302.28
707.61	301.53
707.94	300.56
708.27	298.95
708.61	297.57
708.94	296.68
709.28	296.01
709.61	295.27
709.94	294.59
710.28	293.97
710.61	293.30
710.95	291.81
711.28	291.72
711.61	290.97
711.95	290.57
712.28	289.92
712.61	289.20
712.95	288.98
713.28	288.59
713.61	287.76
713.95	286.60
714.28	285.90
714.61	285.10
714.95	284.43
715.28	283.67
715.61	282.92
715.95	282.27
716.28	281.41
716.61	280.97
716.95	280.24
717.28	279.48
717.61	278.79
717.94	278.27
718.28	277.03
718.61	276.34
718.94	275.66
719.27	275.14
719.61	274.59
719.94	273.86
720.27	272.91
720.60	272.37
720.94	271.92
721.27	271.44
721.60	271.11
721.93	270.60
722.27	270.43
722.60	270.07
722.93	269.52
723.26	269.23
723.59	268.65
723.93	268.42
724.26	268.09
724.59	267.72
724.92	267.33
725.25	267.13
725.59	266.80
725.92	266.52
726.25	266.18
726.58	265.99
726.91	265.51
727.24	265.25
727.57	264.83
727.91	264.35
728.24	264.17
728.57	263.62
728.90	263.49
729.23	262.93
729.56	262.96
729.89	262.77
730.22	262.40
730.55	262.12
730.89	261.66
731.22	261.25
731.55	260.88
731.88	260.57
732.21	259.94
732.54	259.51
732.87	259.22
733.20	258.80
733.53	258.39
733.86	258.19
734.19	257.69
734.52	257.57
734.85	257.81
735.18	257.34
735.51	257.45
735.84	257.24
736.17	257.17
736.50	256.46
736.83	257.13
737.16	256.87
737.49	256.64
737.82	256.30
738.15	256.20
738.48	255.94
738.81	255.53
739.14	255.27
739.47	255.00
739.80	254.71
740.13	254.60
740.46	254.15
740.79	253.64
741.12	253.50
741.45	253.19
741.78	252.55
742.11	252.55
742.44	252.03
742.77	251.81
743.10	251.42
743.43	251.10
743.75	249.85
744.08	250.88
744.41	250.44
744.74	250.15
745.07	249.76
745.40	249.52
745.73	249.76
746.06	249.54
746.39	249.47
746.71	249.10
747.04	248.80
747.37	248.54
747.70	248.64
748.03	248.33
748.36	248.25
748.68	248.01
749.01	247.46
749.34	247.29
749.67	247.06
750.00	246.94
750.33	247.56
750.65	247.50
750.98	246.05
751.31	245.91
751.64	245.76
751.97	246.03
752.29	245.88
752.62	245.23
752.95	245.07
753.28	244.70
753.60	244.51
753.93	244.57
754.26	244.60
754.59	244.15
754.91	244.01
755.24	243.71
755.57	243.53
755.90	243.40
756.22	243.12
756.55	242.81
756.88	242.46
757.20	241.66
757.53	241.21
757.86	241.09
758.19	241.19
758.51	241.00
758.84	240.47
759.17	240.26
759.49	240.21
759.82	240.53
760.15	240.57
760.47	240.48
760.80	240.10
761.13	240.11
761.45	239.94
761.78	239.88
762.11	239.76
762.43	239.66
762.76	239.53
763.08	239.61
763.41	239.67
763.74	239.71
764.06	239.60
764.39	239.71
764.71	239.56
765.04	239.30
765.37	239.15
765.69	239.00
766.02	238.89
766.34	238.79
766.67	238.35
767.00	238.35
767.32	238.75
767.65	239.27
767.97	239.08
768.30	239.13
768.62	239.01
768.95	238.76
769.27	238.61
769.60	238.70
769.92	238.49
770.25	238.08
770.57	237.87
770.90	237.79
771.22	237.50
771.55	237.39
771.87	237.29
772.20	237.14
772.52	237.88
772.85	239.00
773.17	238.97
773.50	238.76
773.82	238.58
774.15	238.01
774.47	237.26
774.80	237.05
775.12	236.90
775.45	236.79
775.77	236.97
776.09	236.90
776.42	236.75
776.74	236.84
777.07	236.94
777.39	236.85
777.72	236.65
778.04	236.78
778.36	236.66
778.69	236.59
779.01	236.70
779.33	235.70
779.66	234.59
779.98	234.39
780.31	234.39
780.63	234.73
780.95	234.85
781.28	234.79
781.60	234.63
781.92	234.58
782.25	234.50
782.57	234.23
782.89	234.12
783.22	234.04
783.54	233.79
783.86	233.64
784.19	233.46
784.51	233.80
784.83	233.67
785.16	233.71
785.48	233.71
785.80	233.62
786.12	233.80
786.45	233.73
786.77	233.69
787.09	233.57
787.42	233.12
787.74	233.06
788.06	233.00
788.38	233.05
788.71	232.98
789.03	232.87
789.35	233.03
789.67	232.90
789.99	232.84
790.32	232.67
790.64	232.88
790.96	233.80
791.28	233.38
791.61	233.27
791.93	233.26
792.25	233.18
792.57	233.90
792.89	233.67
793.21	233.70
793.54	233.60
793.86	233.54
794.18	233.65
794.50	233.48
794.82	233.62
795.14	233.57
795.47	233.79
795.79	233.89
796.11	233.60
796.43	233.57
796.75	233.66
797.07	233.77
797.39	233.60
797.71	232.83
798.04	232.83
798.36	232.89
798.68	232.79
799.00	232.81
799.32	232.20
799.64	232.40
799.96	232.34
800.28	232.62
800.60	232.60
800.92	232.59
801.24	232.51
801.56	232.50
801.89	232.45
802.21	232.45
802.53	232.22
802.85	232.37
803.17	232.90
803.49	232.59
803.81	232.41
804.13	232.31
804.45	232.19
804.77	232.29
805.09	232.22
805.41	232.18
805.73	232.04
806.05	231.74
806.37	231.58
806.69	231.47
807.01	231.32
807.33	231.30
807.65	231.05
807.97	231.54
808.28	231.40
808.60	231.31
808.92	231.06
809.24	231.72
809.56	231.62
809.88	231.20
810.20	231.36
810.52	231.61
810.84	231.60
811.16	231.51
811.48	231.45
811.80	231.80
812.12	231.70
812.43	231.84
812.75	232.00
813.07	231.93
813.39	231.95
813.71	231.77
814.03	231.73
814.35	231.70
814.67	231.24
814.98	231.24
815.30	231.37
815.62	231.21
815.94	230.50
816.26	230.91
816.58	230.78
816.89	230.79
