SpectraSuite Data File
++++++++++++++++++++++++++++++++++++
Date: Wed Sep 04 17:32:22 EDT 2013
User: lab3
Dark Spectrum Present: Yes
Reference Spectrum Present: No
Number of Sampled Component Spectra: 1
Spectrometers: USB2E7196
Integration Time (usec): 337000 (USB2E7196)
Spectra Averaged: 10 (USB2E7196)
Boxcar Smoothing: 10 (USB2E7196)
Correct for Electrical Dark: No (USB2E7196)
Strobe/Lamp Enabled: No (USB2E7196)
Correct for Detector Non-linearity: No (USB2E7196)
Correct for Stray Light: No (USB2E7196)
Number of Pixels in Processed Spectrum: 2048
>>>>>Begin Processed Spectral Data<<<<<
339.09	0.00
339.48	214.20
339.86	214.00
340.24	216.40
340.63	215.60
341.01	233.10
341.39	219.60
341.78	223.00
342.16	225.10
342.54	223.70
342.93	213.38
343.31	224.05
343.69	224.46
344.07	224.99
344.46	225.50
344.84	226.05
345.22	225.65
345.60	226.01
345.99	226.22
346.37	226.26
346.75	226.26
347.13	226.26
347.52	226.32
347.90	226.60
348.28	226.58
348.66	226.80
349.05	226.51
349.43	226.60
349.81	226.79
350.19	226.75
350.57	226.70
350.96	226.79
351.34	227.03
351.72	227.24
352.10	227.21
352.48	227.16
352.87	227.18
353.25	227.24
353.63	227.23
354.01	227.12
354.39	227.28
354.77	227.43
355.15	227.67
355.54	227.58
355.92	227.37
356.30	227.39
356.68	227.98
357.06	228.13
357.44	228.11
357.82	228.00
358.20	228.91
358.58	229.01
358.97	229.14
359.35	229.22
359.73	229.37
360.11	229.45
360.49	229.54
360.87	229.54
361.25	229.77
361.63	230.12
362.01	230.31
362.39	230.22
362.77	230.29
363.15	230.34
363.53	230.50
363.91	230.59
364.29	230.69
364.67	229.90
365.05	230.02
365.43	230.12
365.81	230.26
366.19	229.95
366.57	230.34
366.95	230.27
367.33	230.12
367.71	230.16
368.09	230.50
368.47	230.47
368.85	230.36
369.23	230.49
369.61	230.16
369.99	230.45
370.37	230.58
370.75	231.02
371.13	230.85
371.51	230.70
371.89	230.65
372.27	230.69
372.65	230.74
373.03	230.63
373.41	230.44
373.78	230.38
374.16	229.85
374.54	229.49
374.92	229.44
375.30	229.37
375.68	229.16
376.06	229.01
376.44	228.85
376.82	228.90
377.19	228.77
377.57	228.68
377.95	228.28
378.33	228.13
378.71	227.62
379.09	227.69
379.47	227.69
379.84	227.60
380.22	227.42
380.60	227.18
380.98	227.08
381.36	227.01
381.73	226.91
382.11	226.94
382.49	227.05
382.87	226.82
383.25	226.80
383.62	227.82
384.00	227.61
384.38	227.74
384.76	227.96
385.13	228.32
385.51	228.24
385.89	228.19
386.27	228.26
386.64	228.20
387.02	228.18
387.40	228.16
387.78	228.22
388.15	228.25
388.53	228.21
388.91	228.20
389.29	228.19
389.66	228.31
390.04	228.20
390.42	228.30
390.79	228.42
391.17	228.41
391.55	227.36
391.92	227.31
392.30	227.34
392.68	227.15
393.05	227.02
393.43	227.11
393.81	227.12
394.18	226.89
394.56	227.03
394.94	227.26
395.31	227.13
395.69	227.37
396.06	227.51
396.44	227.67
396.82	227.71
397.19	228.33
397.57	228.33
397.95	228.60
398.32	228.33
398.70	228.50
399.07	228.84
399.45	228.91
399.82	229.12
400.20	229.07
400.58	229.10
400.95	228.76
401.33	229.03
401.70	229.76
402.08	230.11
402.45	230.19
402.83	230.46
403.20	230.76
403.58	230.86
403.95	231.24
404.33	231.46
404.71	231.76
405.08	232.31
405.46	232.49
405.83	232.82
406.21	233.15
406.58	233.46
406.96	233.65
407.33	234.13
407.70	234.57
408.08	235.84
408.45	236.53
408.83	237.27
409.20	237.68
409.58	237.67
409.95	238.33
410.33	239.09
410.70	239.39
411.08	240.19
411.45	240.96
411.82	241.49
412.20	242.50
412.57	243.86
412.95	244.01
413.32	245.09
413.69	245.97
414.07	247.09
414.44	248.24
414.82	249.58
415.19	251.11
415.56	252.58
415.94	253.62
416.31	255.30
416.68	257.06
417.06	259.13
417.43	261.41
417.81	263.64
418.18	265.93
418.55	268.57
418.93	271.01
419.30	273.67
419.67	276.48
420.04	279.28
420.42	281.97
420.79	286.20
421.16	289.72
421.54	293.82
421.91	297.61
422.28	301.60
422.66	305.77
423.03	310.47
423.40	314.70
423.77	319.16
424.15	323.82
424.52	328.83
424.89	334.21
425.26	339.21
425.64	344.00
426.01	349.12
426.38	354.55
426.75	360.57
427.13	366.38
427.50	372.72
427.87	379.08
428.24	385.54
428.61	391.20
428.99	398.34
429.36	405.17
429.73	412.39
430.10	419.60
430.47	426.95
430.85	433.99
431.22	442.19
431.59	451.39
431.96	459.50
432.33	468.25
432.70	476.90
433.08	487.10
433.45	496.72
433.82	506.57
434.19	517.38
434.56	527.78
434.93	537.75
435.30	547.97
435.68	559.12
436.05	570.17
436.42	580.93
436.79	591.00
437.16	601.94
437.53	613.61
437.90	625.07
438.27	636.38
438.64	647.88
439.01	658.96
439.38	668.01
439.75	677.60
440.13	688.37
440.50	698.53
440.87	706.66
441.24	715.38
441.61	724.90
441.98	731.71
442.35	739.87
442.72	748.28
443.09	756.40
443.46	761.57
443.83	764.80
444.20	767.86
444.57	771.82
444.94	773.70
445.31	775.57
445.68	778.35
446.05	779.20
446.42	777.94
446.79	776.55
447.16	775.05
447.53	773.80
447.90	769.47
448.27	764.86
448.64	758.88
449.01	754.57
449.37	746.86
449.74	739.60
450.11	731.19
450.48	721.26
450.85	710.77
451.22	701.63
451.59	693.67
451.96	685.80
452.33	675.34
452.70	666.02
453.07	654.81
453.43	642.51
453.80	631.65
454.17	621.20
454.54	611.09
454.91	600.42
455.28	589.98
455.65	580.25
456.02	572.03
456.38	563.84
456.75	553.46
457.12	544.80
457.49	536.43
457.86	527.56
458.23	520.78
458.59	513.31
458.96	505.96
459.33	498.99
459.70	492.02
460.07	486.61
460.43	480.45
460.80	474.93
461.17	470.17
461.54	464.74
461.91	459.95
462.27	454.70
462.64	450.41
463.01	445.54
463.38	441.22
463.74	435.28
464.11	431.21
464.48	427.74
464.85	423.93
465.21	421.19
465.58	418.44
465.95	414.59
466.32	411.77
466.68	408.64
467.05	405.73
467.42	402.79
467.78	399.65
468.15	396.81
468.52	394.60
468.88	391.45
469.25	388.91
469.62	386.80
469.98	384.70
470.35	382.65
470.72	380.91
471.08	378.47
471.45	376.89
471.82	375.32
472.18	373.34
472.55	371.93
472.92	370.02
473.28	368.25
473.65	366.76
474.02	365.16
474.38	364.14
474.75	363.05
475.11	361.86
475.48	360.85
475.85	359.70
476.21	358.36
476.58	357.57
476.94	356.87
477.31	356.21
477.67	355.34
478.04	354.61
478.41	354.13
478.77	354.59
479.14	353.88
479.50	353.54
479.87	353.42
480.23	353.27
480.60	352.87
480.96	352.71
481.33	353.18
481.69	352.99
482.06	353.00
482.42	352.97
482.79	353.08
483.15	353.14
483.52	353.66
483.88	354.02
484.25	354.25
484.61	354.67
484.98	354.97
485.34	355.74
485.71	356.55
486.07	357.00
486.44	356.86
486.80	357.68
487.17	358.27
487.53	359.27
487.90	360.30
488.26	361.78
488.62	362.92
488.99	363.53
489.35	364.84
489.72	366.04
490.08	367.40
490.44	368.93
490.81	370.56
491.17	372.03
491.54	373.79
491.90	375.63
492.26	377.34
492.63	379.23
492.99	381.05
493.36	383.07
493.72	385.46
494.08	387.97
494.45	390.45
494.81	393.19
495.17	395.63
495.54	398.24
495.90	400.78
496.26	403.63
496.63	406.65
496.99	409.53
497.35	412.40
497.72	415.48
498.08	418.54
498.44	421.84
498.80	425.29
499.17	428.65
499.53	432.03
499.89	435.76
500.26	439.42
500.62	443.19
500.98	447.16
501.34	450.75
501.71	454.46
502.07	458.42
502.43	462.12
502.79	466.24
503.16	470.36
503.52	474.38
503.88	478.46
504.24	482.94
504.60	487.50
504.97	492.35
505.33	496.89
505.69	501.97
506.05	506.82
506.41	511.77
506.78	516.61
507.14	521.49
507.50	526.63
507.86	531.78
508.22	537.03
508.59	541.84
508.95	547.41
509.31	553.18
509.67	558.45
510.03	563.90
510.39	569.20
510.75	574.63
511.12	580.03
511.48	585.74
511.84	591.07
512.20	596.52
512.56	602.03
512.92	607.83
513.28	613.63
513.64	619.19
514.00	624.88
514.37	630.77
514.73	636.90
515.09	642.89
515.45	649.09
515.81	655.08
516.17	661.47
516.53	667.62
516.89	673.38
517.25	679.76
517.61	686.75
517.97	693.53
518.33	700.28
518.69	707.31
519.05	714.35
519.41	721.63
519.77	729.59
520.13	736.63
520.49	743.61
520.85	752.28
521.21	760.00
521.57	767.44
521.93	774.45
522.29	781.57
522.65	788.33
523.01	795.37
523.37	802.33
523.73	809.62
524.09	816.60
524.45	823.94
524.81	831.32
525.17	838.36
525.53	845.70
525.89	853.05
526.25	860.50
526.61	867.52
526.97	874.94
527.33	882.00
527.68	890.68
528.04	898.72
528.40	904.67
528.76	912.43
529.12	920.37
529.48	928.87
529.84	936.86
530.20	945.39
530.56	954.19
530.91	962.99
531.27	971.16
531.63	979.95
531.99	988.63
532.35	997.10
532.71	1005.48
533.07	1014.40
533.42	1024.04
533.78	1032.72
534.14	1041.68
534.50	1050.35
534.86	1059.38
535.21	1066.97
535.57	1075.87
535.93	1084.29
536.29	1093.09
536.65	1101.54
537.00	1109.97
537.36	1118.78
537.72	1126.93
538.08	1135.17
538.44	1143.14
538.79	1151.75
539.15	1160.14
539.51	1168.45
539.87	1176.59
540.22	1184.42
540.58	1192.17
540.94	1198.62
541.29	1205.46
541.65	1212.39
542.01	1219.81
542.37	1226.06
542.72	1232.90
543.08	1239.00
543.44	1246.00
543.79	1251.75
544.15	1258.22
544.51	1265.08
544.87	1271.46
545.22	1277.69
545.58	1283.42
545.94	1289.15
546.29	1294.43
546.65	1299.43
547.01	1304.19
547.36	1309.49
547.72	1314.73
548.07	1319.00
548.43	1324.04
548.79	1329.58
549.14	1334.46
549.50	1338.77
549.86	1343.60
550.21	1348.27
550.57	1353.15
550.92	1357.16
551.28	1361.70
551.64	1365.79
551.99	1369.60
552.35	1373.30
552.70	1377.21
553.06	1381.29
553.41	1385.04
553.77	1389.44
554.13	1393.27
554.48	1397.42
554.84	1400.70
555.19	1404.20
555.55	1409.18
555.90	1412.38
556.26	1414.96
556.61	1417.46
556.97	1419.86
557.32	1422.22
557.68	1424.72
558.03	1427.19
558.39	1429.42
558.74	1431.77
559.10	1433.52
559.45	1435.09
559.81	1436.51
560.16	1437.61
560.52	1438.60
560.87	1440.34
561.23	1440.97
561.58	1442.43
561.94	1442.70
562.29	1442.71
562.64	1443.16
563.00	1442.34
563.35	1442.71
563.71	1443.61
564.06	1444.32
564.42	1444.98
564.77	1445.80
565.12	1446.54
565.48	1447.51
565.83	1448.19
566.19	1448.27
566.54	1448.22
566.89	1448.20
567.25	1448.57
567.60	1449.68
567.96	1450.75
568.31	1450.70
568.66	1450.77
569.02	1449.76
569.37	1449.46
569.72	1449.53
570.08	1448.59
570.43	1447.30
570.78	1446.50
571.14	1445.12
571.49	1443.64
571.84	1442.46
572.20	1440.69
572.55	1438.74
572.90	1435.69
573.26	1433.19
573.61	1431.23
573.96	1429.23
574.31	1426.37
574.67	1423.51
575.02	1419.70
575.37	1415.28
575.72	1411.52
576.08	1408.22
576.43	1404.59
576.78	1400.54
577.13	1396.84
577.49	1393.45
577.84	1390.63
578.19	1387.24
578.54	1383.93
578.90	1380.83
579.25	1377.33
579.60	1373.93
579.95	1369.71
580.30	1366.02
580.66	1362.08
581.01	1357.23
581.36	1352.60
581.71	1348.92
582.06	1345.10
582.42	1341.37
582.77	1337.80
583.12	1334.31
583.47	1330.27
583.82	1326.98
584.17	1323.67
584.53	1320.49
584.88	1316.40
585.23	1311.78
585.58	1306.63
585.93	1301.41
586.28	1296.68
586.63	1291.82
586.98	1286.68
587.34	1282.06
587.69	1277.45
588.04	1273.15
588.39	1269.19
588.74	1264.92
589.09	1260.73
589.44	1255.40
589.79	1250.70
590.14	1245.90
590.49	1241.13
590.84	1236.29
591.19	1231.72
591.54	1226.86
591.89	1221.39
592.25	1218.02
592.60	1213.75
592.95	1209.51
593.30	1205.26
593.65	1200.43
594.00	1195.18
594.35	1193.37
594.70	1188.68
595.05	1183.79
595.40	1178.72
595.75	1173.39
596.10	1168.59
596.45	1163.10
596.80	1158.82
597.15	1153.83
597.50	1149.09
597.85	1144.61
598.19	1139.54
598.54	1134.00
598.89	1128.90
599.24	1124.51
599.59	1118.56
599.94	1113.25
600.29	1108.36
600.64	1103.49
600.99	1098.73
601.34	1094.60
601.69	1087.29
602.04	1082.46
602.39	1077.65
602.74	1073.41
603.08	1069.12
603.43	1064.91
603.78	1060.26
604.13	1055.43
604.48	1050.45
604.83	1045.49
605.18	1040.01
605.53	1035.07
605.87	1030.57
606.22	1026.17
606.57	1021.26
606.92	1016.52
607.27	1012.00
607.62	1007.48
607.96	1003.00
608.31	998.86
608.66	994.32
609.01	989.43
609.36	984.85
609.70	980.25
610.05	975.29
610.40	970.76
610.75	965.49
611.10	960.87
611.44	955.86
611.79	951.62
612.14	947.24
612.49	942.44
612.83	938.48
613.18	933.89
613.53	929.53
613.88	924.77
614.22	919.78
614.57	915.07
614.92	910.04
615.27	905.38
615.61	900.05
615.96	895.18
616.31	890.44
616.65	886.52
617.00	881.92
617.35	877.27
617.70	872.52
618.04	868.06
618.39	863.79
618.74	860.08
619.08	855.28
619.43	850.69
619.78	846.47
620.12	841.49
620.47	837.12
620.82	832.17
621.16	827.80
621.51	823.82
621.85	819.69
622.20	815.63
622.55	811.13
622.89	806.84
623.24	802.70
623.59	798.58
623.93	793.82
624.28	789.71
624.62	786.76
624.97	783.22
625.32	779.15
625.66	774.89
626.01	770.15
626.35	766.10
626.70	762.11
627.04	758.29
627.39	754.40
627.73	750.59
628.08	747.06
628.43	742.85
628.77	738.52
629.12	734.49
629.46	730.85
629.81	727.64
630.15	723.94
630.50	719.86
630.84	716.20
631.19	712.66
631.53	709.03
631.88	704.12
632.22	699.67
632.57	696.34
632.91	692.76
633.26	689.67
633.60	686.04
633.95	682.23
634.29	678.38
634.64	674.93
634.98	670.85
635.32	667.38
635.67	664.41
636.01	661.23
636.36	657.64
636.70	654.33
637.05	650.63
637.39	647.61
637.73	644.72
638.08	641.41
638.42	637.82
638.77	634.18
639.11	630.49
639.45	626.93
639.80	623.12
640.14	619.68
640.49	615.70
640.83	612.78
641.17	609.70
641.52	606.52
641.86	603.30
642.20	600.79
642.55	597.41
642.89	594.06
643.23	590.92
643.58	588.24
643.92	584.70
644.26	581.58
644.61	578.50
644.95	575.18
645.29	571.85
645.64	568.94
645.98	565.86
646.32	563.17
646.66	560.21
647.01	557.35
647.35	554.67
647.69	552.14
648.04	549.39
648.38	546.52
648.72	543.81
649.06	540.61
649.41	537.22
649.75	534.13
650.09	531.38
650.43	528.55
650.78	525.32
651.12	522.62
651.46	519.90
651.80	517.08
652.14	514.33
652.49	512.03
652.83	509.42
653.17	506.92
653.51	504.34
653.85	502.06
654.20	499.65
654.54	496.81
654.88	494.21
655.22	491.86
655.56	489.40
655.90	486.96
656.25	484.82
656.59	482.69
656.93	480.59
657.27	478.60
657.61	475.91
657.95	473.83
658.29	471.51
658.64	469.20
658.98	466.68
659.32	464.24
659.66	461.71
660.00	459.43
660.34	457.41
660.68	455.29
661.02	453.01
661.36	450.88
661.70	448.88
662.05	446.69
662.39	444.60
662.73	442.66
663.07	441.11
663.41	439.09
663.75	436.88
664.09	434.77
664.43	432.30
664.77	430.58
665.11	428.57
665.45	426.51
665.79	424.86
666.13	423.04
666.47	421.21
666.81	419.43
667.15	417.38
667.49	415.70
667.83	414.12
668.17	412.37
668.51	410.60
668.85	408.99
669.19	407.84
669.53	405.74
669.87	404.00
670.21	401.79
670.55	400.27
670.89	399.10
671.23	397.62
671.57	396.00
671.91	394.52
672.25	392.94
672.58	391.81
672.92	389.71
673.26	388.26
673.60	386.96
673.94	385.52
674.28	384.26
674.62	382.74
674.96	381.17
675.30	379.78
675.64	378.28
675.97	376.71
676.31	374.90
676.65	373.59
676.99	372.39
677.33	370.84
677.67	369.34
678.01	367.55
678.34	366.10
678.68	365.02
679.02	363.53
679.36	362.15
679.70	360.67
680.04	359.51
680.37	358.38
680.71	356.97
681.05	355.86
681.39	354.53
681.73	353.11
682.06	351.77
682.40	350.74
682.74	349.79
683.08	348.98
683.42	347.70
683.75	346.56
684.09	345.22
684.43	344.27
684.77	343.09
685.10	342.04
685.44	341.00
685.78	339.66
686.12	338.65
686.45	337.55
686.79	336.36
687.13	335.63
687.46	334.52
687.80	333.62
688.14	332.35
688.48	331.40
688.81	330.50
689.15	329.70
689.49	328.56
689.82	327.50
690.16	326.18
690.50	325.30
690.83	324.20
691.17	323.12
691.51	322.14
691.84	321.30
692.18	320.21
692.52	319.17
692.85	318.30
693.19	317.73
693.52	316.75
693.86	315.84
694.20	314.72
694.53	313.76
694.87	312.79
695.21	311.80
695.54	310.80
695.88	309.74
696.21	308.53
696.55	307.55
696.88	306.57
697.22	305.60
697.56	304.84
697.89	303.96
698.23	303.14
698.56	302.07
698.90	301.32
699.23	300.47
699.57	299.64
699.90	298.75
700.24	297.60
700.58	296.82
700.91	296.27
701.25	296.19
701.58	296.15
701.92	295.75
702.25	295.18
702.59	294.52
702.92	294.01
703.26	293.52
703.59	293.10
703.93	293.36
704.26	292.84
704.60	292.29
704.93	291.70
705.26	290.95
705.60	290.55
705.93	289.72
706.27	289.51
706.60	289.26
706.94	289.15
707.27	288.54
707.61	288.23
707.94	287.57
708.27	286.34
708.61	284.95
708.94	284.07
709.28	283.63
709.61	283.06
709.94	282.46
710.28	281.79
710.61	281.02
710.95	279.54
711.28	279.42
711.61	278.68
711.95	278.29
712.28	277.69
712.61	277.08
712.95	277.10
713.28	276.85
713.61	276.13
713.95	275.21
714.28	274.70
714.61	273.93
714.95	273.38
715.28	272.71
715.61	272.27
715.95	271.89
716.28	271.20
716.61	270.81
716.95	270.31
717.28	269.83
717.61	269.38
717.94	268.90
718.28	268.00
718.61	267.55
718.94	267.02
719.27	266.61
719.61	266.24
719.94	265.49
720.27	264.56
720.60	264.06
720.94	263.76
721.27	263.40
721.60	263.24
721.93	262.90
722.27	262.96
722.60	262.77
722.93	262.23
723.26	262.00
723.59	261.48
723.93	261.16
724.26	260.93
724.59	260.52
724.92	260.28
725.25	260.13
725.59	259.91
725.92	259.70
726.25	259.51
726.58	259.20
726.91	258.85
727.24	258.70
727.57	258.41
727.91	257.93
728.24	257.78
728.57	257.37
728.90	257.25
729.23	256.55
729.56	256.72
729.89	256.58
730.22	256.20
730.55	255.95
730.89	255.68
731.22	255.33
731.55	255.07
731.88	254.84
732.21	254.39
732.54	253.90
732.87	253.53
733.20	253.25
733.53	253.02
733.86	252.90
734.19	252.59
734.52	252.47
734.85	253.00
735.18	252.51
735.51	252.61
735.84	252.41
736.17	252.54
736.50	251.75
736.83	252.49
737.16	252.21
737.49	252.13
737.82	251.86
738.15	251.79
738.48	251.55
738.81	251.26
739.14	251.02
739.47	250.92
739.80	250.70
740.13	250.62
740.46	250.29
740.79	249.84
741.12	249.52
741.45	249.10
741.78	248.20
742.11	248.42
742.44	247.99
742.77	247.78
743.10	247.38
743.43	247.22
743.75	246.08
744.08	247.14
744.41	246.83
744.74	246.59
745.07	246.21
745.40	246.33
745.73	246.51
746.06	246.27
746.39	246.14
746.71	245.88
747.04	245.57
747.37	245.42
747.70	245.40
748.03	245.33
748.36	245.36
748.68	245.17
749.01	244.62
749.34	244.42
749.67	244.27
750.00	244.26
750.33	244.80
750.65	244.73
750.98	243.48
751.31	243.45
751.64	243.31
751.97	243.75
752.29	243.40
752.62	242.98
752.95	242.86
753.28	242.64
753.60	242.51
753.93	242.58
754.26	242.53
754.59	242.26
754.91	242.00
755.24	241.80
755.57	241.84
755.90	241.71
756.22	241.55
756.55	241.23
756.88	240.94
757.20	240.10
757.53	239.76
757.86	239.60
758.19	239.44
758.51	239.32
758.84	238.62
759.17	238.37
759.49	238.27
759.82	238.65
760.15	238.63
760.47	238.54
760.80	238.21
761.13	238.26
761.45	238.11
761.78	238.05
762.11	238.06
762.43	237.74
762.76	237.62
763.08	237.67
763.41	237.68
763.74	237.59
764.06	237.50
764.39	237.49
764.71	237.32
765.04	237.13
765.37	237.00
765.69	237.01
766.02	237.01
766.34	236.85
766.67	236.42
767.00	236.52
767.32	236.90
767.65	237.41
767.97	237.20
768.30	237.29
768.62	237.18
768.95	237.01
769.27	237.01
769.60	237.13
769.92	236.93
770.25	236.64
770.57	236.50
770.90	236.46
771.22	236.23
771.55	236.29
771.87	236.24
772.20	236.21
772.52	236.92
772.85	237.97
773.17	237.85
773.50	237.73
773.82	237.40
774.15	236.96
774.47	236.20
774.80	236.06
775.12	235.85
775.45	235.76
775.77	235.78
776.09	235.73
776.42	235.65
776.74	235.86
777.07	235.84
777.39	235.75
777.72	235.69
778.04	235.79
778.36	235.49
778.69	235.48
779.01	235.37
779.33	234.45
779.66	233.34
779.98	233.17
780.31	233.06
780.63	233.56
780.95	233.56
781.28	233.61
781.60	233.52
781.92	233.46
782.25	233.44
782.57	233.30
782.89	233.24
783.22	233.09
783.54	232.77
783.86	232.81
784.19	232.64
784.51	232.77
784.83	232.62
785.16	232.70
785.48	232.70
785.80	232.82
786.12	232.87
786.45	232.74
786.77	232.88
787.09	232.82
787.42	232.31
787.74	232.31
788.06	232.25
788.38	232.19
788.71	232.11
789.03	232.11
789.35	232.28
789.67	232.11
789.99	232.17
790.32	231.97
790.64	232.04
790.96	232.90
791.28	232.65
791.61	232.52
791.93	232.51
792.25	232.39
792.57	232.95
792.89	232.81
793.21	232.81
793.54	232.73
793.86	232.61
794.18	232.61
794.50	232.45
794.82	232.46
795.14	232.52
795.47	232.72
795.79	232.70
796.11	232.33
796.43	232.41
796.75	232.43
797.07	232.57
797.39	232.49
797.71	231.72
798.04	231.72
798.36	231.73
798.68	231.78
799.00	231.92
799.32	231.37
799.64	231.53
799.96	231.69
800.28	231.81
800.60	231.78
800.92	231.83
801.24	231.75
801.56	231.78
801.89	231.71
802.21	231.79
802.53	231.73
802.85	232.10
803.17	232.44
803.49	232.30
803.81	232.21
804.13	232.11
804.45	232.02
804.77	232.14
805.09	232.17
805.41	232.04
805.73	231.87
806.05	231.68
806.37	231.58
806.69	231.36
807.01	231.22
807.33	231.33
807.65	231.00
807.97	231.45
808.28	231.45
808.60	231.43
808.92	231.21
809.24	231.71
809.56	231.39
809.88	231.02
810.20	230.94
810.52	231.14
810.84	231.08
811.16	231.03
811.48	230.89
811.80	231.24
812.12	231.16
812.43	231.30
812.75	231.34
813.07	231.23
813.39	231.31
813.71	231.18
814.03	231.08
814.35	231.17
814.67	230.70
814.98	230.55
815.30	230.58
815.62	230.49
815.94	229.88
816.26	230.32
816.58	230.15
816.89	230.31
817.21	230.06
817.53	230.08
817.85	230.13
818.17	230.14
818.48	229.71
818.80	229.91
819.12	229.63
819.44	229.59
