SpectraSuite Data File
++++++++++++++++++++++++++++++++++++
Date: Tue Apr 02 18:44:53 EDT 2013
User: group
Dark Spectrum Present: No
Reference Spectrum Present: No
Number of Sampled Component Spectra: 1
Spectrometers: USB2E7196
Integration Time (usec): 580000 (USB2E7196)
Spectra Averaged: 2 (USB2E7196)
Boxcar Smoothing: 10 (USB2E7196)
Correct for Electrical Dark: No (USB2E7196)
Strobe/Lamp Enabled: No (USB2E7196)
Correct for Detector Non-linearity: No (USB2E7196)
Correct for Stray Light: No (USB2E7196)
Number of Pixels in Processed Spectrum: 2048
>>>>>Begin Processed Spectral Data<<<<<
339.09	0.00
339.48	194.50
339.86	193.00
340.24	199.50
340.63	198.00
341.01	230.50
341.39	203.50
341.78	205.50
342.16	208.50
342.54	207.00
342.93	197.79
343.31	207.57
343.69	208.02
344.07	208.74
344.46	209.50
344.84	210.14
345.22	208.98
345.60	209.29
345.99	209.69
346.37	209.93
346.75	209.86
347.13	209.90
347.52	210.19
347.90	210.79
348.28	211.10
348.66	211.76
349.05	210.88
349.43	211.19
349.81	211.43
350.19	211.52
350.57	211.74
350.96	211.90
351.34	212.45
351.72	212.64
352.10	212.90
352.48	212.48
352.87	212.36
353.25	212.38
353.63	212.45
354.01	212.24
354.39	212.29
354.77	212.36
355.15	212.98
355.54	212.79
355.92	212.19
356.30	212.05
356.68	213.29
357.06	213.52
357.44	213.26
357.82	213.17
358.20	214.12
358.58	213.93
358.97	213.98
359.35	214.14
359.73	214.64
360.11	214.48
360.49	214.76
360.87	214.81
361.25	215.14
361.63	215.74
362.01	215.71
362.39	215.57
362.77	215.95
363.15	215.57
363.53	215.55
363.91	215.90
364.29	215.90
364.67	213.98
365.05	214.02
365.43	214.24
365.81	214.55
366.19	214.76
366.57	215.33
366.95	215.24
367.33	214.69
367.71	214.55
368.09	215.10
368.47	215.02
368.85	214.86
369.23	215.38
369.61	214.38
369.99	215.02
370.37	215.24
370.75	216.24
371.13	215.93
371.51	215.79
371.89	215.74
372.27	215.88
372.65	215.93
373.03	216.10
373.41	216.02
373.78	215.90
374.16	214.79
374.54	214.19
374.92	213.95
375.30	213.90
375.68	213.62
376.06	213.50
376.44	213.31
376.82	213.50
377.19	213.26
377.57	213.62
377.95	213.26
378.33	213.24
378.71	211.88
379.09	212.36
379.47	212.52
379.84	212.24
380.22	212.12
380.60	211.90
380.98	211.71
381.36	211.52
381.73	211.36
382.11	211.71
382.49	212.07
382.87	211.90
383.25	212.17
383.62	214.57
384.00	214.07
384.38	214.10
384.76	214.62
385.13	215.48
385.51	215.55
385.89	215.17
386.27	215.14
386.64	215.29
387.02	214.98
387.40	214.95
387.78	215.26
388.15	215.43
388.53	215.21
388.91	215.19
389.29	215.14
389.66	215.26
390.04	215.12
390.42	215.33
390.79	215.50
391.17	215.21
391.55	212.81
391.92	212.93
392.30	213.48
392.68	213.17
393.05	212.64
393.43	212.69
393.81	213.00
394.18	212.50
394.56	212.83
394.94	213.26
395.31	213.00
395.69	213.55
396.06	213.79
396.44	214.10
396.82	214.10
397.19	215.31
397.57	215.33
397.95	215.50
398.32	215.02
398.70	215.40
399.07	216.17
399.45	216.12
399.82	216.17
400.20	215.81
400.58	215.64
400.95	215.19
401.33	215.50
401.70	216.79
402.08	217.33
402.45	217.33
402.83	217.86
403.20	218.12
403.58	218.07
403.95	218.52
404.33	219.00
404.71	219.31
405.08	220.52
405.46	221.02
405.83	221.67
406.21	222.10
406.58	222.26
406.96	222.24
407.33	223.00
407.70	223.43
408.08	225.60
408.45	226.52
408.83	227.50
409.20	227.95
409.58	227.60
409.95	228.67
410.33	229.55
410.70	229.76
411.08	231.07
411.45	232.02
411.82	232.74
412.20	234.29
412.57	236.74
412.95	236.07
413.32	237.62
413.69	238.76
414.07	240.45
414.44	242.43
414.82	244.52
415.19	246.95
415.56	249.40
415.94	250.67
416.31	253.74
416.68	256.40
417.06	259.83
417.43	263.21
417.81	266.55
418.18	270.05
418.55	273.86
418.93	277.69
419.30	281.88
419.67	286.48
420.04	290.62
420.42	294.95
420.79	302.12
421.16	307.48
421.54	314.36
421.91	320.17
422.28	326.31
422.66	332.81
423.03	340.74
423.40	347.64
423.77	354.90
424.15	361.64
424.52	369.43
424.89	377.88
425.26	385.71
425.64	393.24
426.01	401.95
426.38	410.60
426.75	420.29
427.13	429.52
427.50	438.86
427.87	448.88
428.24	458.76
428.61	467.33
428.99	478.90
429.36	489.36
429.73	501.02
430.10	512.64
430.47	524.93
430.85	535.21
431.22	547.69
431.59	562.60
431.96	575.33
432.33	588.79
432.70	602.10
433.08	618.50
433.45	633.45
433.82	648.29
434.19	665.43
434.56	682.31
434.93	697.67
435.30	714.33
435.68	731.86
436.05	749.05
436.42	765.14
436.79	780.83
437.16	797.83
437.53	815.17
437.90	832.69
438.27	850.10
438.64	868.17
439.01	885.31
439.38	898.60
439.75	913.60
440.13	930.31
440.50	946.12
440.87	958.88
441.24	972.67
441.61	987.07
441.98	997.64
442.35	1009.62
442.72	1022.81
443.09	1034.93
443.46	1042.74
443.83	1047.60
444.20	1052.81
444.57	1058.45
444.94	1061.55
445.31	1065.55
445.68	1070.83
446.05	1071.95
446.42	1070.76
446.79	1069.45
447.16	1067.69
447.53	1066.21
447.90	1059.90
448.27	1054.10
448.64	1045.19
449.01	1038.76
449.37	1027.69
449.74	1016.95
450.11	1005.76
450.48	991.40
450.85	976.14
451.22	963.40
451.59	951.43
451.96	940.17
452.33	925.05
452.70	911.43
453.07	893.98
453.43	874.71
453.80	858.05
454.17	842.74
454.54	827.52
454.91	811.67
455.28	795.79
455.65	781.43
456.02	769.55
456.38	756.76
456.75	741.21
457.12	728.31
457.49	715.64
457.86	700.88
458.23	690.71
458.59	679.00
458.96	667.21
459.33	657.02
459.70	646.93
460.07	638.50
460.43	628.64
460.80	620.33
461.17	613.07
461.54	605.26
461.91	597.12
462.27	588.69
462.64	581.29
463.01	573.88
463.38	567.38
463.74	556.74
464.11	550.38
464.48	544.81
464.85	538.50
465.21	533.90
465.58	529.05
465.95	522.36
466.32	517.62
466.68	512.64
467.05	507.79
467.42	502.55
467.78	496.90
468.15	492.07
468.52	488.48
468.88	482.81
469.25	477.86
469.62	474.05
469.98	470.21
470.35	467.10
470.72	463.74
471.08	458.90
471.45	456.10
471.82	453.07
472.18	449.57
472.55	447.21
472.92	443.52
473.28	440.38
473.65	437.57
474.02	434.60
474.38	432.26
474.75	430.10
475.11	427.60
475.48	426.07
475.85	424.12
476.21	422.07
476.58	420.88
476.94	419.48
477.31	418.19
477.67	416.76
478.04	415.57
478.41	414.93
478.77	416.74
479.14	415.36
479.50	414.60
479.87	414.38
480.23	414.05
480.60	413.74
480.96	413.95
481.33	414.79
481.69	414.93
482.06	414.95
482.42	415.52
482.79	415.95
483.15	416.38
483.52	417.55
483.88	417.71
484.25	418.02
484.61	419.52
484.98	420.21
485.34	422.19
485.71	423.74
486.07	424.88
486.44	424.07
486.80	425.95
487.17	427.55
487.53	429.90
487.90	432.02
488.26	435.07
488.62	437.95
488.99	439.95
489.35	442.81
489.72	445.43
490.08	447.74
490.44	450.38
490.81	453.83
491.17	456.26
491.54	459.98
491.90	463.93
492.26	467.14
492.63	471.10
492.99	474.21
493.36	478.05
493.72	482.55
494.08	487.50
494.45	492.24
494.81	497.31
495.17	501.55
495.54	506.24
495.90	510.69
496.26	514.71
496.63	519.71
496.99	524.88
497.35	530.29
497.72	536.57
498.08	542.31
498.44	548.38
498.80	555.26
499.17	561.43
499.53	567.76
499.89	574.83
500.26	581.17
500.62	588.24
500.98	595.29
501.34	602.19
501.71	609.74
502.07	616.71
502.43	623.19
502.79	630.17
503.16	637.12
503.52	644.29
503.88	651.88
504.24	659.36
504.60	666.95
504.97	675.19
505.33	682.38
505.69	690.79
506.05	697.98
506.41	705.24
506.78	712.90
507.14	720.26
507.50	727.95
507.86	735.98
508.22	743.29
508.59	750.33
508.95	758.00
509.31	765.93
509.67	773.55
510.03	782.00
510.39	790.05
510.75	798.10
511.12	805.90
511.48	813.52
511.84	821.36
512.20	829.02
512.56	836.36
512.92	843.86
513.28	851.52
513.64	859.29
514.00	866.83
514.37	874.71
514.73	882.05
515.09	889.33
515.45	895.95
515.81	903.81
516.17	910.64
516.53	917.17
516.89	922.81
517.25	929.52
517.61	936.17
517.97	942.45
518.33	948.71
518.69	955.24
519.05	962.05
519.41	968.17
519.77	975.21
520.13	980.64
520.49	986.74
520.85	992.67
521.21	998.50
521.57	1004.60
521.93	1009.12
522.29	1014.64
522.65	1019.33
523.01	1025.52
523.37	1030.36
523.73	1035.64
524.09	1040.21
524.45	1044.86
524.81	1049.45
525.17	1054.43
525.53	1058.83
525.89	1063.10
526.25	1067.86
526.61	1072.24
526.97	1076.26
527.33	1080.57
527.68	1087.57
528.04	1090.95
528.40	1094.83
528.76	1099.07
529.12	1102.76
529.48	1107.95
529.84	1112.17
530.20	1117.12
530.56	1121.50
530.91	1126.02
531.27	1130.50
531.63	1134.71
531.99	1138.69
532.35	1142.40
532.71	1145.79
533.07	1150.26
533.42	1157.50
533.78	1161.55
534.14	1165.95
534.50	1170.43
534.86	1174.36
535.21	1176.19
535.57	1181.45
535.93	1184.64
536.29	1188.95
536.65	1193.19
537.00	1196.31
537.36	1200.26
537.72	1202.33
538.08	1205.10
538.44	1207.81
538.79	1211.83
539.15	1215.90
539.51	1219.29
539.87	1223.33
540.22	1226.07
540.58	1229.45
540.94	1230.31
541.29	1232.95
541.65	1234.48
542.01	1236.64
542.37	1238.43
542.72	1241.00
543.08	1243.07
543.44	1246.64
543.79	1248.26
544.15	1251.02
544.51	1253.86
544.87	1256.33
545.22	1260.26
545.58	1263.36
545.94	1266.17
546.29	1267.74
546.65	1269.67
547.01	1271.88
547.36	1274.57
547.72	1277.31
548.07	1280.45
548.43	1282.40
548.79	1284.64
549.14	1287.69
549.50	1291.88
549.86	1294.48
550.21	1297.57
550.57	1299.60
550.92	1301.38
551.28	1304.76
551.64	1307.67
551.99	1310.81
552.35	1313.38
552.70	1315.98
553.06	1319.02
553.41	1322.02
553.77	1327.19
554.13	1330.45
554.48	1334.98
554.84	1338.74
555.19	1342.71
555.55	1347.10
555.90	1351.02
556.26	1355.05
556.61	1358.64
556.97	1361.45
557.32	1365.71
557.68	1369.43
558.03	1373.88
558.39	1378.29
558.74	1381.76
559.10	1385.31
559.45	1389.05
559.81	1394.05
560.16	1398.67
560.52	1402.90
560.87	1407.33
561.23	1409.81
561.58	1416.64
561.94	1421.17
562.29	1424.95
562.64	1430.48
563.00	1433.64
563.35	1438.38
563.71	1443.07
564.06	1448.12
564.42	1453.76
564.77	1459.69
565.12	1465.38
565.48	1472.83
565.83	1479.71
566.19	1486.21
566.54	1491.74
566.89	1497.26
567.25	1502.86
567.60	1509.57
567.96	1516.95
568.31	1523.83
568.66	1531.57
569.02	1534.83
569.37	1540.38
569.72	1547.17
570.08	1552.12
570.43	1557.60
570.78	1563.93
571.14	1569.95
571.49	1575.48
571.84	1580.64
572.20	1584.95
572.55	1590.26
572.90	1593.07
573.26	1597.02
573.61	1601.17
573.96	1605.98
574.31	1610.40
574.67	1614.55
575.02	1617.45
575.37	1620.67
575.72	1623.26
576.08	1625.43
576.43	1629.90
576.78	1634.10
577.13	1636.64
577.49	1639.95
577.84	1644.69
578.19	1648.00
578.54	1652.00
578.90	1656.24
579.25	1659.21
579.60	1662.05
579.95	1664.76
580.30	1669.10
580.66	1673.31
581.01	1676.74
581.36	1679.86
581.71	1683.67
582.06	1688.24
582.42	1692.64
582.77	1695.21
583.12	1699.05
583.47	1703.07
583.82	1706.36
584.17	1709.07
584.53	1713.19
584.88	1716.43
585.23	1719.69
585.58	1722.45
585.93	1724.19
586.28	1727.00
586.63	1730.31
586.98	1734.26
587.34	1738.62
587.69	1740.45
588.04	1742.64
588.39	1745.76
588.74	1747.74
589.09	1750.12
589.44	1750.26
589.79	1752.17
590.14	1753.98
590.49	1755.88
590.84	1756.95
591.19	1758.10
591.54	1759.64
591.89	1760.50
592.25	1764.36
592.60	1764.10
592.95	1764.38
593.30	1766.52
593.65	1767.88
594.00	1768.67
594.35	1775.36
594.70	1774.74
595.05	1776.88
595.40	1776.88
595.75	1776.76
596.10	1778.05
596.45	1779.55
596.80	1781.21
597.15	1782.19
597.50	1782.48
597.85	1783.40
598.19	1783.48
598.54	1784.31
598.89	1784.29
599.24	1785.45
599.59	1784.36
599.94	1785.00
600.29	1786.17
600.64	1785.83
600.99	1786.00
601.34	1786.95
601.69	1780.21
602.04	1778.74
602.39	1777.26
602.74	1778.12
603.08	1777.98
603.43	1778.57
603.78	1776.48
604.13	1775.52
604.48	1774.12
604.83	1774.38
605.18	1774.62
605.53	1775.17
605.87	1773.93
606.22	1773.93
606.57	1771.64
606.92	1769.79
607.27	1769.29
607.62	1768.26
607.96	1768.05
608.31	1765.98
608.66	1764.26
609.01	1763.19
609.36	1763.05
609.70	1761.38
610.05	1758.71
610.40	1756.81
610.75	1753.76
611.10	1752.52
611.44	1750.31
611.79	1747.90
612.14	1745.45
612.49	1741.67
612.83	1738.64
613.18	1736.05
613.53	1732.17
613.88	1729.14
614.22	1726.98
614.57	1723.12
614.92	1719.50
615.27	1715.88
615.61	1712.57
615.96	1708.71
616.31	1705.21
616.65	1702.90
617.00	1700.43
617.35	1697.48
617.70	1694.07
618.04	1690.67
618.39	1687.48
618.74	1684.10
619.08	1680.43
619.43	1676.29
619.78	1672.29
620.12	1669.45
620.47	1666.10
620.82	1662.74
621.16	1658.67
621.51	1654.79
621.85	1650.05
622.20	1646.45
622.55	1641.81
622.89	1638.62
623.24	1636.10
623.59	1633.05
623.93	1628.21
624.28	1623.38
624.62	1620.95
624.97	1618.07
625.32	1613.90
625.66	1610.45
626.01	1606.48
626.35	1603.02
626.70	1599.64
627.04	1596.64
627.39	1591.31
627.73	1588.62
628.08	1585.05
628.43	1581.40
628.77	1576.62
629.12	1574.62
629.46	1571.83
629.81	1569.29
630.15	1564.14
630.50	1558.07
630.84	1553.33
631.19	1549.10
631.53	1545.21
631.88	1537.98
632.22	1531.95
632.57	1528.79
632.91	1523.00
633.26	1518.50
633.60	1513.00
633.95	1507.38
634.29	1502.33
634.64	1498.64
634.98	1492.29
635.32	1489.14
635.67	1485.60
636.01	1481.79
636.36	1476.48
636.70	1471.05
637.05	1465.90
637.39	1462.50
637.73	1458.90
638.08	1455.57
638.42	1451.31
638.77	1447.14
639.11	1443.00
639.45	1438.95
639.80	1433.19
640.14	1429.14
640.49	1424.33
640.83	1419.12
641.17	1415.52
641.52	1410.33
641.86	1405.26
642.20	1402.17
642.55	1395.43
642.89	1390.33
643.23	1384.69
643.58	1379.95
643.92	1374.12
644.26	1368.00
644.61	1362.74
644.95	1357.00
645.29	1349.88
645.64	1344.69
645.98	1338.86
646.32	1334.02
646.66	1327.71
647.01	1321.81
647.35	1315.60
647.69	1309.74
648.04	1305.50
648.38	1299.36
648.72	1294.36
649.06	1287.90
649.41	1280.71
649.75	1274.45
650.09	1268.67
650.43	1261.90
650.78	1254.79
651.12	1248.12
651.46	1242.67
651.80	1235.62
652.14	1229.69
652.49	1224.12
652.83	1217.40
653.17	1210.57
653.51	1204.19
653.85	1197.55
654.20	1191.21
654.54	1184.86
654.88	1178.62
655.22	1172.26
655.56	1164.90
655.90	1158.10
656.25	1152.55
656.59	1146.52
656.93	1140.45
657.27	1134.90
657.61	1128.55
657.95	1123.02
658.29	1117.48
658.64	1111.12
658.98	1104.69
659.32	1097.43
659.66	1091.36
660.00	1085.05
660.34	1078.95
660.68	1072.38
661.02	1066.60
661.36	1060.45
661.70	1054.48
662.05	1048.21
662.39	1041.79
662.73	1037.36
663.07	1032.14
663.41	1025.14
663.75	1019.40
664.09	1013.69
664.43	1007.00
664.77	1001.52
665.11	995.19
665.45	988.98
665.79	982.62
666.13	977.26
666.47	971.57
666.81	965.71
667.15	959.50
667.49	953.90
667.83	948.79
668.17	943.14
668.51	937.90
668.85	932.43
669.19	928.29
669.53	922.50
669.87	916.00
670.21	909.60
670.55	903.69
670.89	899.02
671.23	893.93
671.57	888.26
671.91	883.67
672.25	878.83
672.58	874.14
672.92	868.55
673.26	863.26
673.60	858.38
673.94	852.76
674.28	847.50
674.62	842.76
674.96	837.05
675.30	832.52
675.64	827.12
675.97	821.67
676.31	815.43
676.65	809.98
676.99	806.21
677.33	801.43
677.67	797.50
678.01	791.62
678.34	786.07
678.68	781.12
679.02	775.26
679.36	769.50
679.70	764.52
680.04	759.81
680.37	754.12
680.71	749.29
681.05	745.05
681.39	740.21
681.73	735.31
682.06	730.24
682.40	725.43
682.74	720.74
683.08	716.86
683.42	711.62
683.75	707.60
684.09	701.10
684.43	695.83
684.77	690.76
685.10	686.05
685.44	681.02
685.78	676.26
686.12	671.69
686.45	667.26
686.79	662.10
687.13	657.86
687.46	654.07
687.80	649.93
688.14	645.05
688.48	641.48
688.81	636.90
689.15	633.81
689.49	629.45
689.82	625.55
690.16	620.33
690.50	616.43
690.83	611.62
691.17	607.64
691.51	603.57
691.84	599.67
692.18	595.45
692.52	591.81
692.85	588.10
693.19	584.81
693.52	581.24
693.86	577.50
694.20	573.24
694.53	569.40
694.87	565.05
695.21	560.62
695.54	556.33
695.88	551.95
696.21	546.48
696.55	542.02
696.88	538.02
697.22	534.29
697.56	531.05
697.89	526.95
698.23	523.69
698.56	519.76
698.90	515.83
699.23	512.02
699.57	508.57
699.90	504.79
700.24	500.88
700.58	497.31
700.91	494.33
701.25	492.64
701.58	489.98
701.92	487.57
702.25	484.71
702.59	481.17
702.92	478.38
703.26	475.83
703.59	473.00
703.93	471.57
704.26	469.10
704.60	465.86
704.93	463.33
705.26	460.67
705.60	458.36
705.93	455.26
706.27	453.21
706.60	450.71
706.94	448.45
707.27	445.50
707.61	442.74
707.94	439.64
708.27	435.43
708.61	432.14
708.94	428.81
709.28	426.36
709.61	424.07
709.94	421.64
710.28	419.29
710.61	417.10
710.95	412.95
711.28	411.83
711.61	409.60
711.95	407.48
712.28	404.40
712.61	401.93
712.95	400.95
713.28	399.07
713.61	396.40
713.95	393.50
714.28	391.43
714.61	389.21
714.95	387.02
715.28	385.10
715.61	382.76
715.95	380.86
716.28	378.60
716.61	376.60
716.95	374.05
717.28	371.69
717.61	369.40
717.94	367.26
718.28	363.55
718.61	361.38
718.94	359.29
719.27	357.55
719.61	355.62
719.94	352.64
720.27	349.83
720.60	347.98
720.94	345.95
721.27	344.31
721.60	342.98
721.93	341.52
722.27	340.36
722.60	338.60
722.93	336.69
723.26	335.21
723.59	333.29
723.93	332.29
724.26	331.19
724.59	329.93
724.92	328.83
725.25	328.43
725.59	327.02
725.92	325.86
726.25	324.43
726.58	323.07
726.91	322.36
727.24	321.38
727.57	320.05
727.91	318.90
728.24	317.79
728.57	316.21
728.90	315.00
729.23	312.90
729.56	312.83
729.89	311.60
730.22	310.29
730.55	309.17
730.89	307.93
731.22	306.60
731.55	305.24
731.88	304.31
732.21	302.57
732.54	301.36
732.87	300.31
733.20	299.83
733.53	299.21
733.86	298.24
734.19	296.90
734.52	296.33
734.85	296.88
735.18	295.86
735.51	295.48
735.84	294.67
736.17	294.64
736.50	292.57
736.83	294.36
737.16	293.40
737.49	292.60
737.82	291.69
738.15	291.17
738.48	290.50
738.81	289.31
739.14	288.38
739.47	287.60
739.80	286.55
740.13	285.83
740.46	284.48
740.79	283.60
741.12	282.83
741.45	281.74
741.78	279.88
742.11	279.71
742.44	278.76
742.77	278.48
743.10	277.29
743.43	276.76
743.75	273.76
744.08	275.76
744.41	275.10
744.74	274.40
745.07	273.21
745.40	272.64
745.73	272.81
746.06	272.12
746.39	271.69
746.71	270.88
747.04	269.71
747.37	269.21
747.70	268.74
748.03	267.98
748.36	267.60
748.68	266.86
749.01	265.26
749.34	264.50
749.67	263.52
750.00	263.57
750.33	264.40
750.65	264.17
750.98	261.10
751.31	260.81
751.64	260.17
751.97	261.00
752.29	260.43
752.62	258.93
752.95	258.19
753.28	257.31
753.60	256.74
753.93	256.71
754.26	256.43
754.59	255.36
754.91	254.83
755.24	254.31
755.57	253.50
755.90	252.98
756.22	252.43
756.55	251.55
756.88	250.07
757.20	247.98
757.53	246.76
757.86	246.48
758.19	245.93
758.51	245.62
758.84	243.98
759.17	243.48
759.49	243.33
759.82	244.00
760.15	243.83
760.47	243.52
760.80	242.71
761.13	242.55
761.45	242.05
761.78	241.52
762.11	241.07
762.43	240.81
762.76	240.38
763.08	240.14
763.41	240.05
763.74	240.14
764.06	240.21
764.39	240.14
764.71	239.69
765.04	239.14
765.37	238.57
765.69	238.14
766.02	237.64
766.34	237.36
766.67	236.29
767.00	236.38
767.32	237.48
767.65	238.19
767.97	237.67
768.30	237.50
768.62	237.36
768.95	236.81
769.27	236.48
769.60	236.64
769.92	236.24
770.25	235.83
770.57	235.29
770.90	234.86
771.22	234.29
771.55	234.02
771.87	234.07
772.20	233.74
772.52	235.17
772.85	237.29
773.17	237.10
773.50	236.90
773.82	236.29
774.15	234.83
774.47	233.24
774.80	232.83
775.12	232.52
775.45	232.26
775.77	232.24
776.09	232.29
776.42	232.05
776.74	232.40
777.07	232.00
777.39	231.95
777.72	231.69
778.04	231.64
778.36	231.33
778.69	231.14
779.01	231.17
779.33	229.31
779.66	227.10
779.98	226.64
780.31	226.52
780.63	227.21
780.95	227.24
781.28	227.29
781.60	226.95
781.92	226.90
782.25	226.81
782.57	226.71
782.89	226.40
783.22	226.19
783.54	225.57
783.86	225.76
784.19	225.45
784.51	225.81
784.83	225.67
785.16	225.69
