SpectraSuite Data File
++++++++++++++++++++++++++++++++++++
Date: Tue Apr 02 18:40:39 EDT 2013
User: group
Dark Spectrum Present: No
Reference Spectrum Present: No
Number of Sampled Component Spectra: 1
Spectrometers: USB2E7196
Integration Time (usec): 580000 (USB2E7196)
Spectra Averaged: 2 (USB2E7196)
Boxcar Smoothing: 10 (USB2E7196)
Correct for Electrical Dark: No (USB2E7196)
Strobe/Lamp Enabled: No (USB2E7196)
Correct for Detector Non-linearity: No (USB2E7196)
Correct for Stray Light: No (USB2E7196)
Number of Pixels in Processed Spectrum: 2048
>>>>>Begin Processed Spectral Data<<<<<
339.09	0.00
339.48	193.00
339.86	200.50
340.24	198.00
340.63	201.50
341.01	232.50
341.39	196.50
341.78	208.50
342.16	209.00
342.54	202.50
342.93	197.43
343.31	207.19
343.69	207.86
344.07	208.02
344.46	208.60
344.84	209.02
345.22	207.57
345.60	208.12
345.99	208.19
346.37	208.14
346.75	208.19
347.13	208.14
347.52	208.10
347.90	208.71
348.28	208.67
348.66	209.36
349.05	208.74
349.43	209.21
349.81	209.36
350.19	209.55
350.57	209.67
350.96	209.76
351.34	209.98
351.72	210.02
352.10	210.36
352.48	210.02
352.87	209.83
353.25	210.14
353.63	210.21
354.01	210.00
354.39	210.21
354.77	210.52
355.15	211.48
355.54	211.43
355.92	210.71
356.30	211.00
356.68	212.19
357.06	212.55
357.44	212.17
357.82	212.10
358.20	212.98
358.58	213.07
358.97	213.10
359.35	213.67
359.73	214.21
360.11	214.17
360.49	214.79
360.87	214.88
361.25	215.14
361.63	216.00
362.01	216.36
362.39	216.43
362.77	216.45
363.15	216.12
363.53	216.31
363.91	216.50
364.29	216.50
364.67	214.74
365.05	214.90
365.43	215.26
365.81	215.55
366.19	215.83
366.57	216.71
366.95	216.98
367.33	216.52
367.71	216.36
368.09	216.74
368.47	216.67
368.85	216.67
369.23	217.19
369.61	216.45
369.99	217.07
370.37	217.29
370.75	218.57
371.13	218.12
371.51	217.95
371.89	218.29
372.27	218.38
372.65	218.67
373.03	218.55
373.41	218.38
373.78	218.40
374.16	217.21
374.54	216.48
374.92	216.12
375.30	216.00
375.68	215.62
376.06	215.64
376.44	215.55
376.82	215.57
377.19	215.24
377.57	215.12
377.95	214.67
378.33	214.40
378.71	212.90
379.09	213.40
379.47	213.71
379.84	213.62
380.22	213.38
380.60	212.88
380.98	212.95
381.36	213.07
381.73	212.79
382.11	213.29
382.49	213.36
382.87	213.17
383.25	213.14
383.62	215.43
384.00	215.05
384.38	215.10
384.76	215.88
385.13	216.86
385.51	216.90
385.89	216.60
386.27	216.86
386.64	217.33
387.02	217.12
387.40	216.74
387.78	216.95
388.15	217.17
388.53	217.19
388.91	217.19
389.29	216.88
389.66	217.17
390.04	216.79
390.42	217.17
390.79	217.50
391.17	217.74
391.55	215.55
391.92	215.62
392.30	215.86
392.68	215.31
393.05	215.14
393.43	215.17
393.81	215.21
394.18	214.67
394.56	214.79
394.94	215.14
395.31	215.07
395.69	215.50
396.06	215.86
396.44	216.10
396.82	215.76
397.19	216.83
397.57	216.45
397.95	216.93
398.32	216.43
398.70	216.43
399.07	216.71
399.45	216.76
399.82	216.74
400.20	216.52
400.58	216.40
400.95	215.62
401.33	215.98
401.70	217.62
402.08	218.10
402.45	217.83
402.83	218.19
403.20	218.36
403.58	218.17
403.95	218.33
404.33	218.79
404.71	219.21
405.08	220.55
405.46	221.12
405.83	221.24
406.21	221.69
406.58	222.24
406.96	222.40
407.33	223.29
407.70	224.02
408.08	226.07
408.45	227.07
408.83	228.10
409.20	228.74
409.58	228.29
409.95	229.38
410.33	230.60
410.70	230.95
411.08	232.43
411.45	233.57
411.82	234.57
412.20	236.12
412.57	238.38
412.95	238.00
413.32	240.10
413.69	241.74
414.07	243.57
414.44	245.52
414.82	247.95
415.19	250.21
415.56	252.48
415.94	254.12
416.31	257.12
416.68	259.81
417.06	263.19
417.43	267.00
417.81	270.55
418.18	274.36
418.55	278.26
418.93	282.14
419.30	286.57
419.67	291.14
420.04	295.88
420.42	300.67
420.79	308.21
421.16	313.55
421.54	320.71
421.91	327.05
422.28	333.48
422.66	340.48
423.03	348.64
423.40	356.19
423.77	363.55
424.15	371.12
424.52	379.33
424.89	388.43
425.26	396.19
425.64	404.45
426.01	413.19
426.38	422.81
426.75	433.26
427.13	442.90
427.50	453.00
427.87	463.52
428.24	473.57
428.61	482.55
428.99	494.55
429.36	505.88
429.73	517.07
430.10	529.40
430.47	541.52
430.85	552.67
431.22	565.74
431.59	581.17
431.96	595.17
432.33	609.90
432.70	624.40
433.08	641.33
433.45	656.95
433.82	673.00
434.19	690.43
434.56	707.90
434.93	724.93
435.30	742.12
435.68	760.67
436.05	779.81
436.42	797.81
436.79	814.55
437.16	832.79
437.53	852.38
437.90	870.93
438.27	889.60
438.64	908.98
439.01	926.48
439.38	941.24
439.75	956.00
440.13	974.14
440.50	989.86
440.87	1003.05
441.24	1017.21
441.61	1032.88
441.98	1045.10
442.35	1057.45
442.72	1070.45
443.09	1084.43
443.46	1091.71
443.83	1097.12
444.20	1102.19
444.57	1108.07
444.94	1111.55
445.31	1116.02
445.68	1121.98
446.05	1123.60
446.42	1121.98
446.79	1121.26
447.16	1118.52
447.53	1118.26
447.90	1111.33
448.27	1105.02
448.64	1096.55
449.01	1090.17
449.37	1078.40
449.74	1066.50
450.11	1054.55
450.48	1039.52
450.85	1022.52
451.22	1009.86
451.59	996.93
451.96	984.21
452.33	968.26
452.70	953.29
453.07	934.36
453.43	914.14
453.80	896.67
454.17	880.21
454.54	863.67
454.91	847.07
455.28	829.12
455.65	813.45
456.02	801.14
456.38	787.45
456.75	771.24
457.12	757.05
457.49	743.14
457.86	728.29
458.23	717.10
458.59	705.26
458.96	692.81
459.33	681.74
459.70	670.69
460.07	662.05
460.43	651.36
460.80	642.43
461.17	634.26
461.54	625.48
461.91	616.86
462.27	608.19
462.64	600.69
463.01	593.05
463.38	585.79
463.74	574.79
464.11	568.07
464.48	561.57
464.85	554.74
465.21	550.45
465.58	545.14
465.95	538.45
466.32	533.00
466.68	527.33
467.05	521.71
467.42	516.36
467.78	510.71
468.15	505.50
468.52	501.29
468.88	495.57
469.25	490.67
469.62	487.02
469.98	482.95
470.35	479.76
470.72	475.74
471.08	470.88
471.45	468.07
471.82	464.88
472.18	461.43
472.55	459.00
472.92	455.48
473.28	452.38
473.65	449.48
474.02	446.76
474.38	444.50
474.75	442.52
475.11	440.43
475.48	438.26
475.85	436.48
476.21	434.48
476.58	433.07
476.94	431.93
477.31	430.60
477.67	429.55
478.04	427.90
478.41	427.43
478.77	429.12
479.14	427.67
479.50	427.31
479.87	427.29
480.23	427.50
480.60	426.55
480.96	426.43
481.33	427.62
481.69	427.67
482.06	427.74
482.42	427.83
482.79	428.17
483.15	428.83
483.52	429.69
483.88	430.38
484.25	430.95
484.61	431.81
484.98	432.69
485.34	434.79
485.71	436.67
486.07	438.26
486.44	437.38
486.80	439.07
487.17	440.31
487.53	442.60
487.90	444.76
488.26	448.05
488.62	450.64
488.99	452.40
489.35	454.88
489.72	457.98
490.08	460.67
490.44	463.14
490.81	466.64
491.17	470.05
491.54	473.48
491.90	477.48
492.26	481.24
492.63	485.19
492.99	488.40
493.36	492.50
493.72	496.86
494.08	501.62
494.45	506.93
494.81	512.21
495.17	516.95
495.54	522.00
495.90	526.45
496.26	532.19
496.63	538.07
496.99	543.64
497.35	549.48
497.72	555.60
498.08	562.26
498.44	568.43
498.80	575.36
499.17	582.31
499.53	588.76
499.89	595.86
500.26	603.00
500.62	610.02
500.98	618.05
501.34	625.19
501.71	633.60
502.07	640.83
502.43	648.48
502.79	655.71
503.16	662.76
503.52	670.17
503.88	677.36
504.24	685.55
504.60	693.69
504.97	701.62
505.33	709.71
505.69	718.86
506.05	726.57
506.41	734.62
506.78	742.24
507.14	749.83
507.50	758.29
507.86	766.76
508.22	775.21
508.59	782.33
508.95	790.69
509.31	799.05
509.67	807.02
510.03	815.17
510.39	822.71
510.75	831.10
511.12	839.81
511.48	848.24
511.84	856.07
512.20	863.90
512.56	871.98
512.92	880.38
513.28	888.10
513.64	896.57
514.00	904.10
514.37	911.95
514.73	920.79
515.09	928.31
515.45	935.24
515.81	942.86
516.17	950.71
516.53	957.67
516.89	963.95
517.25	971.29
517.61	978.43
517.97	986.26
518.33	993.38
518.69	1001.05
519.05	1008.19
519.41	1015.57
519.77	1023.45
520.13	1030.95
520.49	1037.31
520.85	1043.60
521.21	1050.95
521.57	1058.38
521.93	1064.62
522.29	1069.98
522.65	1076.21
523.01	1083.02
523.37	1088.98
523.73	1095.26
524.09	1101.86
524.45	1108.12
524.81	1114.10
525.17	1120.26
525.53	1125.95
525.89	1131.07
526.25	1136.33
526.61	1141.40
526.97	1145.95
527.33	1150.50
527.68	1156.38
528.04	1161.55
528.40	1165.93
528.76	1170.33
529.12	1174.74
529.48	1180.12
529.84	1185.17
530.20	1189.95
530.56	1194.71
530.91	1199.31
531.27	1203.40
531.63	1207.83
531.99	1212.05
532.35	1216.50
532.71	1221.12
533.07	1225.98
533.42	1233.19
533.78	1237.67
534.14	1242.60
534.50	1247.05
534.86	1251.74
535.21	1254.64
535.57	1259.57
535.93	1263.86
536.29	1268.26
536.65	1272.64
537.00	1276.79
537.36	1281.52
537.72	1285.81
538.08	1289.86
538.44	1293.76
538.79	1297.95
539.15	1301.81
539.51	1306.00
539.87	1310.21
540.22	1314.02
540.58	1318.60
540.94	1320.71
541.29	1323.83
541.65	1326.19
542.01	1330.21
542.37	1334.19
542.72	1337.19
543.08	1340.02
543.44	1344.12
543.79	1346.86
544.15	1350.45
544.51	1354.79
544.87	1358.17
545.22	1361.74
545.58	1365.71
545.94	1369.64
546.29	1373.26
546.65	1377.50
547.01	1380.95
547.36	1385.10
547.72	1388.40
548.07	1391.60
548.43	1394.40
548.79	1397.76
549.14	1401.45
549.50	1405.24
549.86	1407.74
550.21	1412.45
550.57	1415.93
550.92	1419.52
551.28	1424.00
551.64	1427.71
551.99	1430.93
552.35	1434.95
552.70	1438.38
553.06	1442.21
553.41	1446.12
553.77	1450.93
554.13	1454.43
554.48	1459.74
554.84	1463.98
555.19	1468.14
555.55	1473.10
555.90	1477.33
556.26	1482.24
556.61	1487.26
556.97	1490.90
557.32	1496.21
557.68	1500.98
558.03	1505.88
558.39	1509.86
558.74	1514.26
559.10	1518.48
559.45	1523.26
559.81	1527.24
560.16	1531.93
560.52	1536.38
560.87	1541.19
561.23	1544.79
561.58	1551.71
561.94	1555.55
562.29	1559.81
562.64	1565.00
563.00	1569.02
563.35	1574.81
563.71	1579.81
564.06	1585.48
564.42	1590.95
564.77	1596.40
565.12	1601.57
565.48	1608.98
565.83	1615.74
566.19	1621.69
566.54	1627.02
566.89	1632.45
567.25	1639.05
567.60	1645.67
567.96	1652.86
568.31	1659.48
568.66	1666.12
569.02	1669.26
569.37	1674.24
569.72	1679.88
570.08	1684.48
570.43	1689.26
570.78	1693.64
571.14	1698.62
571.49	1702.29
571.84	1707.12
572.20	1710.62
572.55	1715.10
572.90	1717.12
573.26	1720.29
573.61	1723.36
573.96	1727.43
574.31	1730.74
574.67	1733.71
575.02	1735.62
575.37	1736.60
575.72	1737.79
576.08	1740.33
576.43	1743.38
576.78	1746.40
577.13	1748.52
577.49	1752.50
577.84	1755.69
578.19	1757.57
578.54	1760.26
578.90	1764.05
579.25	1767.26
579.60	1769.33
579.95	1770.00
580.30	1772.93
580.66	1776.02
581.01	1778.67
581.36	1779.71
581.71	1782.07
582.06	1784.93
582.42	1788.36
582.77	1790.52
583.12	1793.05
583.47	1795.45
583.82	1798.79
584.17	1800.48
584.53	1802.31
584.88	1802.81
585.23	1804.88
585.58	1807.05
585.93	1808.21
586.28	1808.86
586.63	1809.19
586.98	1811.69
587.34	1814.88
587.69	1815.88
588.04	1815.81
588.39	1816.19
588.74	1816.52
589.09	1816.52
589.44	1814.98
589.79	1814.55
590.14	1815.07
590.49	1815.33
590.84	1814.74
591.19	1813.67
591.54	1813.74
591.89	1813.76
592.25	1815.24
592.60	1813.52
592.95	1813.83
593.30	1814.19
593.65	1813.48
594.00	1812.52
594.35	1816.48
594.70	1814.98
595.05	1814.12
595.40	1813.69
595.75	1812.69
596.10	1812.93
596.45	1813.31
596.80	1813.40
597.15	1812.64
597.50	1811.31
597.85	1810.88
598.19	1810.12
598.54	1809.17
598.89	1808.17
599.24	1807.48
599.59	1804.60
599.94	1804.24
600.29	1802.83
600.64	1800.50
600.99	1799.38
601.34	1798.88
601.69	1792.31
602.04	1789.71
602.39	1786.83
602.74	1784.52
603.08	1781.90
603.43	1780.33
603.78	1778.29
604.13	1776.45
604.48	1774.50
604.83	1773.02
605.18	1770.62
605.53	1768.55
605.87	1765.62
606.22	1763.33
606.57	1760.69
606.92	1758.38
607.27	1755.36
607.62	1752.60
607.96	1751.21
608.31	1748.64
608.66	1745.12
609.01	1741.90
609.36	1739.62
609.70	1736.86
610.05	1733.81
610.40	1731.19
610.75	1728.05
611.10	1725.19
611.44	1721.93
611.79	1717.86
612.14	1713.45
612.49	1709.14
612.83	1704.07
613.18	1699.36
613.53	1694.74
613.88	1689.02
614.22	1684.00
614.57	1679.38
614.92	1674.17
615.27	1668.79
615.61	1663.57
615.96	1658.38
616.31	1653.95
616.65	1649.98
617.00	1646.64
617.35	1642.71
617.70	1638.10
618.04	1631.64
618.39	1624.98
618.74	1619.55
619.08	1614.21
619.43	1609.17
619.78	1604.38
620.12	1600.00
620.47	1596.14
620.82	1590.40
621.16	1585.43
621.51	1581.21
621.85	1575.14
622.20	1569.88
622.55	1563.48
622.89	1558.69
623.24	1554.36
623.59	1549.00
623.93	1542.55
624.28	1536.50
624.62	1532.88
624.97	1528.57
625.32	1524.64
625.66	1519.48
626.01	1514.02
626.35	1509.83
626.70	1504.98
627.04	1500.52
627.39	1495.76
627.73	1491.17
628.08	1486.93
628.43	1482.90
628.77	1477.14
629.12	1472.29
629.46	1467.93
629.81	1464.02
630.15	1457.71
630.50	1452.02
630.84	1446.07
631.19	1441.10
631.53	1435.29
631.88	1426.57
632.22	1420.10
632.57	1414.43
632.91	1408.90
633.26	1403.55
633.60	1397.26
633.95	1391.57
634.29	1384.52
634.64	1378.07
634.98	1370.79
635.32	1365.76
635.67	1360.14
636.01	1354.79
636.36	1348.81
636.70	1344.31
637.05	1337.83
637.39	1332.83
637.73	1327.67
638.08	1323.31
638.42	1317.52
638.77	1312.57
639.11	1307.52
639.45	1302.07
639.80	1296.26
640.14	1290.62
640.49	1284.52
640.83	1277.74
641.17	1271.26
641.52	1265.43
641.86	1259.38
642.20	1254.95
642.55	1248.17
642.89	1241.21
643.23	1234.05
643.58	1228.81
643.92	1220.43
644.26	1214.45
644.61	1208.38
644.95	1200.76
645.29	1193.24
645.64	1187.43
645.98	1180.50
646.32	1175.02
646.66	1167.05
647.01	1159.90
647.35	1153.64
647.69	1147.64
648.04	1142.17
648.38	1136.55
648.72	1129.95
649.06	1123.50
649.41	1115.81
649.75	1108.62
650.09	1102.14
650.43	1095.71
650.78	1088.29
651.12	1082.24
651.46	1074.88
651.80	1068.19
652.14	1062.14
652.49	1056.24
652.83	1049.00
653.17	1042.43
653.51	1034.24
653.85	1028.88
654.20	1022.21
654.54	1015.07
654.88	1007.55
655.22	1001.14
655.56	994.19
655.90	988.40
656.25	981.95
656.59	975.76
656.93	970.05
657.27	964.57
657.61	958.29
657.95	952.50
658.29	946.10
658.64	940.29
658.98	933.86
659.32	927.19
659.66	921.07
660.00	915.40
660.34	909.24
660.68	904.17
661.02	897.43
661.36	891.55
661.70	885.79
662.05	880.76
662.39	874.55
662.73	869.43
663.07	863.43
663.41	857.93
663.75	851.69
664.09	845.31
664.43	838.33
664.77	832.52
665.11	826.79
665.45	821.90
665.79	816.57
666.13	810.76
666.47	805.69
666.81	800.14
667.15	794.07
667.49	789.10
667.83	784.45
668.17	779.74
668.51	774.12
668.85	769.10
669.19	764.48
669.53	758.88
669.87	753.07
670.21	747.74
670.55	741.79
670.89	738.02
671.23	732.90
671.57	728.31
671.91	724.19
672.25	719.55
672.58	714.50
672.92	710.05
673.26	705.31
673.60	700.29
673.94	695.31
674.28	691.02
674.62	686.29
674.96	681.40
675.30	677.14
675.64	673.50
675.97	669.29
676.31	664.02
676.65	659.95
676.99	656.29
677.33	651.55
677.67	647.69
678.01	642.07
678.34	638.60
678.68	635.14
679.02	630.29
679.36	625.64
679.70	621.07
680.04	616.69
680.37	612.69
680.71	608.60
681.05	604.31
681.39	599.88
681.73	595.55
682.06	591.02
682.40	586.71
682.74	582.69
683.08	579.12
683.42	575.12
683.75	571.17
684.09	566.36
684.43	562.88
684.77	558.74
685.10	554.64
685.44	550.29
685.78	545.93
686.12	542.29
686.45	538.64
686.79	534.48
687.13	530.62
687.46	526.60
687.80	523.50
688.14	520.12
688.48	516.88
688.81	513.45
689.15	510.43
689.49	506.48
689.82	502.93
690.16	498.67
690.50	495.02
690.83	491.62
691.17	487.93
691.51	484.43
691.84	481.71
692.18	478.98
692.52	476.05
692.85	472.95
693.19	470.98
693.52	467.98
693.86	464.95
694.20	461.57
694.53	458.69
694.87	455.07
695.21	451.55
695.54	448.52
695.88	444.86
696.21	440.79
696.55	438.21
696.88	435.19
697.22	432.33
697.56	429.69
697.89	426.57
698.23	424.12
698.56	421.05
698.90	418.14
699.23	415.21
699.57	412.45
699.90	409.45
700.24	405.74
700.58	402.83
700.91	400.50
701.25	399.98
701.58	398.26
701.92	396.38
702.25	394.33
702.59	391.76
702.92	389.74
703.26	388.05
703.59	385.69
703.93	385.19
704.26	383.26
704.60	381.24
704.93	379.07
705.26	376.67
705.60	375.33
705.93	373.02
706.27	371.36
706.60	369.48
706.94	368.57
707.27	366.31
707.61	364.62
707.94	362.40
708.27	358.57
708.61	356.07
708.94	353.95
709.28	352.00
709.61	350.19
709.94	348.79
710.28	346.98
710.61	345.17
710.95	341.60
711.28	340.83
711.61	339.26
711.95	338.60
712.28	337.10
712.61	335.50
712.95	335.02
713.28	334.40
713.61	332.57
713.95	330.36
714.28	329.43
714.61	328.10
714.95	326.86
715.28	325.55
715.61	324.02
715.95	323.05
716.28	321.19
716.61	319.98
716.95	318.17
717.28	316.45
717.61	315.48
717.94	314.64
718.28	312.05
718.61	310.31
718.94	308.31
719.27	307.17
719.61	305.57
719.94	303.83
720.27	301.57
720.60	300.48
720.94	299.12
721.27	297.93
721.60	296.71
721.93	295.52
722.27	295.19
722.60	294.57
722.93	292.79
723.26	292.36
723.59	291.17
723.93	290.60
724.26	289.83
724.59	288.64
724.92	287.74
725.25	287.48
725.59	286.76
725.92	286.31
726.25	285.38
726.58	285.07
726.91	283.95
727.24	283.60
727.57	282.69
727.91	281.67
728.24	280.67
728.57	280.17
728.90	279.71
729.23	278.14
729.56	278.21
729.89	277.83
730.22	277.07
730.55	276.38
730.89	275.36
731.22	274.64
731.55	273.79
731.88	272.88
732.21	271.83
732.54	271.14
732.87	270.19
733.20	269.76
733.53	268.76
733.86	268.48
734.19	267.50
734.52	267.21
734.85	268.29
735.18	267.71
735.51	267.29
735.84	266.93
736.17	266.81
736.50	265.31
736.83	267.14
737.16	266.48
737.49	265.69
737.82	265.40
738.15	265.19
738.48	264.76
738.81	264.14
739.14	263.43
739.47	262.55
739.80	261.98
740.13	261.76
740.46	260.71
740.79	259.79
741.12	259.05
741.45	258.36
741.78	256.60
742.11	256.67
742.44	256.14
742.77	255.83
743.10	255.17
743.43	254.52
743.75	251.93
744.08	254.07
744.41	253.50
744.74	252.83
745.07	252.02
745.40	251.98
745.73	252.71
746.06	252.40
746.39	252.50
746.71	252.10
747.04	251.12
747.37	250.90
747.70	250.76
748.03	250.64
748.36	250.38
748.68	249.86
749.01	248.95
749.34	248.26
749.67	247.57
750.00	247.60
750.33	248.67
750.65	248.29
750.98	245.40
751.31	245.43
751.64	245.07
751.97	245.90
752.29	245.12
752.62	243.52
752.95	243.05
753.28	242.38
753.60	241.83
753.93	242.29
754.26	242.43
754.59	241.67
754.91	240.83
755.24	240.33
755.57	240.10
755.90	239.88
756.22	239.52
756.55	239.24
756.88	238.17
757.20	236.57
757.53	235.67
757.86	235.45
758.19	235.36
758.51	235.19
758.84	233.69
759.17	233.31
759.49	233.17
759.82	233.81
760.15	233.74
760.47	233.60
760.80	232.52
761.13	232.19
761.45	231.81
761.78	231.88
762.11	231.79
762.43	231.29
762.76	230.74
763.08	230.60
763.41	230.26
763.74	230.43
764.06	230.14
764.39	230.00
764.71	229.40
765.04	228.88
765.37	228.45
765.69	228.33
766.02	228.31
766.34	228.07
766.67	227.43
767.00	227.36
767.32	228.05
767.65	229.24
767.97	229.00
768.30	229.19
768.62	228.98
768.95	228.55
769.27	228.55
769.60	228.81
769.92	228.48
770.25	228.10
770.57	227.60
770.90	227.64
771.22	227.45
771.55	227.36
771.87	227.48
772.20	227.38
772.52	229.02
772.85	231.10
773.17	230.83
773.50	230.57
773.82	230.36
774.15	229.40
774.47	227.79
774.80	227.50
775.12	227.24
775.45	227.24
775.77	227.38
776.09	227.43
776.42	227.24
776.74	227.69
777.07	227.52
777.39	227.67
777.72	227.02
778.04	227.24
778.36	227.14
778.69	227.10
779.01	227.19
779.33	225.38
779.66	223.12
779.98	223.07
780.31	223.19
780.63	223.95
780.95	224.29
781.28	224.33
781.60	223.98
781.92	223.71
782.25	223.36
782.57	223.19
782.89	222.95
783.22	222.76
783.54	222.14
783.86	222.12
784.19	221.81
784.51	222.57
784.83	222.26
785.16	222.24
