SpectraSuite Data File
++++++++++++++++++++++++++++++++++++
Date: Tue Apr 02 18:38:07 EDT 2013
User: group
Dark Spectrum Present: No
Reference Spectrum Present: No
Number of Sampled Component Spectra: 1
Spectrometers: USB2E7196
Integration Time (usec): 580000 (USB2E7196)
Spectra Averaged: 2 (USB2E7196)
Boxcar Smoothing: 10 (USB2E7196)
Correct for Electrical Dark: No (USB2E7196)
Strobe/Lamp Enabled: No (USB2E7196)
Correct for Detector Non-linearity: No (USB2E7196)
Correct for Stray Light: No (USB2E7196)
Number of Pixels in Processed Spectrum: 2048
>>>>>Begin Processed Spectral Data<<<<<
339.09	0.00
339.48	188.00
339.86	194.50
340.24	194.00
340.63	196.00
341.01	224.50
341.39	200.00
341.78	200.50
342.16	211.50
342.54	204.00
342.93	195.74
343.31	205.57
343.69	206.45
344.07	206.98
344.46	207.88
344.84	208.52
345.22	207.52
345.60	207.95
345.99	208.26
346.37	208.10
346.75	208.21
347.13	208.38
347.52	208.26
347.90	209.14
348.28	209.29
348.66	209.81
349.05	209.29
349.43	209.88
349.81	210.07
350.19	210.29
350.57	210.50
350.96	210.48
351.34	210.71
351.72	210.79
352.10	211.02
352.48	210.79
352.87	210.95
353.25	211.07
353.63	210.98
354.01	211.29
354.39	211.36
354.77	211.67
355.15	212.60
355.54	212.71
355.92	212.05
356.30	212.05
356.68	213.52
357.06	213.98
357.44	213.64
357.82	213.67
358.20	214.64
358.58	214.62
358.97	214.95
359.35	215.48
359.73	216.05
360.11	216.05
360.49	216.31
360.87	216.19
361.25	216.62
361.63	217.60
362.01	217.55
362.39	217.81
362.77	218.02
363.15	217.62
363.53	217.71
363.91	218.14
364.29	218.19
364.67	216.17
365.05	215.95
365.43	216.07
365.81	216.50
366.19	216.64
366.57	217.57
366.95	217.43
367.33	216.86
367.71	216.81
368.09	217.36
368.47	217.33
368.85	217.19
369.23	217.88
369.61	217.02
369.99	217.60
370.37	217.79
370.75	218.71
371.13	218.45
371.51	218.07
371.89	217.98
372.27	218.26
372.65	218.29
373.03	218.36
373.41	218.52
373.78	218.24
374.16	217.19
374.54	216.33
374.92	216.02
375.30	216.02
375.68	215.60
376.06	215.57
376.44	215.50
376.82	215.76
377.19	215.33
377.57	215.48
377.95	214.98
378.33	214.69
378.71	213.36
379.09	213.62
379.47	213.83
379.84	213.79
380.22	213.29
380.60	213.26
380.98	212.90
381.36	212.50
381.73	212.24
382.11	212.45
382.49	212.40
382.87	212.21
383.25	212.24
383.62	214.52
384.00	213.81
384.38	213.98
384.76	214.36
385.13	215.12
385.51	215.10
385.89	214.74
386.27	214.81
386.64	215.07
387.02	214.79
387.40	214.69
387.78	214.67
388.15	215.02
388.53	214.86
388.91	215.05
389.29	215.17
389.66	215.45
390.04	215.29
390.42	215.79
390.79	216.36
391.17	216.50
391.55	214.52
391.92	214.88
392.30	214.98
392.68	214.50
393.05	214.17
393.43	214.21
393.81	214.60
394.18	214.40
394.56	214.64
394.94	215.07
395.31	214.95
395.69	215.67
396.06	215.86
396.44	215.95
396.82	215.90
397.19	216.90
397.57	216.52
397.95	216.93
398.32	216.38
398.70	216.29
399.07	216.79
399.45	216.52
399.82	216.43
400.20	216.19
400.58	216.19
400.95	215.52
401.33	216.02
401.70	217.48
402.08	217.48
402.45	217.36
402.83	217.81
403.20	218.19
403.58	218.02
403.95	218.50
404.33	219.14
404.71	219.45
405.08	220.60
405.46	221.02
405.83	221.64
406.21	222.24
406.58	222.86
406.96	222.98
407.33	223.64
407.70	224.67
408.08	227.10
408.45	228.17
408.83	229.31
409.20	229.36
409.58	229.02
409.95	230.55
410.33	231.79
410.70	232.12
411.08	233.62
411.45	234.57
411.82	235.33
412.20	237.10
412.57	239.50
412.95	239.29
413.32	241.62
413.69	243.17
414.07	245.00
414.44	246.95
414.82	249.43
415.19	252.31
415.56	254.74
415.94	256.19
416.31	259.67
416.68	262.98
417.06	267.05
417.43	270.81
417.81	274.69
418.18	278.90
418.55	283.55
418.93	288.19
419.30	293.10
419.67	298.71
420.04	303.60
420.42	308.93
420.79	317.10
421.16	323.43
421.54	331.00
421.91	338.05
422.28	345.45
422.66	353.05
423.03	361.76
423.40	370.05
423.77	378.64
424.15	386.81
424.52	395.29
424.89	405.36
425.26	414.52
425.64	423.29
426.01	432.93
426.38	443.00
426.75	453.83
427.13	465.07
427.50	476.45
427.87	488.52
428.24	500.74
428.61	510.93
428.99	523.88
429.36	536.50
429.73	550.10
430.10	563.45
430.47	577.40
430.85	590.52
431.22	604.93
431.59	622.45
431.96	637.50
432.33	654.76
432.70	670.21
433.08	689.43
433.45	708.36
433.82	726.60
434.19	747.67
434.56	767.71
434.93	786.64
435.30	805.50
435.68	826.74
436.05	846.60
436.42	867.83
436.79	887.07
437.16	908.10
437.53	929.71
437.90	951.14
438.27	972.31
438.64	994.64
439.01	1015.36
439.38	1032.50
439.75	1050.71
440.13	1071.02
440.50	1090.95
440.87	1106.57
441.24	1122.21
441.61	1139.93
441.98	1152.57
442.35	1167.33
442.72	1183.19
443.09	1198.98
443.46	1208.21
443.83	1215.21
444.20	1220.57
444.57	1228.60
444.94	1232.36
445.31	1236.95
445.68	1244.26
446.05	1246.40
446.42	1244.67
446.79	1243.31
447.16	1241.24
447.53	1240.45
447.90	1232.88
448.27	1225.88
448.64	1216.02
449.01	1209.07
449.37	1195.50
449.74	1182.71
450.11	1168.76
450.48	1151.43
450.85	1132.55
451.22	1117.26
451.59	1103.36
451.96	1089.62
452.33	1070.50
452.70	1054.33
453.07	1033.64
453.43	1010.24
453.80	990.83
454.17	971.98
454.54	953.81
454.91	934.38
455.28	915.19
455.65	897.74
456.02	882.83
456.38	867.57
456.75	848.64
457.12	833.05
457.49	817.67
457.86	801.48
458.23	789.36
458.59	776.02
458.96	762.26
459.33	749.24
459.70	736.43
460.07	726.38
460.43	714.60
460.80	704.31
461.17	695.81
461.54	685.69
461.91	675.79
462.27	666.12
462.64	657.50
463.01	648.52
463.38	640.43
463.74	628.55
464.11	620.93
464.48	614.24
464.85	607.07
465.21	602.14
465.58	596.14
465.95	588.10
466.32	582.43
466.68	576.12
467.05	570.19
467.42	564.45
467.78	558.12
468.15	552.24
468.52	547.76
468.88	540.64
469.25	535.17
469.62	531.57
469.98	527.12
470.35	523.00
470.72	518.69
471.08	513.55
471.45	510.14
471.82	506.45
472.18	502.00
472.55	499.07
472.92	494.60
473.28	491.02
473.65	487.81
474.02	484.24
474.38	481.57
474.75	479.74
475.11	476.95
475.48	475.36
475.85	473.19
476.21	470.74
476.58	469.60
476.94	468.48
477.31	466.43
477.67	465.05
478.04	463.76
478.41	462.88
478.77	464.29
479.14	463.12
479.50	462.45
479.87	462.64
480.23	462.29
480.60	462.17
480.96	462.10
481.33	462.98
481.69	463.33
482.06	463.64
482.42	463.81
482.79	464.50
483.15	465.19
483.52	466.98
483.88	468.62
484.25	469.43
484.61	470.60
484.98	471.88
485.34	473.83
485.71	475.71
486.07	477.52
486.44	477.60
486.80	480.05
487.17	482.19
487.53	484.93
487.90	488.05
488.26	491.95
488.62	495.67
488.99	498.43
489.35	502.07
489.72	506.12
490.08	509.74
490.44	513.45
490.81	518.00
491.17	521.52
491.54	525.71
491.90	530.55
492.26	535.29
492.63	540.43
492.99	545.14
493.36	550.40
493.72	556.57
494.08	562.52
494.45	568.76
494.81	575.64
495.17	581.90
495.54	588.88
495.90	594.74
496.26	601.12
496.63	608.26
496.99	615.05
497.35	622.40
497.72	630.07
498.08	637.83
498.44	645.67
498.80	654.48
499.17	662.62
499.53	670.62
499.89	679.71
500.26	688.71
500.62	698.10
500.98	707.21
501.34	716.29
501.71	725.98
502.07	735.00
502.43	744.02
502.79	753.12
503.16	761.88
503.52	771.33
503.88	780.69
504.24	790.69
504.60	801.19
504.97	811.26
505.33	821.19
505.69	832.52
506.05	842.07
506.41	851.95
506.78	862.38
507.14	872.86
507.50	882.48
507.86	892.62
508.22	902.17
508.59	911.31
508.95	921.57
509.31	932.00
509.67	941.98
510.03	951.62
510.39	962.64
510.75	972.43
511.12	982.36
511.48	992.90
511.84	1002.50
512.20	1012.10
512.56	1022.07
512.92	1032.19
513.28	1041.69
513.64	1051.76
514.00	1061.24
514.37	1070.50
514.73	1080.45
515.09	1090.36
515.45	1099.24
515.81	1108.67
516.17	1117.95
516.53	1126.07
516.89	1133.90
517.25	1143.38
517.61	1152.57
517.97	1160.48
518.33	1170.00
518.69	1179.02
519.05	1186.76
519.41	1194.31
519.77	1202.74
520.13	1209.93
520.49	1216.69
520.85	1222.81
521.21	1230.12
521.57	1237.12
521.93	1243.40
522.29	1250.43
522.65	1255.86
523.01	1262.83
523.37	1269.33
523.73	1276.31
524.09	1281.98
524.45	1287.31
524.81	1292.43
525.17	1298.07
525.53	1303.40
525.89	1307.67
526.25	1312.43
526.61	1317.50
526.97	1322.71
527.33	1326.83
527.68	1333.31
528.04	1338.24
528.40	1343.26
528.76	1347.69
529.12	1352.05
529.48	1357.33
529.84	1360.21
530.20	1364.55
530.56	1368.43
530.91	1371.74
531.27	1375.76
531.63	1380.45
531.99	1384.29
532.35	1387.55
532.71	1391.10
533.07	1394.31
533.42	1400.40
533.78	1403.90
534.14	1407.00
534.50	1409.62
534.86	1413.24
535.21	1413.83
535.57	1417.07
535.93	1419.02
536.29	1422.50
536.65	1424.71
537.00	1426.40
537.36	1428.98
537.72	1431.52
538.08	1433.21
538.44	1435.67
538.79	1437.74
539.15	1439.31
539.51	1442.86
539.87	1444.38
540.22	1445.52
540.58	1447.21
540.94	1446.33
541.29	1447.55
541.65	1448.26
542.01	1449.83
542.37	1449.88
542.72	1450.12
543.08	1449.74
543.44	1451.29
543.79	1449.50
544.15	1450.21
544.51	1451.07
544.87	1451.76
545.22	1452.29
545.58	1453.31
545.94	1452.38
546.29	1451.57
546.65	1451.00
547.01	1449.05
547.36	1448.60
547.72	1447.74
548.07	1447.00
548.43	1446.19
548.79	1445.07
549.14	1443.86
549.50	1443.26
549.86	1441.43
550.21	1441.07
550.57	1440.60
550.92	1438.31
551.28	1438.33
551.64	1436.88
551.99	1435.57
552.35	1433.55
552.70	1430.76
553.06	1429.21
553.41	1428.62
553.77	1427.86
554.13	1426.40
554.48	1424.98
554.84	1424.43
555.19	1423.36
555.55	1423.05
555.90	1421.52
556.26	1419.67
556.61	1417.95
556.97	1415.55
557.32	1415.10
557.68	1412.98
558.03	1411.10
558.39	1409.74
558.74	1407.88
559.10	1406.43
559.45	1404.98
559.81	1403.98
560.16	1402.62
560.52	1400.71
560.87	1398.93
561.23	1396.88
561.58	1396.55
561.94	1395.21
562.29	1392.76
562.64	1391.45
563.00	1387.98
563.35	1385.79
563.71	1384.14
564.06	1383.31
564.42	1381.93
564.77	1381.07
565.12	1380.36
565.48	1381.02
565.83	1380.95
566.19	1379.48
566.54	1378.19
566.89	1375.64
567.25	1374.69
567.60	1374.69
567.96	1374.50
568.31	1373.88
568.66	1372.95
569.02	1369.40
569.37	1366.79
569.72	1364.67
570.08	1361.95
570.43	1360.21
570.78	1359.31
571.14	1357.50
571.49	1355.50
571.84	1353.67
572.20	1351.12
572.55	1349.12
572.90	1344.29
573.26	1340.98
573.61	1338.17
573.96	1335.40
574.31	1333.10
574.67	1329.14
575.02	1325.45
575.37	1320.74
575.72	1316.14
576.08	1313.00
576.43	1310.40
576.78	1307.50
577.13	1304.33
577.49	1300.64
577.84	1298.48
578.19	1294.81
578.54	1291.50
578.90	1287.71
579.25	1284.10
579.60	1279.19
579.95	1274.86
580.30	1271.14
580.66	1267.81
581.01	1264.48
581.36	1260.17
581.71	1256.24
582.06	1253.86
582.42	1250.02
582.77	1245.93
583.12	1242.31
583.47	1237.36
583.82	1233.36
584.17	1229.29
584.53	1226.40
584.88	1223.00
585.23	1219.21
585.58	1214.05
585.93	1209.60
586.28	1205.60
586.63	1201.71
586.98	1198.52
587.34	1195.29
587.69	1190.93
588.04	1186.29
588.39	1181.60
588.74	1176.88
589.09	1173.00
589.44	1166.76
589.79	1162.76
590.14	1159.38
590.49	1154.50
590.84	1149.83
591.19	1145.31
591.54	1141.45
591.89	1135.83
592.25	1133.93
592.60	1127.71
592.95	1124.14
593.30	1120.00
593.65	1115.36
594.00	1109.93
594.35	1111.12
594.70	1105.90
595.05	1102.52
595.40	1097.98
595.75	1093.26
596.10	1089.67
596.45	1084.86
596.80	1081.14
597.15	1076.07
597.50	1070.67
597.85	1067.38
598.19	1063.50
598.54	1058.90
598.89	1053.95
599.24	1050.24
599.59	1043.50
599.94	1039.81
600.29	1035.33
600.64	1031.07
600.99	1027.29
601.34	1023.55
601.69	1013.48
602.04	1009.07
602.39	1004.67
602.74	1000.38
603.08	996.19
603.43	992.07
603.78	988.29
604.13	983.50
604.48	978.95
604.83	975.05
605.18	969.93
605.53	965.55
605.87	961.52
606.22	957.62
606.57	953.07
606.92	948.29
607.27	943.90
607.62	939.40
607.96	934.67
608.31	929.90
608.66	925.83
609.01	921.10
609.36	917.10
609.70	912.50
610.05	908.52
610.40	904.60
610.75	900.02
611.10	895.36
611.44	890.88
611.79	887.07
612.14	882.88
612.49	878.02
612.83	873.21
613.18	868.48
613.53	863.67
613.88	858.55
614.22	854.00
614.57	849.52
614.92	844.12
615.27	839.83
615.61	835.29
615.96	830.52
616.31	826.29
616.65	822.14
617.00	817.79
617.35	812.67
617.70	807.88
618.04	803.79
618.39	799.40
618.74	795.76
619.08	791.12
619.43	786.55
619.78	783.00
620.12	779.19
620.47	775.05
620.82	770.52
621.16	766.64
621.51	764.43
621.85	760.33
622.20	757.67
622.55	753.36
622.89	749.43
623.24	746.36
623.59	742.62
623.93	738.93
624.28	735.52
624.62	734.24
624.97	732.00
625.32	728.33
625.66	724.48
626.01	720.33
626.35	717.05
626.70	713.24
627.04	710.31
627.39	706.90
627.73	704.81
628.08	701.98
628.43	698.21
628.77	693.12
629.12	689.86
629.46	686.50
629.81	683.79
630.15	680.36
630.50	676.31
630.84	672.86
631.19	668.74
631.53	664.76
631.88	658.86
632.22	654.02
632.57	650.40
632.91	647.17
633.26	643.98
633.60	640.00
633.95	636.48
634.29	632.74
634.64	629.38
634.98	625.10
635.32	622.52
635.67	620.00
636.01	617.33
636.36	613.98
636.70	611.14
637.05	607.62
637.39	604.29
637.73	601.31
638.08	599.10
638.42	596.10
638.77	593.52
639.11	590.52
639.45	587.79
639.80	584.31
640.14	581.76
640.49	579.36
640.83	576.74
641.17	574.21
641.52	570.93
641.86	568.19
642.20	566.17
642.55	562.19
642.89	559.02
643.23	555.86
643.58	553.40
643.92	549.43
644.26	546.36
644.61	543.79
644.95	540.93
645.29	537.10
645.64	534.88
645.98	531.50
646.32	529.26
646.66	526.14
647.01	523.07
647.35	519.98
647.69	517.02
648.04	514.50
648.38	511.93
648.72	509.05
649.06	505.71
649.41	502.07
649.75	499.52
650.09	497.43
650.43	494.48
650.78	491.21
651.12	488.74
651.46	486.36
651.80	483.60
652.14	480.60
652.49	478.57
652.83	475.90
653.17	473.14
653.51	470.21
653.85	467.67
654.20	465.60
654.54	462.86
654.88	459.88
655.22	458.05
655.56	455.26
655.90	453.31
656.25	451.21
656.59	449.07
656.93	446.93
657.27	444.81
657.61	442.48
657.95	441.05
658.29	438.90
658.64	437.00
658.98	435.02
659.32	432.76
659.66	430.40
660.00	428.36
660.34	426.81
660.68	425.17
661.02	423.74
661.36	421.67
661.70	419.76
662.05	418.07
662.39	415.98
662.73	414.88
663.07	414.24
663.41	412.76
663.75	410.48
664.09	408.62
664.43	406.14
664.77	404.69
665.11	402.40
665.45	400.95
665.79	399.55
666.13	397.76
666.47	396.17
666.81	394.62
667.15	392.48
667.49	390.74
667.83	389.57
668.17	388.05
668.51	386.50
668.85	385.26
669.19	384.55
669.53	382.67
669.87	380.52
670.21	377.95
670.55	376.21
670.89	376.31
671.23	375.14
671.57	373.98
671.91	372.71
672.25	371.52
672.58	370.86
672.92	368.52
673.26	367.48
673.60	366.31
673.94	364.83
674.28	363.48
674.62	362.69
674.96	360.62
675.30	358.98
675.64	357.71
675.97	356.43
676.31	354.67
676.65	353.38
676.99	352.88
677.33	351.31
677.67	350.07
678.01	347.67
678.34	346.48
678.68	345.38
679.02	343.71
679.36	342.38
679.70	340.50
680.04	339.74
680.37	338.60
680.71	337.29
681.05	336.43
681.39	335.40
681.73	333.57
682.06	332.64
682.40	331.76
682.74	331.02
683.08	330.48
683.42	328.93
683.75	328.02
684.09	326.60
684.43	325.67
684.77	324.52
685.10	323.40
685.44	322.26
685.78	320.98
686.12	320.24
686.45	319.12
686.79	317.52
687.13	316.69
687.46	315.17
687.80	314.50
688.14	313.40
688.48	312.26
688.81	311.69
689.15	310.88
689.49	309.40
689.82	308.24
690.16	306.62
690.50	305.76
690.83	304.55
691.17	302.93
691.51	302.12
691.84	301.38
692.18	300.31
692.52	299.26
692.85	298.64
693.19	298.48
693.52	297.79
693.86	297.21
694.20	296.26
694.53	295.62
694.87	294.71
695.21	293.55
695.54	292.76
695.88	291.50
696.21	290.24
696.55	289.74
696.88	288.90
697.22	288.00
697.56	287.79
697.89	286.83
698.23	286.81
698.56	285.83
698.90	285.33
699.23	284.48
699.57	284.12
699.90	282.90
700.24	281.38
700.58	280.76
700.91	280.52
701.25	281.40
701.58	281.40
701.92	280.88
702.25	280.07
702.59	279.48
702.92	279.10
703.26	278.57
703.59	277.76
703.93	278.71
704.26	278.29
704.60	277.69
704.93	277.19
705.26	276.12
705.60	275.90
705.93	274.88
706.27	274.93
706.60	274.45
706.94	275.17
707.27	274.50
707.61	273.81
707.94	272.90
708.27	270.52
708.61	269.36
708.94	268.64
709.28	268.38
709.61	267.48
709.94	266.93
710.28	266.50
710.61	266.12
710.95	263.62
711.28	264.45
711.61	263.57
711.95	263.43
712.28	262.76
712.61	262.07
712.95	262.81
713.28	263.05
713.61	262.17
713.95	260.74
714.28	260.60
714.61	260.26
714.95	259.64
715.28	258.95
715.61	258.36
715.95	258.17
716.28	257.31
716.61	257.50
716.95	256.76
717.28	256.40
717.61	255.88
717.94	255.95
718.28	253.98
718.61	253.43
718.94	252.93
719.27	252.62
719.61	252.12
719.94	250.83
720.27	249.43
720.60	248.98
720.94	248.50
721.27	247.83
721.60	247.50
721.93	247.24
722.27	247.81
722.60	247.79
722.93	247.07
723.26	247.05
723.59	246.19
723.93	246.17
724.26	245.98
724.59	245.62
724.92	245.02
725.25	245.38
725.59	245.33
725.92	245.19
726.25	244.76
726.58	244.90
726.91	244.64
727.24	244.50
727.57	244.19
727.91	243.79
728.24	243.90
728.57	243.21
728.90	243.07
729.23	242.07
729.56	242.60
729.89	242.38
730.22	241.93
730.55	241.79
730.89	241.64
731.22	241.10
731.55	240.57
731.88	240.38
732.21	239.55
732.54	238.90
732.87	238.33
733.20	238.36
733.53	237.79
733.86	237.79
734.19	237.40
734.52	237.45
734.85	238.79
735.18	238.24
735.51	238.79
735.84	238.60
736.17	238.98
736.50	237.64
736.83	239.81
737.16	239.69
737.49	239.71
737.82	239.17
738.15	239.24
738.48	239.24
738.81	238.95
739.14	238.60
739.47	238.36
739.80	238.12
740.13	238.14
740.46	237.76
740.79	237.07
741.12	236.90
741.45	236.33
741.78	234.83
742.11	235.38
742.44	234.62
742.77	234.71
743.10	234.12
743.43	233.83
743.75	231.48
744.08	234.17
744.41	233.76
744.74	233.38
745.07	232.71
745.40	232.55
745.73	233.26
746.06	233.45
746.39	233.40
746.71	233.05
747.04	232.64
747.37	232.55
747.70	232.83
748.03	232.83
748.36	232.86
748.68	232.48
749.01	231.33
749.34	231.10
749.67	230.88
750.00	231.38
750.33	232.79
750.65	232.81
750.98	230.00
751.31	229.79
751.64	229.79
751.97	231.00
752.29	231.00
752.62	229.90
752.95	229.57
753.28	229.40
753.60	229.45
753.93	229.67
754.26	229.50
754.59	228.90
754.91	228.43
755.24	228.17
755.57	228.29
755.90	228.24
756.22	228.24
756.55	227.88
756.88	226.83
757.20	225.48
757.53	224.74
757.86	224.57
758.19	224.64
758.51	224.69
758.84	223.33
759.17	223.10
759.49	223.33
759.82	224.24
760.15	224.55
760.47	224.45
760.80	224.02
761.13	224.38
761.45	224.24
761.78	224.19
762.11	224.29
762.43	224.07
762.76	224.17
763.08	224.33
763.41	224.31
763.74	224.57
764.06	224.45
764.39	224.60
764.71	224.29
765.04	224.02
765.37	223.71
765.69	223.81
766.02	223.79
766.34	223.48
766.67	222.52
767.00	222.38
767.32	223.36
767.65	224.33
767.97	223.95
768.30	224.02
768.62	223.90
768.95	223.76
769.27	223.67
769.60	223.67
769.92	223.36
770.25	222.81
770.57	222.45
770.90	222.26
771.22	221.90
771.55	222.00
771.87	222.24
772.20	222.31
772.52	223.86
772.85	226.26
773.17	226.12
773.50	225.79
773.82	225.48
774.15	224.31
774.47	222.90
774.80	222.76
775.12	222.45
775.45	222.52
775.77	222.38
776.09	222.38
776.42	222.38
776.74	222.81
777.07	222.76
777.39	222.83
777.72	222.57
778.04	223.07
778.36	222.76
778.69	222.48
779.01	222.43
779.33	220.52
779.66	218.05
779.98	218.05
780.31	218.14
780.63	219.05
780.95	219.36
781.28	219.31
781.60	219.21
781.92	219.19
782.25	219.14
782.57	219.19
782.89	218.88
783.22	218.81
783.54	218.26
783.86	218.57
784.19	218.29
784.51	219.00
784.83	218.55
785.16	218.50
785.48	218.64
785.80	218.64
786.12	219.02
786.45	218.90
786.77	218.98
787.09	218.90
787.42	218.14
787.74	218.10
788.06	218.31
