SpectraSuite Data File
++++++++++++++++++++++++++++++++++++
Date: Tue Apr 02 18:42:38 EDT 2013
User: group
Dark Spectrum Present: No
Reference Spectrum Present: No
Number of Sampled Component Spectra: 1
Spectrometers: USB2E7196
Integration Time (usec): 580000 (USB2E7196)
Spectra Averaged: 2 (USB2E7196)
Boxcar Smoothing: 10 (USB2E7196)
Correct for Electrical Dark: No (USB2E7196)
Strobe/Lamp Enabled: No (USB2E7196)
Correct for Detector Non-linearity: No (USB2E7196)
Correct for Stray Light: No (USB2E7196)
Number of Pixels in Processed Spectrum: 2048
>>>>>Begin Processed Spectral Data<<<<<
339.09	0.00
339.48	192.50
339.86	195.50
340.24	196.00
340.63	197.00
341.01	232.50
341.39	203.50
341.78	205.50
342.16	212.50
342.54	203.50
342.93	197.33
343.31	207.12
343.69	207.93
344.07	208.43
344.46	209.24
344.84	209.95
345.22	208.67
345.60	209.05
345.99	209.36
346.37	209.26
346.75	209.48
347.13	209.74
347.52	209.88
347.90	210.79
348.28	210.90
348.66	211.38
349.05	210.74
349.43	210.95
349.81	211.17
350.19	211.14
350.57	211.43
350.96	211.43
351.34	211.57
351.72	211.60
352.10	211.45
352.48	211.38
352.87	211.17
353.25	211.48
353.63	211.07
354.01	210.88
354.39	211.05
354.77	211.05
355.15	211.62
355.54	211.52
355.92	210.76
356.30	210.64
356.68	211.88
357.06	212.05
357.44	211.79
357.82	211.81
358.20	212.93
358.58	212.76
358.97	212.90
359.35	213.43
359.73	213.86
360.11	214.14
360.49	214.05
360.87	214.10
361.25	214.21
361.63	215.24
362.01	215.52
362.39	215.38
362.77	215.62
363.15	215.50
363.53	215.57
363.91	215.95
364.29	216.17
364.67	214.21
365.05	214.12
365.43	214.48
365.81	214.48
366.19	214.43
366.57	215.45
366.95	215.45
367.33	214.88
367.71	214.74
368.09	215.17
368.47	215.21
368.85	215.12
369.23	215.74
369.61	214.90
369.99	215.38
370.37	215.67
370.75	216.67
371.13	216.14
371.51	215.71
371.89	215.93
372.27	216.12
372.65	216.31
373.03	216.24
373.41	216.10
373.78	216.05
374.16	215.07
374.54	214.21
374.92	214.17
375.30	214.26
375.68	213.74
376.06	214.00
376.44	214.10
376.82	214.45
377.19	214.00
377.57	214.00
377.95	213.48
378.33	213.19
378.71	211.93
379.09	212.38
379.47	212.79
379.84	212.21
380.22	211.86
380.60	211.40
380.98	211.50
381.36	211.38
381.73	211.12
382.11	211.50
382.49	211.60
382.87	211.24
383.25	211.17
383.62	213.67
384.00	213.02
384.38	213.02
384.76	213.31
385.13	214.05
385.51	214.29
385.89	214.00
386.27	214.12
386.64	214.64
387.02	214.31
387.40	214.05
387.78	214.38
388.15	214.45
388.53	214.60
388.91	214.60
389.29	214.45
389.66	214.88
390.04	214.64
390.42	215.12
390.79	215.21
391.17	215.40
391.55	213.17
391.92	213.17
392.30	213.17
392.68	212.79
393.05	212.81
393.43	212.69
393.81	213.00
394.18	212.76
394.56	212.69
394.94	213.36
395.31	213.40
395.69	214.07
396.06	214.45
396.44	214.50
396.82	214.40
397.19	215.64
397.57	215.48
397.95	215.71
398.32	215.17
398.70	215.43
399.07	215.95
399.45	215.88
399.82	216.00
400.20	216.02
400.58	215.83
400.95	214.88
401.33	215.40
401.70	216.74
402.08	216.90
402.45	216.88
402.83	217.17
403.20	217.43
403.58	217.21
403.95	217.62
404.33	218.26
404.71	218.60
405.08	219.69
405.46	219.83
405.83	220.33
406.21	220.71
406.58	221.29
406.96	221.48
407.33	222.05
407.70	222.62
408.08	224.62
408.45	225.67
408.83	226.90
409.20	227.02
409.58	226.64
409.95	228.02
410.33	229.26
410.70	229.57
411.08	230.90
411.45	231.95
411.82	232.69
412.20	234.21
412.57	236.71
412.95	236.40
413.32	238.17
413.69	239.57
414.07	241.10
414.44	242.90
414.82	244.90
415.19	247.33
415.56	249.71
415.94	251.07
416.31	253.90
416.68	256.45
417.06	260.07
417.43	263.88
417.81	267.52
418.18	270.93
418.55	274.79
418.93	278.62
419.30	282.90
419.67	287.55
420.04	291.90
420.42	296.17
420.79	303.26
421.16	308.86
421.54	315.76
421.91	321.86
422.28	328.19
422.66	334.88
423.03	343.10
423.40	349.88
423.77	357.40
424.15	364.81
424.52	372.52
424.89	380.95
425.26	388.45
425.64	395.24
426.01	403.33
426.38	412.05
426.75	421.62
427.13	430.81
427.50	440.50
427.87	450.33
428.24	460.14
428.61	468.55
428.99	480.00
429.36	490.67
429.73	502.52
430.10	513.93
430.47	525.45
430.85	535.90
431.22	548.60
431.59	563.19
431.96	575.74
432.33	589.57
432.70	603.48
433.08	619.31
433.45	635.17
433.82	650.64
434.19	667.81
434.56	684.74
434.93	700.67
435.30	716.67
435.68	734.45
436.05	751.76
436.42	768.81
436.79	784.98
437.16	802.36
437.53	820.93
437.90	838.81
438.27	856.48
438.64	874.67
439.01	891.98
439.38	906.02
439.75	920.57
440.13	937.83
440.50	953.69
440.87	966.93
441.24	980.29
441.61	995.88
441.98	1006.98
442.35	1018.90
442.72	1032.14
443.09	1045.55
443.46	1053.00
443.83	1058.19
444.20	1063.64
444.57	1069.43
444.94	1072.21
445.31	1074.88
445.68	1080.26
446.05	1082.36
446.42	1081.12
446.79	1080.19
447.16	1078.48
447.53	1078.21
447.90	1072.33
448.27	1065.95
448.64	1056.95
449.01	1051.07
449.37	1039.67
449.74	1028.29
450.11	1017.36
450.48	1001.90
450.85	985.62
451.22	973.24
451.59	961.21
451.96	949.36
452.33	933.60
452.70	919.71
453.07	902.48
453.43	883.00
453.80	866.00
454.17	850.33
454.54	833.90
454.91	816.93
455.28	800.62
455.65	785.26
456.02	773.33
456.38	761.10
456.75	745.19
457.12	731.29
457.49	718.38
457.86	703.90
458.23	694.74
458.59	682.88
458.96	670.83
459.33	660.21
459.70	649.67
460.07	641.26
460.43	631.55
460.80	622.93
461.17	615.60
461.54	607.45
461.91	599.02
462.27	591.14
462.64	584.12
463.01	576.21
463.38	569.86
463.74	559.40
464.11	552.29
464.48	546.29
464.85	539.81
465.21	535.60
465.58	530.48
465.95	523.19
466.32	518.55
466.68	513.38
467.05	508.60
467.42	503.36
467.78	498.21
468.15	493.07
468.52	489.60
468.88	483.67
469.25	478.93
469.62	475.67
469.98	471.71
470.35	468.57
470.72	465.07
471.08	460.02
471.45	457.31
471.82	454.90
472.18	451.60
472.55	449.36
472.92	445.67
473.28	442.52
473.65	439.52
474.02	437.00
474.38	434.93
474.75	432.83
475.11	430.48
475.48	428.71
475.85	427.07
476.21	424.67
476.58	423.57
476.94	422.48
477.31	421.05
477.67	420.24
478.04	419.00
478.41	418.31
478.77	419.76
479.14	418.19
479.50	417.02
479.87	416.74
480.23	416.26
480.60	415.95
480.96	415.67
481.33	416.93
481.69	417.17
482.06	417.55
482.42	418.12
482.79	418.50
483.15	418.62
483.52	419.90
483.88	420.79
484.25	421.29
484.61	421.81
484.98	422.05
485.34	423.79
485.71	425.10
486.07	426.81
486.44	426.43
486.80	428.19
487.17	429.57
487.53	431.67
487.90	433.90
488.26	436.90
488.62	439.69
488.99	441.52
489.35	443.76
489.72	446.17
490.08	448.33
490.44	451.29
490.81	454.90
491.17	457.67
491.54	460.98
491.90	465.05
492.26	469.00
492.63	473.38
492.99	476.24
493.36	480.29
493.72	484.57
494.08	489.17
494.45	494.38
494.81	499.69
495.17	504.33
495.54	509.60
495.90	513.90
496.26	519.00
496.63	524.50
496.99	529.83
497.35	535.36
497.72	541.62
498.08	547.17
498.44	552.98
498.80	559.45
499.17	565.26
499.53	571.36
499.89	578.14
500.26	584.71
500.62	591.76
500.98	599.17
501.34	605.79
501.71	613.31
502.07	619.90
502.43	627.10
502.79	634.00
503.16	640.76
503.52	648.21
503.88	655.43
504.24	662.60
504.60	670.33
504.97	678.26
505.33	685.31
505.69	694.33
506.05	702.12
506.41	709.52
506.78	717.50
507.14	725.10
507.50	732.62
507.86	740.62
508.22	748.33
508.59	755.43
508.95	763.98
509.31	771.93
509.67	779.69
510.03	786.90
510.39	795.24
510.75	803.24
511.12	810.79
511.48	818.24
511.84	826.14
512.20	833.98
512.56	841.29
512.92	849.43
513.28	856.19
513.64	863.40
514.00	870.19
514.37	878.00
514.73	885.90
515.09	893.50
515.45	900.36
515.81	907.74
516.17	914.57
516.53	920.43
516.89	926.60
517.25	933.62
517.61	941.21
517.97	947.52
518.33	953.55
518.69	960.57
519.05	967.71
519.41	973.55
519.77	981.17
520.13	987.43
520.49	992.69
520.85	997.95
521.21	1004.33
521.57	1011.21
521.93	1016.00
522.29	1021.38
522.65	1026.45
523.01	1032.26
523.37	1037.26
523.73	1042.50
524.09	1047.95
524.45	1052.21
524.81	1056.14
525.17	1060.76
525.53	1065.24
525.89	1070.36
526.25	1075.10
526.61	1078.67
526.97	1084.02
527.33	1086.98
527.68	1093.29
528.04	1098.40
528.40	1102.95
528.76	1107.31
529.12	1111.55
529.48	1116.17
529.84	1120.07
530.20	1124.98
530.56	1129.31
530.91	1134.76
531.27	1139.17
531.63	1143.02
531.99	1147.38
532.35	1152.05
532.71	1156.33
533.07	1161.07
533.42	1167.76
533.78	1171.71
534.14	1177.05
534.50	1180.43
534.86	1185.55
535.21	1187.76
535.57	1191.69
535.93	1195.90
536.29	1200.40
536.65	1204.26
537.00	1208.38
537.36	1212.38
537.72	1215.86
538.08	1219.31
538.44	1221.36
538.79	1225.98
539.15	1229.55
539.51	1233.62
539.87	1237.74
540.22	1240.26
540.58	1243.64
540.94	1244.57
541.29	1247.60
541.65	1249.60
542.01	1253.02
542.37	1254.86
542.72	1257.07
543.08	1260.10
543.44	1263.31
543.79	1265.38
544.15	1268.00
544.51	1271.57
544.87	1274.12
545.22	1276.62
545.58	1279.79
545.94	1283.19
546.29	1285.71
546.65	1289.10
547.01	1292.26
547.36	1294.48
547.72	1297.36
548.07	1300.45
548.43	1302.67
548.79	1304.98
549.14	1307.48
549.50	1311.29
549.86	1313.43
550.21	1317.00
550.57	1319.55
550.92	1322.31
551.28	1325.50
551.64	1328.24
551.99	1330.79
552.35	1334.02
552.70	1336.64
553.06	1339.88
553.41	1343.33
553.77	1347.95
554.13	1351.29
554.48	1355.21
554.84	1359.33
555.19	1363.62
555.55	1368.83
555.90	1373.10
556.26	1377.40
556.61	1381.38
556.97	1384.29
557.32	1389.02
557.68	1392.60
558.03	1396.36
558.39	1400.17
558.74	1403.67
559.10	1407.60
559.45	1411.55
559.81	1417.00
560.16	1421.45
560.52	1425.05
560.87	1429.55
561.23	1432.00
561.58	1438.31
561.94	1441.95
562.29	1446.10
562.64	1451.00
563.00	1453.07
563.35	1457.81
563.71	1463.24
564.06	1469.00
564.42	1473.98
564.77	1480.38
565.12	1486.81
565.48	1495.17
565.83	1501.76
566.19	1507.74
566.54	1513.69
566.89	1519.90
567.25	1525.48
567.60	1533.10
567.96	1541.26
568.31	1547.57
568.66	1554.00
569.02	1557.02
569.37	1561.55
569.72	1567.71
570.08	1572.76
570.43	1578.31
570.78	1584.76
571.14	1589.69
571.49	1594.98
571.84	1600.79
572.20	1605.43
572.55	1610.14
572.90	1613.19
573.26	1616.45
573.61	1621.07
573.96	1626.14
574.31	1631.10
574.67	1634.21
575.02	1636.48
575.37	1639.02
575.72	1641.71
576.08	1645.48
576.43	1650.19
576.78	1653.95
577.13	1657.36
577.49	1661.10
577.84	1666.19
578.19	1669.10
578.54	1672.98
578.90	1677.55
579.25	1680.62
579.60	1683.52
579.95	1685.43
580.30	1688.10
580.66	1692.36
581.01	1696.05
581.36	1698.52
581.71	1701.02
582.06	1705.48
582.42	1709.14
582.77	1712.07
583.12	1715.14
583.47	1718.67
583.82	1721.52
584.17	1726.26
584.53	1730.26
584.88	1732.62
585.23	1734.38
585.58	1736.07
585.93	1737.79
586.28	1738.60
586.63	1741.29
586.98	1743.71
587.34	1748.02
587.69	1750.21
588.04	1752.36
588.39	1753.81
588.74	1755.07
589.09	1756.93
589.44	1757.26
589.79	1758.88
590.14	1760.71
590.49	1762.26
590.84	1763.02
591.19	1764.45
591.54	1765.83
591.89	1765.29
592.25	1769.17
592.60	1769.83
592.95	1772.12
593.30	1774.43
593.65	1775.50
594.00	1775.43
594.35	1782.12
594.70	1781.17
595.05	1782.12
595.40	1782.38
595.75	1782.48
596.10	1784.26
596.45	1784.76
596.80	1786.29
597.15	1787.05
597.50	1787.07
597.85	1788.57
598.19	1788.55
598.54	1789.02
598.89	1788.52
599.24	1790.02
599.59	1788.62
599.94	1789.38
600.29	1788.95
600.64	1788.33
600.99	1788.90
601.34	1789.76
601.69	1783.60
602.04	1782.83
602.39	1782.38
602.74	1782.52
603.08	1782.95
603.43	1783.21
603.78	1782.45
604.13	1781.38
604.48	1780.12
604.83	1779.31
605.18	1778.12
605.53	1777.43
605.87	1776.17
606.22	1775.19
606.57	1772.60
606.92	1770.10
607.27	1768.76
607.62	1767.88
607.96	1766.52
608.31	1765.69
608.66	1764.55
609.01	1763.24
609.36	1763.60
609.70	1762.00
610.05	1759.40
610.40	1757.33
610.75	1754.17
611.10	1752.50
611.44	1749.43
611.79	1747.71
612.14	1744.93
612.49	1740.48
612.83	1737.24
613.18	1733.62
613.53	1730.05
613.88	1726.31
614.22	1724.14
614.57	1720.02
614.92	1716.07
615.27	1712.67
615.61	1708.24
615.96	1703.29
616.31	1699.24
616.65	1695.74
617.00	1691.98
617.35	1689.02
617.70	1685.52
618.04	1681.76
618.39	1677.69
618.74	1674.60
619.08	1670.24
619.43	1667.31
619.78	1664.98
620.12	1662.64
620.47	1659.38
620.82	1654.83
621.16	1651.50
621.51	1648.14
621.85	1644.43
622.20	1640.07
622.55	1635.31
622.89	1630.45
623.24	1626.93
623.59	1623.33
623.93	1618.29
624.28	1614.21
624.62	1610.98
624.97	1607.05
625.32	1602.60
625.66	1598.10
626.01	1593.57
626.35	1589.55
626.70	1584.24
627.04	1580.93
627.39	1575.38
627.73	1571.76
628.08	1569.45
628.43	1565.55
628.77	1561.00
629.12	1557.36
629.46	1553.57
629.81	1549.24
630.15	1544.69
630.50	1540.12
630.84	1534.45
631.19	1529.52
631.53	1524.57
631.88	1517.21
632.22	1510.79
632.57	1506.64
632.91	1501.17
633.26	1496.93
633.60	1491.00
633.95	1486.05
634.29	1480.19
634.64	1475.95
634.98	1469.81
635.32	1464.19
635.67	1460.31
636.01	1454.74
636.36	1449.19
636.70	1444.93
637.05	1440.69
637.39	1436.50
637.73	1432.19
638.08	1428.00
638.42	1422.83
638.77	1418.36
639.11	1414.17
639.45	1409.21
639.80	1402.98
640.14	1398.14
640.49	1391.52
640.83	1386.40
641.17	1380.69
641.52	1375.07
641.86	1369.26
642.20	1365.26
642.55	1359.00
642.89	1352.36
643.23	1346.86
643.58	1341.93
643.92	1335.07
644.26	1328.26
644.61	1322.45
644.95	1316.02
645.29	1309.38
645.64	1304.60
645.98	1297.67
646.32	1292.21
646.66	1286.12
647.01	1279.93
647.35	1274.48
647.69	1268.88
648.04	1263.48
648.38	1257.19
648.72	1251.17
649.06	1243.90
649.41	1237.02
649.75	1230.33
650.09	1223.67
650.43	1217.07
650.78	1209.98
651.12	1203.31
651.46	1196.64
651.80	1189.55
652.14	1182.36
652.49	1176.62
652.83	1169.95
653.17	1163.40
653.51	1156.60
653.85	1150.71
654.20	1144.57
654.54	1137.24
654.88	1129.93
655.22	1123.88
655.56	1117.64
655.90	1110.67
656.25	1104.79
656.59	1098.19
656.93	1092.07
657.27	1086.29
657.61	1079.43
657.95	1073.14
658.29	1067.05
658.64	1061.62
658.98	1054.76
659.32	1048.40
659.66	1041.55
660.00	1034.26
660.34	1027.95
660.68	1021.14
661.02	1014.33
661.36	1007.05
661.70	1000.74
662.05	995.38
662.39	988.76
662.73	983.29
663.07	978.43
663.41	972.02
663.75	964.67
664.09	959.14
664.43	952.67
664.77	947.07
665.11	940.60
665.45	934.45
665.79	928.10
666.13	922.36
666.47	916.45
666.81	910.50
667.15	904.45
667.49	899.40
667.83	894.12
668.17	888.50
668.51	883.33
668.85	877.76
669.19	872.79
669.53	866.76
669.87	860.36
670.21	853.05
670.55	847.14
670.89	843.38
671.23	837.48
671.57	832.33
671.91	826.60
672.25	821.26
672.58	816.98
672.92	811.36
673.26	806.21
673.60	800.93
673.94	795.31
674.28	790.38
674.62	784.86
674.96	779.40
675.30	773.95
675.64	769.36
675.97	764.29
676.31	758.57
676.65	753.33
676.99	749.52
677.33	745.00
677.67	741.07
678.01	735.74
678.34	731.67
678.68	727.45
679.02	722.48
679.36	717.83
679.70	711.62
680.04	707.12
680.37	702.45
680.71	697.81
681.05	694.14
681.39	689.55
681.73	685.19
682.06	680.88
682.40	676.98
682.74	672.67
683.08	669.33
683.42	664.45
683.75	660.17
684.09	655.05
684.43	650.57
684.77	645.93
685.10	640.62
685.44	635.83
685.78	630.40
686.12	625.69
686.45	621.00
686.79	616.83
687.13	612.64
687.46	608.98
687.80	605.31
688.14	600.69
688.48	596.83
688.81	592.48
689.15	588.79
689.49	584.38
689.82	580.17
690.16	574.86
690.50	571.17
690.83	567.14
691.17	562.86
691.51	558.95
691.84	554.74
692.18	551.00
692.52	546.60
692.85	543.43
693.19	540.86
693.52	537.48
693.86	533.81
694.20	530.02
694.53	526.17
694.87	522.00
695.21	518.10
695.54	514.26
695.88	510.26
696.21	505.62
696.55	502.29
696.88	498.93
697.22	495.55
697.56	492.40
697.89	488.74
698.23	485.67
698.56	482.21
698.90	479.26
699.23	475.88
699.57	473.00
699.90	469.29
700.24	465.17
700.58	461.76
700.91	458.76
701.25	457.67
701.58	455.19
701.92	452.88
702.25	449.81
702.59	446.79
702.92	444.14
703.26	441.79
703.59	438.69
703.93	437.38
704.26	435.43
704.60	432.69
704.93	430.10
705.26	427.05
705.60	424.90
705.93	422.05
706.27	420.21
706.60	417.81
706.94	416.43
707.27	414.10
707.61	412.12
707.94	409.93
708.27	405.71
708.61	402.64
708.94	400.07
709.28	398.24
709.61	395.81
709.94	393.81
710.28	391.40
710.61	389.19
710.95	385.60
711.28	383.86
711.61	381.81
711.95	380.36
712.28	378.31
712.61	375.95
712.95	375.14
713.28	373.90
713.61	372.02
713.95	369.38
714.28	367.88
714.61	365.79
714.95	363.69
715.28	361.74
715.61	360.02
715.95	358.05
716.28	355.83
716.61	354.38
716.95	352.19
717.28	350.17
717.61	348.60
717.94	346.76
718.28	343.71
718.61	341.81
718.94	339.74
719.27	338.10
719.61	336.88
719.94	334.43
720.27	331.76
720.60	329.76
720.94	328.24
721.27	326.40
721.60	325.52
721.93	323.98
722.27	323.36
722.60	322.36
722.93	320.93
723.26	319.98
723.59	318.36
723.93	317.74
724.26	316.86
724.59	315.55
724.92	314.19
725.25	313.88
725.59	312.74
725.92	311.76
726.25	310.74
726.58	309.26
726.91	308.12
727.24	307.55
727.57	306.45
727.91	305.10
728.24	304.36
728.57	302.88
728.90	302.12
729.23	300.00
729.56	299.48
729.89	298.38
730.22	297.19
730.55	296.26
730.89	294.86
731.22	293.62
731.55	292.86
731.88	292.24
732.21	290.62
732.54	289.24
732.87	288.26
733.20	287.36
733.53	286.69
733.86	285.93
734.19	284.60
734.52	284.10
734.85	284.57
735.18	283.24
735.51	282.88
735.84	282.00
736.17	281.93
736.50	280.05
736.83	281.95
737.16	281.21
737.49	280.60
737.82	279.88
738.15	279.55
738.48	278.62
738.81	277.74
739.14	277.10
739.47	276.29
739.80	275.64
740.13	275.24
740.46	274.36
740.79	273.24
741.12	272.55
741.45	271.76
741.78	270.17
742.11	270.33
742.44	269.19
742.77	268.98
743.10	268.26
743.43	267.64
743.75	264.50
744.08	266.21
744.41	265.17
744.74	264.52
745.07	263.83
745.40	263.60
745.73	263.64
746.06	263.05
746.39	263.07
746.71	262.31
747.04	261.55
747.37	260.76
747.70	260.83
748.03	260.62
748.36	260.45
748.68	259.74
749.01	258.45
749.34	258.05
749.67	257.38
750.00	257.07
750.33	258.26
750.65	257.95
750.98	254.95
751.31	254.81
751.64	254.33
751.97	254.90
752.29	254.17
752.62	252.98
752.95	252.43
753.28	251.52
753.60	250.98
753.93	251.07
754.26	250.67
754.59	249.55
754.91	248.55
755.24	247.60
755.57	247.36
755.90	246.90
756.22	246.17
756.55	245.57
756.88	244.71
757.20	242.86
757.53	241.90
757.86	241.71
758.19	241.62
758.51	241.29
758.84	239.55
759.17	239.19
759.49	238.98
759.82	239.67
760.15	239.76
760.47	239.33
760.80	238.40
761.13	238.74
761.45	238.29
761.78	238.21
762.11	237.93
762.43	237.24
762.76	236.90
763.08	236.95
763.41	236.57
763.74	236.26
764.06	235.90
764.39	235.86
764.71	235.40
765.04	234.60
765.37	233.95
765.69	233.83
766.02	233.60
766.34	233.05
766.67	232.24
767.00	232.21
767.32	233.07
767.65	234.19
767.97	233.67
768.30	233.81
768.62	233.52
768.95	233.24
769.27	233.19
769.60	233.31
769.92	232.81
770.25	232.43
770.57	231.98
770.90	231.95
771.22	231.62
771.55	231.45
771.87	231.55
772.20	231.38
772.52	232.90
772.85	235.48
773.17	235.29
773.50	234.93
773.82	234.60
774.15	233.52
774.47	232.05
774.80	231.48
775.12	231.26
775.45	231.05
775.77	231.10
776.09	230.93
776.42	230.76
776.74	231.14
777.07	230.76
777.39	230.67
777.72	230.21
778.04	230.21
778.36	229.98
778.69	229.57
779.01	229.57
779.33	227.60
779.66	224.74
779.98	224.57
780.31	224.45
780.63	225.05
780.95	225.29
781.28	225.26
781.60	225.14
781.92	224.90
782.25	224.95
782.57	224.76
782.89	224.38
783.22	224.05
783.54	223.38
783.86	223.71
784.19	223.45
784.51	223.93
784.83	223.52
785.16	223.36
