SpectraSuite Data File
++++++++++++++++++++++++++++++++++++
Date: Tue Apr 02 18:38:04 EDT 2013
User: group
Dark Spectrum Present: No
Reference Spectrum Present: No
Number of Sampled Component Spectra: 1
Spectrometers: USB2E7196
Integration Time (usec): 580000 (USB2E7196)
Spectra Averaged: 2 (USB2E7196)
Boxcar Smoothing: 10 (USB2E7196)
Correct for Electrical Dark: No (USB2E7196)
Strobe/Lamp Enabled: No (USB2E7196)
Correct for Detector Non-linearity: No (USB2E7196)
Correct for Stray Light: No (USB2E7196)
Number of Pixels in Processed Spectrum: 2048
>>>>>Begin Processed Spectral Data<<<<<
339.09	0.00
339.48	192.50
339.86	197.00
340.24	196.50
340.63	198.00
341.01	233.00
341.39	200.50
341.78	207.00
342.16	212.00
342.54	205.50
342.93	197.81
343.31	207.57
343.69	208.17
344.07	208.52
344.46	209.33
344.84	209.95
345.22	208.90
345.60	209.33
345.99	209.36
346.37	209.29
346.75	209.31
347.13	209.62
347.52	209.60
347.90	210.36
348.28	210.31
348.66	210.67
349.05	210.07
349.43	210.14
349.81	210.45
350.19	210.48
350.57	210.71
350.96	210.81
351.34	211.14
351.72	211.45
352.10	211.64
352.48	211.33
352.87	211.52
353.25	211.52
353.63	211.40
354.01	211.71
354.39	211.90
354.77	212.00
355.15	212.50
355.54	212.52
355.92	211.79
356.30	211.83
356.68	213.17
357.06	213.10
357.44	213.07
357.82	212.83
358.20	213.76
358.58	213.67
358.97	213.83
359.35	214.19
359.73	214.50
360.11	214.48
360.49	214.74
360.87	214.40
361.25	214.64
361.63	215.40
362.01	215.57
362.39	215.38
362.77	215.69
363.15	215.74
363.53	215.74
363.91	216.17
364.29	216.12
364.67	214.21
365.05	214.43
365.43	214.69
365.81	215.19
366.19	215.64
366.57	216.62
366.95	216.60
367.33	215.98
367.71	216.14
368.09	216.60
368.47	216.64
368.85	216.64
369.23	217.17
369.61	216.55
369.99	217.02
370.37	217.38
370.75	218.31
371.13	217.86
371.51	217.64
371.89	218.05
372.27	218.43
372.65	218.81
373.03	218.88
373.41	218.83
373.78	218.67
374.16	217.40
374.54	216.62
374.92	216.79
375.30	216.95
375.68	216.14
376.06	216.07
376.44	216.02
376.82	216.24
377.19	216.02
377.57	215.86
377.95	214.95
378.33	214.71
378.71	213.43
379.09	213.31
379.47	213.62
379.84	213.12
380.22	212.83
380.60	212.36
380.98	212.17
381.36	212.02
381.73	211.52
382.11	212.07
382.49	212.10
382.87	211.62
383.25	211.69
383.62	214.31
384.00	213.95
384.38	213.95
384.76	214.24
385.13	214.95
385.51	215.12
385.89	215.24
386.27	215.02
386.64	215.43
387.02	215.57
387.40	215.19
387.78	215.36
388.15	215.40
388.53	215.21
388.91	215.24
389.29	215.24
389.66	215.62
390.04	215.21
390.42	215.50
390.79	215.71
391.17	215.62
391.55	213.40
391.92	213.55
392.30	213.67
392.68	213.40
393.05	213.17
393.43	213.24
393.81	213.29
394.18	213.36
394.56	213.60
394.94	214.00
395.31	213.90
395.69	214.57
396.06	214.81
396.44	215.14
396.82	214.95
397.19	215.86
397.57	215.79
397.95	216.26
398.32	216.05
398.70	216.26
399.07	216.95
399.45	216.86
399.82	216.98
400.20	216.83
400.58	216.69
400.95	215.90
401.33	216.57
401.70	217.74
402.08	217.81
402.45	217.67
402.83	218.12
403.20	218.55
403.58	218.38
403.95	218.95
404.33	219.48
404.71	219.88
405.08	221.19
405.46	221.52
405.83	221.81
406.21	221.86
406.58	222.40
406.96	222.45
407.33	223.29
407.70	224.00
408.08	226.21
408.45	227.38
408.83	228.69
409.20	229.12
409.58	229.19
409.95	230.74
410.33	231.79
410.70	232.33
411.08	233.98
411.45	235.12
411.82	235.81
412.20	237.83
412.57	240.48
412.95	240.45
413.32	242.55
413.69	244.31
414.07	246.43
414.44	248.48
414.82	250.81
415.19	253.57
415.56	256.12
415.94	257.86
416.31	261.07
416.68	264.12
417.06	267.83
417.43	271.79
417.81	275.55
418.18	279.64
418.55	283.93
418.93	288.55
419.30	293.60
419.67	298.98
420.04	304.07
420.42	309.45
420.79	317.43
421.16	323.83
421.54	331.62
421.91	338.71
422.28	346.12
422.66	353.98
423.03	362.90
423.40	371.02
423.77	379.86
424.15	388.02
424.52	396.67
424.89	406.83
425.26	416.05
425.64	425.02
426.01	434.62
426.38	445.17
426.75	456.12
427.13	467.12
427.50	477.88
427.87	489.38
428.24	500.43
428.61	510.45
428.99	524.14
429.36	536.50
429.73	550.02
430.10	563.62
430.47	577.74
430.85	590.60
431.22	605.64
431.59	622.76
431.96	638.24
432.33	655.36
432.70	671.07
433.08	690.02
433.45	708.19
433.82	726.38
434.19	746.40
434.56	766.29
434.93	784.86
435.30	804.52
435.68	825.95
436.05	847.81
436.42	868.43
436.79	887.24
437.16	907.86
437.53	929.07
437.90	949.98
438.27	970.38
438.64	992.79
439.01	1013.98
439.38	1031.05
439.75	1048.81
440.13	1068.86
440.50	1088.00
440.87	1103.88
441.24	1119.95
441.61	1138.52
441.98	1152.64
442.35	1167.62
442.72	1183.81
443.09	1200.05
443.46	1209.45
443.83	1216.31
444.20	1222.43
444.57	1229.52
444.94	1233.62
445.31	1238.81
445.68	1245.98
446.05	1248.69
446.42	1247.52
446.79	1245.74
447.16	1243.33
447.53	1242.31
447.90	1234.55
448.27	1227.29
448.64	1217.26
449.01	1210.02
449.37	1196.76
449.74	1183.69
450.11	1169.93
450.48	1152.33
450.85	1133.64
451.22	1118.12
451.59	1103.26
451.96	1089.60
452.33	1071.02
452.70	1054.76
453.07	1034.19
453.43	1011.33
453.80	992.31
454.17	972.83
454.54	953.95
454.91	934.64
455.28	915.55
455.65	898.10
456.02	883.62
456.38	868.40
456.75	850.40
457.12	834.38
457.49	818.29
457.86	801.40
458.23	789.81
458.59	775.64
458.96	761.57
459.33	748.64
459.70	736.17
460.07	726.64
460.43	714.76
460.80	704.17
461.17	695.17
461.54	684.40
461.91	674.67
462.27	664.90
462.64	656.64
463.01	647.57
463.38	640.29
463.74	628.31
464.11	620.48
464.48	613.52
464.85	605.83
465.21	600.64
465.58	594.60
465.95	585.79
466.32	579.90
466.68	574.14
467.05	568.00
467.42	561.93
467.78	555.38
468.15	549.95
468.52	545.74
468.88	538.93
469.25	533.67
469.62	530.05
469.98	526.14
470.35	521.67
470.72	518.00
471.08	512.55
471.45	509.31
471.82	505.71
472.18	501.29
472.55	498.50
472.92	494.33
473.28	491.48
473.65	488.64
474.02	485.57
474.38	482.76
474.75	480.90
475.11	477.98
475.48	476.74
475.85	474.79
476.21	472.14
476.58	471.26
476.94	470.19
477.31	468.55
477.67	466.98
478.04	466.19
478.41	464.90
478.77	466.50
479.14	465.83
479.50	465.50
479.87	465.74
480.23	465.76
480.60	465.40
480.96	464.95
481.33	466.19
481.69	466.52
482.06	466.57
482.42	466.95
482.79	467.67
483.15	467.74
483.52	468.64
483.88	470.00
484.25	470.69
484.61	471.69
484.98	472.40
485.34	474.79
485.71	476.95
486.07	478.95
486.44	478.79
486.80	480.50
487.17	482.31
487.53	485.14
487.90	488.17
488.26	492.05
488.62	496.10
488.99	498.33
489.35	501.95
489.72	505.86
490.08	509.26
490.44	513.19
490.81	517.33
491.17	521.40
491.54	525.83
491.90	530.60
492.26	535.55
492.63	540.62
492.99	544.71
493.36	549.76
493.72	555.55
494.08	561.05
494.45	567.43
494.81	574.43
495.17	579.95
495.54	586.71
495.90	593.00
496.26	599.24
496.63	607.05
496.99	614.48
497.35	621.79
497.72	629.81
498.08	637.71
498.44	645.67
498.80	654.40
499.17	662.31
499.53	670.57
499.89	679.71
500.26	688.81
500.62	697.62
500.98	706.60
501.34	715.60
501.71	725.45
502.07	734.43
502.43	742.93
502.79	751.93
503.16	761.26
503.52	770.40
503.88	779.33
504.24	788.74
504.60	797.76
504.97	808.31
505.33	818.62
505.69	829.48
506.05	838.79
506.41	848.50
506.78	859.05
507.14	869.21
507.50	879.24
507.86	889.36
508.22	899.81
508.59	909.71
508.95	920.21
509.31	931.40
509.67	941.60
510.03	951.93
510.39	962.69
510.75	972.40
511.12	982.40
511.48	992.55
511.84	1002.81
512.20	1013.07
512.56	1023.36
512.92	1032.38
513.28	1042.02
513.64	1052.50
514.00	1062.26
514.37	1071.86
514.73	1081.31
515.09	1090.79
515.45	1100.17
515.81	1108.98
516.17	1118.21
516.53	1126.29
516.89	1133.90
517.25	1142.83
517.61	1151.93
517.97	1160.71
518.33	1168.86
518.69	1177.60
519.05	1186.76
519.41	1194.50
519.77	1203.10
520.13	1209.98
520.49	1217.76
520.85	1224.57
521.21	1232.57
521.57	1239.57
521.93	1246.10
522.29	1253.24
522.65	1259.29
523.01	1266.12
523.37	1272.60
523.73	1279.31
524.09	1285.57
524.45	1291.79
524.81	1296.62
525.17	1301.45
525.53	1307.17
525.89	1312.52
526.25	1317.81
526.61	1321.24
526.97	1325.14
527.33	1330.10
527.68	1336.55
528.04	1340.50
528.40	1344.38
528.76	1348.98
529.12	1353.07
529.48	1357.83
529.84	1361.24
530.20	1364.81
530.56	1368.33
530.91	1373.07
531.27	1376.40
531.63	1380.57
531.99	1383.60
532.35	1387.24
532.71	1390.07
533.07	1393.64
533.42	1398.81
533.78	1402.36
534.14	1406.88
534.50	1410.98
534.86	1413.81
535.21	1414.57
535.57	1418.60
535.93	1421.74
536.29	1424.74
536.65	1427.90
537.00	1429.60
537.36	1432.55
537.72	1435.83
538.08	1438.02
538.44	1439.14
538.79	1440.79
539.15	1442.10
539.51	1444.12
539.87	1446.69
540.22	1449.29
540.58	1450.67
540.94	1450.67
541.29	1451.55
541.65	1451.57
542.01	1452.55
542.37	1452.98
542.72	1453.60
543.08	1452.86
543.44	1453.12
543.79	1451.48
544.15	1451.45
544.51	1452.21
544.87	1451.90
545.22	1452.29
545.58	1451.50
545.94	1451.29
546.29	1450.88
546.65	1450.57
547.01	1449.19
547.36	1447.10
547.72	1445.93
548.07	1444.98
548.43	1443.07
548.79	1440.86
549.14	1439.10
549.50	1437.33
549.86	1435.55
550.21	1434.88
550.57	1433.55
550.92	1431.38
551.28	1430.60
551.64	1429.21
551.99	1427.90
552.35	1426.50
552.70	1424.02
553.06	1423.71
553.41	1422.86
553.77	1422.62
554.13	1421.74
554.48	1421.33
554.84	1421.21
555.19	1419.90
555.55	1419.88
555.90	1418.76
556.26	1418.98
556.61	1418.71
556.97	1416.60
557.32	1415.55
557.68	1413.60
558.03	1412.62
558.39	1412.17
558.74	1410.93
559.10	1409.74
559.45	1408.07
559.81	1406.93
560.16	1405.14
560.52	1403.21
560.87	1400.98
561.23	1398.45
561.58	1397.88
561.94	1395.90
562.29	1394.00
562.64	1392.90
563.00	1389.12
563.35	1387.60
563.71	1385.79
564.06	1383.98
564.42	1383.52
564.77	1382.24
565.12	1381.24
565.48	1380.86
565.83	1379.57
566.19	1378.71
566.54	1376.19
566.89	1374.40
567.25	1372.93
567.60	1373.57
567.96	1374.21
568.31	1374.14
568.66	1372.88
569.02	1369.36
569.37	1367.21
569.72	1366.69
570.08	1364.50
570.43	1362.93
570.78	1361.17
571.14	1359.14
571.49	1357.50
571.84	1355.57
572.20	1353.02
572.55	1350.88
572.90	1347.40
573.26	1344.76
573.61	1341.21
573.96	1339.07
574.31	1336.43
574.67	1333.33
575.02	1328.48
575.37	1323.02
575.72	1318.98
576.08	1315.48
576.43	1313.12
576.78	1309.21
577.13	1304.50
577.49	1301.12
577.84	1298.05
578.19	1294.67
578.54	1291.21
578.90	1286.98
579.25	1283.14
579.60	1279.98
579.95	1275.76
580.30	1272.21
580.66	1268.31
581.01	1264.86
581.36	1260.76
581.71	1256.36
582.06	1253.40
582.42	1250.38
582.77	1246.45
583.12	1242.10
583.47	1237.95
583.82	1233.69
584.17	1230.14
584.53	1227.45
584.88	1223.36
585.23	1219.81
585.58	1215.38
585.93	1210.55
586.28	1206.81
586.63	1202.36
586.98	1198.12
587.34	1194.76
587.69	1190.02
588.04	1185.60
588.39	1181.19
588.74	1176.93
589.09	1174.00
589.44	1168.67
589.79	1163.67
590.14	1159.67
590.49	1155.26
590.84	1150.79
591.19	1146.33
591.54	1142.17
591.89	1136.95
592.25	1134.67
592.60	1128.90
592.95	1124.62
593.30	1120.24
593.65	1115.48
594.00	1110.60
594.35	1111.45
594.70	1106.07
595.05	1102.71
595.40	1098.62
595.75	1094.19
596.10	1089.95
596.45	1085.64
596.80	1081.24
597.15	1077.24
597.50	1072.00
597.85	1068.50
598.19	1064.12
598.54	1059.55
598.89	1054.98
599.24	1050.24
599.59	1043.76
599.94	1039.93
600.29	1036.19
600.64	1032.40
600.99	1028.81
601.34	1025.55
601.69	1015.88
602.04	1011.36
602.39	1006.00
602.74	1001.69
603.08	996.95
603.43	993.60
603.78	989.24
604.13	984.69
604.48	979.86
604.83	976.67
605.18	972.36
605.53	968.33
605.87	964.14
606.22	959.98
606.57	955.86
606.92	951.93
607.27	947.48
607.62	942.62
607.96	938.12
608.31	933.67
608.66	929.05
609.01	924.57
609.36	920.93
609.70	916.76
610.05	912.07
610.40	908.26
610.75	903.07
611.10	898.19
611.44	893.43
611.79	888.45
612.14	883.71
612.49	878.31
612.83	873.45
613.18	868.86
613.53	863.93
613.88	858.95
614.22	853.62
614.57	849.14
614.92	844.33
615.27	839.64
615.61	834.64
615.96	830.10
616.31	825.31
616.65	820.98
617.00	816.69
617.35	812.26
617.70	808.00
618.04	803.19
618.39	798.50
618.74	794.50
619.08	790.62
619.43	786.14
619.78	782.24
620.12	778.71
620.47	774.95
620.82	771.02
621.16	766.93
621.51	764.64
621.85	760.36
622.20	757.07
622.55	753.24
622.89	749.64
623.24	746.26
623.59	742.48
623.93	738.86
624.28	735.29
624.62	734.71
624.97	731.95
625.32	728.74
625.66	725.36
626.01	721.57
626.35	718.33
626.70	714.93
627.04	711.88
627.39	708.21
627.73	706.02
628.08	703.02
628.43	699.57
628.77	694.86
629.12	691.90
629.46	688.19
629.81	684.74
630.15	681.05
630.50	677.00
630.84	673.81
631.19	669.55
631.53	666.31
631.88	659.76
632.22	654.64
632.57	651.36
632.91	647.48
633.26	644.38
633.60	640.38
633.95	636.40
634.29	632.07
634.64	628.90
634.98	623.88
635.32	621.24
635.67	618.21
636.01	615.24
636.36	611.86
636.70	609.02
637.05	605.67
637.39	602.83
637.73	599.38
638.08	596.67
638.42	593.81
638.77	590.90
639.11	587.83
639.45	584.98
639.80	581.50
640.14	578.64
640.49	575.74
640.83	572.55
641.17	570.17
641.52	567.69
641.86	564.67
642.20	562.74
642.55	559.19
642.89	556.62
643.23	553.69
643.58	551.33
643.92	547.45
644.26	544.71
644.61	542.05
644.95	539.36
645.29	535.62
645.64	533.29
645.98	529.83
646.32	528.05
646.66	524.98
647.01	522.00
647.35	519.52
647.69	516.81
648.04	514.88
648.38	511.83
648.72	509.19
649.06	506.24
649.41	502.64
649.75	500.21
650.09	497.52
650.43	494.60
650.78	491.33
651.12	488.69
651.46	485.67
651.80	482.50
652.14	479.95
652.49	478.43
652.83	475.60
653.17	473.31
653.51	469.71
653.85	467.74
654.20	465.38
654.54	462.17
654.88	459.71
655.22	457.76
655.56	455.31
655.90	452.93
656.25	450.69
656.59	448.55
656.93	446.07
657.27	444.10
657.61	441.81
657.95	439.90
658.29	438.12
658.64	436.33
658.98	434.21
659.32	431.81
659.66	428.98
660.00	427.05
660.34	425.40
660.68	423.69
661.02	421.95
661.36	419.95
661.70	418.40
662.05	416.76
662.39	414.69
662.73	413.64
663.07	412.79
663.41	411.10
663.75	408.81
664.09	407.17
664.43	404.62
664.77	403.05
665.11	400.93
665.45	399.40
665.79	398.26
666.13	396.67
666.47	395.52
666.81	394.07
667.15	391.90
667.49	390.07
667.83	389.02
668.17	386.76
668.51	385.40
668.85	384.24
669.19	383.14
669.53	380.88
669.87	378.74
670.21	376.60
670.55	374.88
670.89	374.52
671.23	373.24
671.57	372.31
671.91	370.98
672.25	369.69
672.58	369.10
672.92	367.17
673.26	365.60
673.60	364.24
673.94	363.02
674.28	361.88
674.62	360.79
674.96	358.86
675.30	357.95
675.64	356.79
675.97	355.31
676.31	353.33
676.65	352.19
676.99	351.81
677.33	350.10
677.67	349.17
678.01	347.38
678.34	345.90
678.68	344.88
679.02	343.52
679.36	342.29
679.70	340.26
680.04	339.12
680.37	338.19
680.71	336.83
681.05	335.69
681.39	334.62
681.73	332.69
682.06	331.88
682.40	330.74
682.74	329.76
683.08	329.40
683.42	328.19
683.75	327.50
684.09	325.48
684.43	324.48
684.77	323.05
685.10	321.90
685.44	320.81
685.78	319.57
686.12	318.57
686.45	317.67
686.79	316.50
687.13	315.57
687.46	314.55
687.80	313.95
688.14	312.83
688.48	312.14
688.81	311.81
689.15	311.00
689.49	309.93
689.82	308.79
690.16	306.76
690.50	305.98
690.83	304.64
691.17	303.62
691.51	302.81
691.84	302.24
692.18	301.02
692.52	299.98
692.85	299.36
693.19	299.26
693.52	298.10
693.86	297.24
694.20	296.48
694.53	295.71
694.87	294.60
695.21	293.52
695.54	292.48
695.88	291.29
696.21	289.81
696.55	289.29
696.88	288.81
697.22	288.17
697.56	287.62
697.89	286.95
698.23	286.69
698.56	285.57
698.90	285.05
699.23	284.55
699.57	284.21
699.90	282.98
700.24	281.40
700.58	281.02
700.91	280.76
701.25	281.29
701.58	281.48
701.92	281.21
702.25	280.76
702.59	280.02
702.92	279.57
703.26	279.00
703.59	278.19
703.93	279.07
704.26	278.60
704.60	277.98
704.93	277.17
705.26	276.31
705.60	276.38
705.93	275.29
706.27	275.24
706.60	274.88
706.94	275.38
707.27	274.76
707.61	274.38
707.94	273.76
708.27	272.17
708.61	270.52
708.94	269.74
709.28	269.24
709.61	268.60
709.94	268.10
710.28	267.90
710.61	267.14
710.95	264.43
711.28	265.29
711.61	264.55
711.95	264.57
712.28	263.93
712.61	263.19
712.95	263.83
713.28	264.10
713.61	263.17
713.95	262.17
714.28	261.79
714.61	261.00
714.95	260.48
715.28	259.60
715.61	259.19
715.95	259.10
716.28	258.57
716.61	258.50
716.95	257.52
717.28	256.95
717.61	256.86
717.94	256.74
718.28	254.86
718.61	254.50
718.94	253.86
719.27	253.45
719.61	253.07
719.94	251.98
720.27	250.55
720.60	250.10
720.94	249.29
721.27	248.90
721.60	248.90
721.93	248.12
722.27	248.60
722.60	248.52
722.93	247.67
723.26	247.26
723.59	246.79
723.93	247.10
724.26	246.74
724.59	246.17
724.92	245.90
725.25	246.14
725.59	245.60
725.92	245.48
726.25	245.12
726.58	245.12
726.91	244.64
727.24	244.79
727.57	244.57
727.91	244.26
728.24	244.10
728.57	243.33
728.90	243.60
729.23	242.71
729.56	243.31
729.89	243.17
730.22	242.83
730.55	242.48
730.89	242.00
731.22	241.86
731.55	241.76
731.88	241.93
732.21	241.29
732.54	241.12
732.87	240.71
733.20	240.69
733.53	240.36
733.86	240.26
734.19	239.12
734.52	239.24
734.85	240.36
735.18	239.98
735.51	240.52
735.84	240.24
736.17	240.45
736.50	238.98
736.83	241.26
737.16	240.81
737.49	240.64
737.82	240.24
738.15	240.21
738.48	239.86
738.81	239.19
739.14	238.76
739.47	238.40
739.80	238.14
740.13	238.12
740.46	237.38
740.79	236.55
741.12	236.62
741.45	235.83
741.78	234.31
742.11	234.67
742.44	233.88
742.77	233.98
743.10	233.52
743.43	233.48
743.75	231.07
744.08	233.76
744.41	233.60
744.74	233.38
745.07	232.83
745.40	233.07
745.73	233.93
746.06	234.00
746.39	234.14
746.71	233.88
747.04	233.29
747.37	233.14
747.70	233.69
748.03	233.76
748.36	234.31
748.68	234.24
749.01	233.26
749.34	233.19
749.67	232.98
750.00	232.93
750.33	233.98
750.65	233.95
750.98	231.26
751.31	230.88
751.64	230.79
751.97	231.98
752.29	231.55
752.62	230.57
752.95	230.33
753.28	229.83
753.60	229.79
753.93	230.33
754.26	230.26
754.59	229.52
754.91	229.05
755.24	228.48
755.57	228.43
755.90	228.40
756.22	228.33
756.55	227.79
756.88	227.17
757.20	225.83
757.53	224.86
757.86	224.76
758.19	224.79
758.51	224.74
758.84	223.29
759.17	223.17
759.49	223.14
759.82	224.00
760.15	224.14
760.47	223.90
760.80	223.19
761.13	223.50
761.45	223.40
761.78	223.33
762.11	223.38
762.43	223.14
762.76	223.10
763.08	223.12
763.41	223.26
763.74	223.55
764.06	223.62
764.39	223.93
764.71	223.76
765.04	223.67
765.37	223.60
765.69	223.52
766.02	223.33
766.34	222.83
766.67	221.79
767.00	222.14
767.32	223.29
767.65	224.38
767.97	224.12
768.30	224.29
768.62	224.45
768.95	223.93
769.27	223.88
769.60	224.12
769.92	223.64
770.25	223.26
770.57	222.71
770.90	222.69
771.22	222.43
771.55	222.52
771.87	222.36
772.20	222.31
772.52	223.90
772.85	226.33
773.17	226.26
773.50	226.17
773.82	225.88
774.15	224.67
774.47	223.29
774.80	223.02
775.12	222.79
775.45	222.67
775.77	222.93
776.09	222.76
776.42	222.79
776.74	223.21
777.07	222.88
777.39	222.69
777.72	222.21
778.04	222.36
778.36	221.93
778.69	222.10
779.01	222.00
779.33	220.40
779.66	218.10
779.98	218.10
780.31	218.31
780.63	219.12
780.95	219.19
781.28	219.48
781.60	219.14
781.92	219.33
782.25	219.24
782.57	219.24
782.89	219.07
783.22	218.62
783.54	218.21
783.86	218.62
784.19	218.67
784.51	219.40
784.83	219.00
785.16	219.00
785.48	218.64
785.80	218.29
786.12	218.43
786.45	218.10
786.77	218.10
787.09	217.71
787.42	216.79
787.74	217.19
788.06	216.86
