SpectraSuite Data File
++++++++++++++++++++++++++++++++++++
Date: Tue Apr 02 18:44:23 EDT 2013
User: group
Dark Spectrum Present: No
Reference Spectrum Present: No
Number of Sampled Component Spectra: 1
Spectrometers: USB2E7196
Integration Time (usec): 580000 (USB2E7196)
Spectra Averaged: 2 (USB2E7196)
Boxcar Smoothing: 10 (USB2E7196)
Correct for Electrical Dark: No (USB2E7196)
Strobe/Lamp Enabled: No (USB2E7196)
Correct for Detector Non-linearity: No (USB2E7196)
Correct for Stray Light: No (USB2E7196)
Number of Pixels in Processed Spectrum: 2048
>>>>>Begin Processed Spectral Data<<<<<
339.09	0.00
339.48	198.00
339.86	196.00
340.24	195.00
340.63	196.50
341.01	230.50
341.39	199.50
341.78	213.00
342.16	210.00
342.54	207.00
342.93	198.29
343.31	208.10
343.69	208.62
344.07	209.07
344.46	209.79
344.84	210.52
345.22	209.50
345.60	209.83
345.99	209.74
346.37	209.88
346.75	210.07
347.13	210.38
347.52	210.55
347.90	211.36
348.28	211.43
348.66	211.88
349.05	211.33
349.43	211.55
349.81	211.69
350.19	211.93
350.57	212.00
350.96	211.98
351.34	212.38
351.72	212.29
352.10	212.33
352.48	212.43
352.87	212.19
353.25	212.12
353.63	212.33
354.01	212.40
354.39	212.45
354.77	212.40
355.15	212.83
355.54	212.43
355.92	212.07
356.30	212.14
356.68	213.31
357.06	213.43
357.44	213.05
357.82	213.26
358.20	214.00
358.58	214.07
358.97	214.24
359.35	214.55
359.73	215.14
360.11	215.33
360.49	215.31
360.87	215.60
361.25	215.83
361.63	216.62
362.01	216.62
362.39	216.40
362.77	216.62
363.15	216.38
363.53	216.52
363.91	216.71
364.29	216.74
364.67	214.83
365.05	214.64
365.43	214.95
365.81	215.19
366.19	215.31
366.57	215.95
366.95	215.76
367.33	215.12
367.71	215.12
368.09	215.31
368.47	215.31
368.85	215.07
369.23	215.50
369.61	214.52
369.99	215.12
370.37	215.50
370.75	216.33
371.13	215.98
371.51	215.86
371.89	215.62
372.27	215.74
372.65	216.10
373.03	216.21
373.41	216.17
373.78	216.02
374.16	215.12
374.54	214.48
374.92	214.48
375.30	214.81
375.68	214.31
376.06	214.64
376.44	214.55
376.82	214.90
377.19	214.79
377.57	215.02
377.95	214.38
378.33	214.10
378.71	212.79
379.09	213.17
379.47	213.29
379.84	213.24
380.22	213.02
380.60	212.52
380.98	212.55
381.36	212.64
381.73	212.21
382.11	212.48
382.49	212.50
382.87	212.14
383.25	211.88
383.62	214.48
384.00	213.86
384.38	213.69
384.76	213.86
385.13	214.60
385.51	214.45
385.89	214.40
386.27	214.43
386.64	214.90
387.02	214.69
387.40	214.48
387.78	214.55
388.15	214.60
388.53	214.64
388.91	214.64
389.29	214.43
389.66	214.81
390.04	214.38
390.42	214.69
390.79	215.10
391.17	215.21
391.55	212.64
391.92	212.60
392.30	213.17
392.68	212.62
393.05	212.57
393.43	212.64
393.81	212.52
394.18	212.45
394.56	212.55
394.94	213.02
395.31	212.93
395.69	213.57
396.06	213.74
396.44	214.05
396.82	213.95
397.19	215.31
397.57	215.14
397.95	215.76
398.32	215.24
398.70	215.38
399.07	215.81
399.45	215.79
399.82	215.83
400.20	215.52
400.58	215.57
400.95	214.60
401.33	215.14
401.70	216.71
402.08	216.67
402.45	216.55
402.83	216.93
403.20	217.24
403.58	217.29
403.95	217.90
404.33	218.07
404.71	218.45
405.08	219.33
405.46	219.67
405.83	220.00
406.21	220.36
406.58	220.60
406.96	220.76
407.33	221.57
407.70	222.43
408.08	224.45
408.45	225.52
408.83	226.64
409.20	226.83
409.58	226.40
409.95	227.60
410.33	228.64
410.70	228.83
411.08	229.93
411.45	230.83
411.82	231.52
412.20	233.26
412.57	235.50
412.95	235.19
413.32	236.98
413.69	238.29
414.07	240.14
414.44	241.93
414.82	244.05
415.19	246.26
415.56	248.57
415.94	249.76
416.31	252.57
416.68	255.24
417.06	258.86
417.43	262.50
417.81	266.12
418.18	269.74
418.55	273.76
418.93	278.05
419.30	282.38
419.67	286.81
420.04	290.95
420.42	295.02
420.79	302.00
421.16	307.38
421.54	314.05
421.91	320.00
422.28	326.48
422.66	332.98
423.03	340.88
423.40	347.81
423.77	355.60
424.15	362.50
424.52	370.40
424.89	378.79
425.26	386.36
425.64	393.76
426.01	401.86
426.38	410.29
426.75	419.50
427.13	428.29
427.50	438.07
427.87	448.33
428.24	458.43
428.61	466.83
428.99	477.86
429.36	488.36
429.73	499.81
430.10	511.07
430.47	522.81
430.85	533.50
431.22	545.71
431.59	559.74
431.96	572.45
432.33	586.31
432.70	600.12
433.08	616.48
433.45	631.36
433.82	647.05
434.19	664.33
434.56	681.07
434.93	696.90
435.30	713.10
435.68	730.48
436.05	747.40
436.42	764.64
436.79	781.19
437.16	798.90
437.53	817.07
437.90	834.98
438.27	853.10
438.64	870.81
439.01	887.93
439.38	901.74
439.75	916.86
440.13	933.17
440.50	948.48
440.87	961.26
441.24	974.74
441.61	989.07
441.98	999.90
442.35	1012.02
442.72	1024.71
443.09	1038.07
443.46	1045.60
443.83	1051.19
444.20	1056.07
444.57	1061.76
444.94	1064.29
445.31	1067.24
445.68	1073.45
446.05	1074.64
446.42	1073.64
446.79	1072.60
447.16	1070.50
447.53	1069.10
447.90	1063.17
448.27	1056.57
448.64	1048.33
449.01	1042.21
449.37	1031.24
449.74	1020.50
450.11	1009.14
450.48	994.64
450.85	978.07
451.22	965.50
451.59	953.50
451.96	941.98
452.33	926.48
452.70	913.05
453.07	895.90
453.43	875.76
453.80	858.93
454.17	843.19
454.54	827.57
454.91	811.90
455.28	795.98
455.65	781.24
456.02	770.05
456.38	756.79
456.75	741.52
457.12	728.07
457.49	714.64
457.86	700.38
458.23	690.83
458.59	679.52
458.96	667.69
459.33	657.24
459.70	646.45
460.07	638.02
460.43	627.98
460.80	619.33
461.17	611.95
461.54	603.88
461.91	595.98
462.27	587.83
462.64	580.86
463.01	573.52
463.38	566.98
463.74	556.55
464.11	550.05
464.48	544.07
464.85	537.86
465.21	534.07
465.58	529.31
465.95	522.10
466.32	516.93
466.68	511.48
467.05	506.36
467.42	501.21
467.78	495.50
468.15	490.76
468.52	487.29
468.88	481.55
469.25	476.71
469.62	473.26
469.98	469.43
470.35	465.88
470.72	462.33
471.08	457.50
471.45	454.81
471.82	451.98
472.18	448.74
472.55	446.40
472.92	442.40
473.28	439.48
473.65	436.64
474.02	434.02
474.38	432.38
474.75	430.24
475.11	427.98
475.48	426.38
475.85	424.62
476.21	422.74
476.58	421.40
476.94	420.45
477.31	418.67
477.67	417.21
478.04	416.02
478.41	415.29
478.77	417.07
479.14	415.69
479.50	414.86
479.87	414.67
480.23	414.36
480.60	414.26
480.96	413.74
481.33	414.88
481.69	415.05
482.06	414.93
482.42	415.45
482.79	416.05
483.15	416.79
483.52	418.00
483.88	418.79
484.25	419.50
484.61	420.55
484.98	421.43
485.34	423.19
485.71	424.62
486.07	425.74
486.44	425.33
486.80	426.81
487.17	428.26
487.53	430.43
487.90	432.64
488.26	435.71
488.62	438.90
488.99	441.07
489.35	443.86
489.72	446.38
490.08	449.17
490.44	451.55
490.81	454.48
491.17	456.86
491.54	459.95
491.90	463.93
492.26	466.98
492.63	471.07
492.99	474.76
493.36	479.02
493.72	483.74
494.08	488.02
494.45	492.88
494.81	498.36
495.17	503.07
495.54	508.00
495.90	512.19
496.26	516.64
496.63	521.83
496.99	526.95
497.35	533.05
497.72	538.98
498.08	545.05
498.44	551.57
498.80	558.07
499.17	564.55
499.53	570.21
499.89	577.05
500.26	583.31
500.62	590.21
500.98	597.38
501.34	603.98
501.71	611.38
502.07	618.14
502.43	624.71
502.79	631.40
503.16	638.45
503.52	646.21
503.88	653.36
504.24	660.90
504.60	668.76
504.97	676.69
505.33	683.86
505.69	692.57
506.05	699.31
506.41	706.43
506.78	714.19
507.14	722.17
507.50	730.05
507.86	738.38
508.22	746.31
508.59	753.64
508.95	761.86
509.31	769.86
509.67	777.93
510.03	785.93
510.39	793.48
510.75	801.24
511.12	808.24
511.48	816.00
511.84	823.74
512.20	831.29
512.56	837.93
512.92	845.19
513.28	852.36
513.64	860.36
514.00	868.50
514.37	875.60
514.73	882.81
515.09	890.86
515.45	897.45
515.81	903.95
516.17	910.62
516.53	916.31
516.89	922.60
517.25	928.90
517.61	935.48
517.97	942.55
518.33	948.79
518.69	955.57
519.05	962.00
519.41	967.93
519.77	975.02
520.13	981.64
520.49	987.36
520.85	992.17
521.21	999.05
521.57	1004.67
521.93	1009.64
522.29	1016.00
522.65	1020.21
523.01	1026.48
523.37	1031.50
523.73	1037.05
524.09	1042.45
524.45	1047.05
524.81	1051.52
525.17	1056.21
525.53	1060.64
525.89	1065.00
526.25	1069.93
526.61	1073.98
526.97	1077.79
527.33	1081.57
527.68	1087.05
528.04	1091.71
528.40	1096.29
528.76	1100.05
529.12	1103.67
529.48	1109.02
529.84	1112.81
530.20	1117.69
530.56	1121.64
530.91	1126.02
531.27	1130.10
531.63	1134.79
531.99	1139.05
532.35	1143.38
532.71	1146.33
533.07	1150.52
533.42	1157.02
533.78	1160.86
534.14	1165.81
534.50	1170.43
534.86	1175.17
535.21	1177.60
535.57	1182.43
535.93	1186.57
536.29	1190.29
536.65	1194.81
537.00	1198.14
537.36	1201.43
537.72	1204.52
538.08	1208.00
538.44	1210.62
538.79	1214.40
539.15	1217.05
539.51	1220.24
539.87	1223.81
540.22	1227.83
540.58	1230.88
540.94	1232.12
541.29	1235.12
541.65	1237.14
542.01	1240.12
542.37	1241.74
542.72	1243.95
543.08	1245.55
543.44	1248.83
543.79	1250.21
544.15	1252.81
544.51	1256.45
544.87	1259.07
545.22	1261.17
545.58	1263.17
545.94	1266.74
546.29	1269.52
546.65	1272.38
547.01	1275.02
547.36	1277.83
547.72	1280.48
548.07	1283.57
548.43	1286.14
548.79	1288.52
549.14	1291.93
549.50	1294.69
549.86	1297.38
550.21	1300.57
550.57	1304.29
550.92	1305.95
551.28	1309.62
551.64	1312.64
551.99	1314.76
552.35	1317.88
552.70	1321.74
553.06	1325.64
553.41	1328.67
553.77	1332.45
554.13	1336.36
554.48	1340.52
554.84	1344.98
555.19	1348.88
555.55	1354.14
555.90	1357.98
556.26	1361.90
556.61	1365.19
556.97	1367.79
557.32	1371.29
557.68	1375.02
558.03	1378.40
558.39	1383.00
558.74	1387.38
559.10	1390.76
559.45	1394.81
559.81	1398.90
560.16	1402.62
560.52	1406.43
560.87	1411.07
561.23	1413.95
561.58	1419.62
561.94	1423.14
562.29	1426.86
562.64	1431.86
563.00	1434.52
563.35	1439.00
563.71	1443.67
564.06	1448.50
564.42	1454.38
564.77	1460.21
565.12	1466.76
565.48	1473.45
565.83	1478.93
566.19	1483.79
566.54	1489.69
566.89	1495.14
567.25	1501.52
567.60	1508.79
567.96	1517.26
568.31	1524.14
568.66	1531.62
569.02	1535.76
569.37	1540.98
569.72	1547.33
570.08	1551.98
570.43	1557.31
570.78	1562.98
571.14	1568.90
571.49	1574.48
571.84	1580.19
572.20	1585.21
572.55	1589.55
572.90	1593.40
573.26	1598.38
573.61	1602.52
573.96	1607.31
574.31	1611.21
574.67	1614.62
575.02	1617.83
575.37	1619.45
575.72	1622.10
576.08	1625.52
576.43	1629.57
576.78	1633.81
577.13	1636.50
577.49	1640.71
577.84	1645.02
578.19	1649.19
578.54	1653.07
578.90	1657.19
579.25	1660.45
579.60	1664.12
579.95	1667.90
580.30	1671.62
580.66	1674.98
581.01	1679.88
581.36	1682.76
581.71	1686.93
582.06	1691.93
582.42	1695.98
582.77	1698.14
583.12	1701.48
583.47	1704.21
583.82	1707.93
584.17	1711.52
584.53	1715.38
584.88	1718.60
585.23	1722.12
585.58	1724.21
585.93	1725.88
586.28	1728.02
586.63	1730.31
586.98	1732.83
587.34	1735.83
587.69	1737.62
588.04	1738.90
588.39	1740.74
588.74	1741.98
589.09	1743.88
589.44	1743.83
589.79	1745.74
590.14	1748.43
590.49	1750.21
590.84	1751.36
591.19	1752.24
591.54	1753.79
591.89	1754.45
592.25	1757.98
592.60	1758.45
592.95	1759.83
593.30	1762.21
593.65	1763.33
594.00	1764.88
594.35	1772.12
594.70	1772.64
595.05	1774.21
595.40	1776.52
595.75	1777.36
596.10	1779.50
596.45	1780.76
596.80	1782.81
597.15	1782.43
597.50	1783.62
597.85	1785.00
598.19	1784.29
598.54	1784.57
598.89	1784.60
599.24	1785.88
599.59	1784.00
599.94	1784.36
600.29	1785.12
600.64	1785.14
600.99	1785.69
601.34	1786.45
601.69	1779.67
602.04	1778.79
602.39	1778.02
602.74	1777.90
603.08	1777.48
603.43	1777.86
603.78	1776.60
604.13	1775.62
604.48	1775.64
604.83	1775.12
605.18	1774.14
605.53	1775.14
605.87	1774.52
606.22	1773.52
606.57	1771.57
606.92	1770.02
607.27	1769.17
607.62	1767.74
607.96	1766.60
608.31	1765.98
608.66	1765.05
609.01	1764.07
609.36	1763.71
609.70	1762.79
610.05	1759.71
610.40	1758.33
610.75	1755.64
611.10	1754.55
611.44	1752.31
611.79	1750.24
612.14	1748.07
612.49	1745.14
612.83	1742.74
613.18	1740.50
613.53	1737.76
613.88	1734.83
614.22	1731.93
614.57	1728.64
614.92	1724.33
615.27	1720.31
615.61	1715.43
615.96	1710.86
616.31	1707.14
616.65	1704.00
617.00	1701.00
617.35	1699.02
617.70	1695.67
618.04	1691.83
618.39	1687.76
618.74	1684.21
619.08	1679.90
619.43	1676.21
619.78	1672.19
620.12	1668.95
620.47	1664.19
620.82	1659.93
621.16	1655.19
621.51	1653.07
621.85	1649.31
622.20	1646.69
622.55	1642.76
622.89	1640.33
623.24	1637.24
623.59	1633.98
623.93	1629.79
624.28	1625.88
624.62	1623.64
624.97	1620.43
625.32	1616.90
625.66	1613.33
626.01	1609.21
626.35	1605.95
626.70	1602.07
627.04	1599.79
627.39	1595.57
627.73	1593.12
628.08	1589.90
628.43	1587.45
628.77	1582.14
629.12	1577.98
629.46	1574.48
629.81	1571.24
630.15	1566.67
630.50	1561.55
630.84	1557.67
631.19	1552.29
631.53	1546.79
631.88	1539.40
632.22	1533.36
632.57	1528.90
632.91	1523.07
633.26	1519.36
633.60	1513.83
633.95	1507.79
634.29	1501.93
634.64	1496.76
634.98	1490.24
635.32	1487.36
635.67	1483.24
636.01	1478.79
636.36	1474.21
636.70	1470.17
637.05	1464.74
637.39	1460.43
637.73	1456.40
638.08	1452.55
638.42	1449.21
638.77	1445.43
639.11	1440.52
639.45	1435.67
639.80	1430.76
640.14	1426.81
640.49	1420.95
640.83	1416.36
641.17	1411.60
641.52	1406.52
641.86	1401.10
642.20	1398.43
642.55	1391.43
642.89	1385.31
643.23	1380.14
643.58	1375.33
643.92	1368.55
644.26	1363.50
644.61	1357.67
644.95	1351.98
645.29	1345.05
645.64	1338.50
645.98	1332.14
646.32	1327.79
646.66	1321.86
647.01	1315.57
647.35	1309.43
647.69	1303.88
648.04	1298.31
648.38	1293.40
648.72	1288.36
649.06	1282.90
649.41	1275.52
649.75	1269.05
650.09	1263.12
650.43	1256.40
650.78	1250.26
651.12	1244.21
651.46	1237.36
651.80	1231.07
652.14	1224.93
652.49	1218.79
652.83	1212.17
653.17	1205.60
653.51	1198.07
653.85	1192.33
654.20	1185.62
654.54	1179.10
654.88	1171.98
655.22	1165.67
655.56	1158.57
655.90	1151.02
656.25	1144.67
656.59	1138.67
656.93	1132.67
657.27	1126.88
657.61	1120.69
657.95	1114.43
658.29	1107.67
658.64	1102.14
658.98	1095.26
659.32	1088.07
659.66	1081.26
660.00	1075.62
660.34	1069.31
660.68	1063.55
661.02	1056.48
661.36	1050.29
661.70	1044.31
662.05	1038.71
662.39	1032.67
662.73	1026.79
663.07	1021.79
663.41	1015.26
663.75	1008.50
664.09	1002.29
664.43	995.64
664.77	989.69
665.11	982.67
665.45	976.76
665.79	970.33
666.13	964.40
666.47	958.90
666.81	952.74
667.15	946.12
667.49	941.12
667.83	936.07
668.17	930.86
668.51	925.57
668.85	919.86
669.19	915.19
669.53	909.31
669.87	903.26
670.21	897.31
670.55	891.55
670.89	887.50
671.23	882.40
671.57	877.38
671.91	871.74
672.25	866.48
672.58	862.43
672.92	857.26
673.26	852.12
673.60	846.57
673.94	841.90
674.28	837.26
674.62	831.81
674.96	826.07
675.30	821.43
675.64	816.55
675.97	811.57
676.31	805.36
676.65	799.64
676.99	795.81
677.33	790.31
677.67	784.93
678.01	779.14
678.34	774.48
678.68	769.57
679.02	764.40
679.36	758.98
679.70	752.95
680.04	747.95
680.37	742.69
680.71	738.29
681.05	733.38
681.39	728.48
681.73	723.60
682.06	718.81
682.40	713.79
682.74	709.52
683.08	705.12
683.42	700.26
683.75	696.05
684.09	690.52
684.43	685.88
684.77	681.95
685.10	677.10
685.44	672.33
685.78	667.64
686.12	663.31
686.45	659.05
686.79	654.50
687.13	650.50
687.46	646.26
687.80	642.12
688.14	637.81
688.48	633.57
688.81	629.55
689.15	625.83
689.49	621.10
689.82	616.33
690.16	611.62
690.50	607.86
690.83	603.48
691.17	599.14
691.51	594.86
691.84	590.86
692.18	586.71
692.52	582.76
692.85	578.95
693.19	575.93
693.52	572.17
693.86	568.02
694.20	563.76
694.53	560.12
694.87	555.76
695.21	551.60
695.54	547.69
695.88	543.02
696.21	538.57
696.55	535.14
696.88	531.31
697.22	527.64
697.56	524.10
697.89	520.60
698.23	517.33
698.56	513.83
698.90	510.12
699.23	506.40
699.57	502.64
699.90	498.52
700.24	494.33
700.58	491.10
700.91	488.17
701.25	486.69
701.58	484.29
701.92	481.76
702.25	478.69
702.59	475.29
702.92	472.69
703.26	469.50
703.59	466.33
703.93	465.36
704.26	462.83
704.60	459.69
704.93	456.60
705.26	453.12
705.60	450.57
705.93	447.52
706.27	445.52
706.60	443.00
706.94	441.50
707.27	438.64
707.61	435.76
707.94	433.12
708.27	428.86
708.61	425.40
708.94	422.45
709.28	420.17
709.61	417.52
709.94	415.48
710.28	413.21
710.61	410.86
710.95	406.33
711.28	405.19
711.61	403.10
711.95	401.48
712.28	399.33
712.61	397.02
712.95	395.86
713.28	394.17
713.61	392.00
713.95	389.02
714.28	387.14
714.61	385.00
714.95	382.83
715.28	380.24
715.61	378.19
715.95	376.02
716.28	373.81
716.61	371.86
716.95	368.57
717.28	366.55
717.61	364.50
717.94	362.64
718.28	359.26
718.61	357.21
718.94	354.71
719.27	353.21
719.61	351.33
719.94	349.10
720.27	346.36
720.60	344.57
720.94	343.05
721.27	341.29
721.60	340.40
721.93	338.81
722.27	338.02
722.60	336.31
722.93	334.67
723.26	333.45
723.59	332.14
723.93	331.48
724.26	330.36
724.59	329.00
724.92	327.90
725.25	327.07
725.59	325.71
725.92	324.71
726.25	323.40
726.58	322.21
726.91	320.79
727.24	319.90
727.57	318.67
727.91	317.05
728.24	316.14
728.57	314.43
728.90	313.48
729.23	311.76
729.56	311.55
729.89	310.69
730.22	309.19
730.55	307.98
730.89	307.14
731.22	305.93
731.55	304.88
731.88	303.81
732.21	302.79
732.54	301.60
732.87	300.50
733.20	299.38
733.53	298.67
733.86	298.10
734.19	296.79
734.52	296.05
734.85	296.36
735.18	295.00
735.51	294.57
735.84	293.52
736.17	293.17
736.50	291.60
736.83	292.86
737.16	292.26
737.49	291.81
737.82	290.67
738.15	290.05
738.48	289.17
738.81	288.10
739.14	286.76
739.47	286.19
739.80	285.43
740.13	284.86
740.46	283.45
740.79	282.14
741.12	281.55
741.45	280.55
741.78	278.76
742.11	278.81
742.44	277.50
742.77	277.14
743.10	275.90
743.43	275.02
743.75	272.02
744.08	274.02
744.41	272.69
744.74	272.07
745.07	270.86
745.40	270.29
745.73	270.52
746.06	269.83
746.39	269.17
746.71	268.17
747.04	267.36
747.37	266.38
747.70	266.14
748.03	265.38
748.36	265.19
748.68	264.29
749.01	263.05
749.34	262.69
749.67	262.10
750.00	261.90
750.33	262.95
750.65	262.79
750.98	259.62
751.31	259.12
751.64	258.60
751.97	259.24
752.29	258.55
752.62	257.10
752.95	256.79
753.28	256.19
753.60	255.93
753.93	256.10
754.26	256.17
754.59	255.14
754.91	254.71
755.24	253.62
755.57	253.31
755.90	252.74
756.22	252.00
756.55	251.12
756.88	250.26
757.20	248.38
757.53	247.60
757.86	246.93
758.19	246.86
758.51	246.29
758.84	244.69
759.17	244.17
759.49	244.10
759.82	244.50
760.15	244.40
760.47	244.05
760.80	242.95
761.13	243.02
761.45	242.48
761.78	241.90
762.11	241.81
762.43	241.38
762.76	240.95
763.08	240.83
763.41	240.64
763.74	240.38
764.06	239.90
764.39	239.50
764.71	239.26
765.04	238.67
765.37	238.24
765.69	238.02
766.02	237.95
766.34	237.33
766.67	236.36
767.00	236.19
767.32	236.93
767.65	237.93
767.97	237.17
768.30	237.17
768.62	237.10
768.95	236.43
769.27	236.00
769.60	236.10
769.92	235.57
770.25	234.74
770.57	234.29
770.90	233.90
771.22	233.24
771.55	233.10
771.87	233.05
772.20	232.76
772.52	234.14
772.85	236.29
773.17	236.02
773.50	235.62
773.82	234.90
774.15	233.79
774.47	232.19
774.80	231.74
775.12	231.45
775.45	231.10
775.77	230.90
776.09	230.95
776.42	230.71
776.74	231.31
777.07	231.19
777.39	231.12
777.72	230.98
778.04	231.19
778.36	230.83
778.69	230.67
779.01	230.71
779.33	228.79
779.66	226.50
779.98	226.24
780.31	225.93
780.63	226.64
780.95	226.74
781.28	226.64
781.60	226.38
781.92	226.29
782.25	226.05
782.57	225.98
782.89	225.79
783.22	225.45
783.54	224.62
783.86	224.90
784.19	224.64
784.51	225.02
784.83	224.43
785.16	224.36
