SpectraSuite Data File
++++++++++++++++++++++++++++++++++++
Date: Tue Apr 02 18:46:02 EDT 2013
User: group
Dark Spectrum Present: No
Reference Spectrum Present: No
Number of Sampled Component Spectra: 1
Spectrometers: USB2E7196
Integration Time (usec): 580000 (USB2E7196)
Spectra Averaged: 2 (USB2E7196)
Boxcar Smoothing: 10 (USB2E7196)
Correct for Electrical Dark: No (USB2E7196)
Strobe/Lamp Enabled: No (USB2E7196)
Correct for Detector Non-linearity: No (USB2E7196)
Correct for Stray Light: No (USB2E7196)
Number of Pixels in Processed Spectrum: 2048
>>>>>Begin Processed Spectral Data<<<<<
339.09	0.00
339.48	196.00
339.86	201.00
340.24	198.50
340.63	200.50
341.01	234.00
341.39	205.00
341.78	209.00
342.16	214.50
342.54	205.00
342.93	200.43
343.31	210.19
343.69	210.83
344.07	211.19
344.46	211.95
344.84	212.64
345.22	211.48
345.60	211.88
345.99	212.00
346.37	212.00
346.75	212.17
347.13	212.33
347.52	212.50
347.90	213.00
348.28	213.00
348.66	213.55
349.05	212.83
349.43	212.98
349.81	213.00
350.19	213.12
350.57	213.29
350.96	213.05
351.34	213.38
351.72	213.10
352.10	213.10
352.48	212.98
352.87	212.69
353.25	212.60
353.63	212.64
354.01	212.67
354.39	212.55
354.77	212.55
355.15	213.10
355.54	212.52
355.92	212.10
356.30	212.24
356.68	213.36
357.06	213.57
357.44	213.48
357.82	213.50
358.20	214.10
358.58	214.02
358.97	214.07
359.35	214.31
359.73	214.69
360.11	214.64
360.49	214.60
360.87	214.36
361.25	214.74
361.63	215.07
362.01	215.10
362.39	215.05
362.77	215.24
363.15	215.02
363.53	215.19
363.91	215.17
364.29	215.05
364.67	213.17
365.05	213.31
365.43	213.43
365.81	213.57
366.19	213.90
366.57	214.33
366.95	214.31
367.33	213.93
367.71	214.07
368.09	214.36
368.47	214.33
368.85	214.43
369.23	214.67
369.61	213.93
369.99	214.36
370.37	214.57
370.75	215.79
371.13	215.33
371.51	215.10
371.89	215.29
372.27	215.26
372.65	215.40
373.03	215.24
373.41	214.86
373.78	214.83
374.16	213.79
374.54	213.38
374.92	213.10
375.30	213.17
375.68	212.95
376.06	213.33
376.44	213.19
376.82	213.45
377.19	213.19
377.57	213.29
377.95	212.81
378.33	212.52
378.71	210.98
379.09	211.38
379.47	211.88
379.84	211.43
380.22	211.43
380.60	211.14
380.98	211.31
381.36	211.52
381.73	211.33
382.11	211.76
382.49	211.79
382.87	211.69
383.25	211.83
383.62	214.17
384.00	213.50
384.38	213.81
384.76	214.14
385.13	215.12
385.51	215.10
385.89	214.90
386.27	215.12
386.64	215.52
387.02	215.52
387.40	215.26
387.78	215.71
388.15	215.71
388.53	215.64
388.91	215.40
389.29	215.19
389.66	215.40
390.04	215.02
390.42	215.52
390.79	215.71
391.17	215.64
391.55	213.55
391.92	213.71
392.30	213.95
392.68	213.62
393.05	213.40
393.43	213.40
393.81	213.50
394.18	213.31
394.56	213.45
394.94	213.64
395.31	213.45
395.69	214.05
396.06	214.55
396.44	214.71
396.82	214.67
397.19	215.81
397.57	215.67
397.95	216.12
398.32	215.26
398.70	215.29
399.07	215.95
399.45	215.60
399.82	215.55
400.20	215.31
400.58	215.31
400.95	214.60
401.33	215.24
401.70	216.90
402.08	217.00
402.45	216.98
402.83	217.60
403.20	217.90
403.58	217.57
403.95	217.83
404.33	218.43
404.71	218.62
405.08	219.83
405.46	220.14
405.83	220.55
406.21	221.17
406.58	221.79
406.96	222.07
407.33	222.86
407.70	223.64
408.08	225.52
408.45	226.43
408.83	227.48
409.20	227.64
409.58	227.02
409.95	228.26
410.33	229.31
410.70	229.31
411.08	230.55
411.45	231.60
411.82	232.55
412.20	233.98
412.57	236.79
412.95	236.40
413.32	238.12
413.69	239.31
414.07	241.07
414.44	242.86
414.82	244.55
415.19	246.93
415.56	249.38
415.94	250.93
416.31	253.81
416.68	256.45
417.06	260.00
417.43	263.64
417.81	266.98
418.18	270.52
418.55	274.33
418.93	278.05
419.30	282.19
419.67	286.38
420.04	290.40
420.42	294.21
420.79	301.36
421.16	306.86
421.54	313.71
421.91	319.90
422.28	325.62
422.66	332.33
423.03	339.98
423.40	347.14
423.77	354.24
424.15	361.33
424.52	368.74
424.89	376.93
425.26	384.74
425.64	392.67
426.01	400.83
426.38	409.93
426.75	419.50
427.13	428.79
427.50	438.24
427.87	448.74
428.24	458.12
428.61	467.05
428.99	477.90
429.36	488.24
429.73	499.05
430.10	510.98
430.47	522.57
430.85	533.14
431.22	545.02
431.59	560.00
431.96	572.07
432.33	586.07
432.70	599.93
433.08	615.33
433.45	630.17
433.82	644.95
434.19	661.50
434.56	678.74
434.93	694.17
435.30	709.83
435.68	727.12
436.05	744.83
436.42	760.83
436.79	777.10
437.16	793.88
437.53	812.29
437.90	830.40
438.27	847.98
438.64	865.86
439.01	882.98
439.38	895.74
439.75	910.98
440.13	928.02
440.50	943.52
440.87	956.45
441.24	969.02
441.61	984.48
441.98	995.24
442.35	1006.40
442.72	1019.60
443.09	1033.55
443.46	1040.43
443.83	1045.93
444.20	1050.88
444.57	1056.79
444.94	1060.43
445.31	1063.88
445.68	1069.05
446.05	1070.26
446.42	1068.74
446.79	1067.71
447.16	1066.12
447.53	1064.90
447.90	1058.60
448.27	1052.40
448.64	1043.95
449.01	1038.38
449.37	1026.71
449.74	1015.52
450.11	1004.55
450.48	989.60
450.85	973.83
451.22	962.00
451.59	949.76
451.96	938.64
452.33	923.14
452.70	909.17
453.07	891.71
453.43	872.36
453.80	856.29
454.17	841.21
454.54	825.26
454.91	809.81
455.28	793.86
455.65	779.05
456.02	767.57
456.38	754.90
456.75	739.17
457.12	725.95
457.49	713.81
457.86	699.98
458.23	690.29
458.59	678.29
458.96	666.29
459.33	655.86
459.70	645.43
460.07	637.05
460.43	627.38
460.80	619.10
461.17	611.93
461.54	603.48
461.91	595.19
462.27	587.60
462.64	580.40
463.01	573.12
463.38	566.69
463.74	555.62
464.11	548.98
464.48	543.86
464.85	537.64
465.21	533.07
465.58	527.98
465.95	521.43
466.32	516.45
466.68	510.90
467.05	505.76
467.42	500.50
467.78	495.29
468.15	490.21
468.52	486.17
468.88	480.38
469.25	475.67
469.62	472.50
469.98	468.40
470.35	464.50
470.72	461.00
471.08	456.45
471.45	453.98
471.82	451.69
472.18	447.88
472.55	445.57
472.92	442.00
473.28	438.86
473.65	436.07
474.02	433.88
474.38	432.48
474.75	431.05
475.11	428.60
475.48	427.10
475.85	425.52
476.21	423.48
476.58	422.12
476.94	421.26
477.31	420.10
477.67	418.88
478.04	417.95
478.41	417.19
478.77	418.52
479.14	417.76
479.50	416.36
479.87	416.40
480.23	416.19
480.60	416.00
480.96	415.81
481.33	416.57
481.69	416.45
482.06	416.52
482.42	416.57
482.79	417.26
483.15	417.60
483.52	418.83
483.88	419.38
484.25	420.05
484.61	420.71
484.98	421.33
485.34	423.05
485.71	424.69
486.07	426.02
486.44	425.21
486.80	426.40
487.17	428.26
487.53	430.29
487.90	432.02
488.26	435.12
488.62	437.93
488.99	439.74
489.35	442.29
489.72	444.50
490.08	447.52
490.44	450.05
490.81	453.38
491.17	456.36
491.54	460.57
491.90	464.21
492.26	467.69
492.63	471.43
492.99	474.86
493.36	478.64
493.72	483.02
494.08	487.86
494.45	493.00
494.81	497.67
495.17	502.38
495.54	507.95
495.90	512.40
496.26	517.33
496.63	522.88
496.99	528.33
497.35	534.33
497.72	540.40
498.08	546.14
498.44	552.07
498.80	558.74
499.17	564.52
499.53	570.81
499.89	577.74
500.26	584.33
500.62	591.31
500.98	599.17
501.34	605.98
501.71	613.19
502.07	620.02
502.43	627.21
502.79	634.19
503.16	641.31
503.52	648.26
503.88	655.14
504.24	663.05
504.60	670.33
504.97	678.31
505.33	685.50
505.69	694.33
506.05	701.95
506.41	708.67
506.78	716.19
507.14	724.05
507.50	731.79
507.86	739.60
508.22	747.45
508.59	754.33
508.95	762.79
509.31	771.21
509.67	779.00
510.03	786.36
510.39	794.07
510.75	801.33
511.12	809.07
511.48	817.50
511.84	824.69
512.20	832.62
512.56	840.12
512.92	847.62
513.28	854.62
513.64	862.10
514.00	870.52
514.37	878.02
514.73	885.19
515.09	893.02
515.45	899.62
515.81	906.17
516.17	912.76
516.53	918.64
516.89	924.36
517.25	930.90
517.61	938.50
517.97	945.02
518.33	952.00
518.69	958.76
519.05	964.40
519.41	970.33
519.77	977.05
520.13	982.64
520.49	987.57
520.85	993.10
521.21	999.50
521.57	1004.29
521.93	1009.07
522.29	1014.26
522.65	1018.38
523.01	1024.43
523.37	1029.93
523.73	1035.24
524.09	1040.67
524.45	1045.76
524.81	1050.64
525.17	1055.31
525.53	1060.07
525.89	1064.21
526.25	1068.14
526.61	1072.64
526.97	1076.67
527.33	1080.60
527.68	1086.31
528.04	1090.83
528.40	1094.69
528.76	1098.33
529.12	1103.00
529.48	1108.79
529.84	1113.12
530.20	1118.17
530.56	1122.38
530.91	1126.67
531.27	1130.38
531.63	1135.05
531.99	1138.71
532.35	1142.55
532.71	1146.76
533.07	1151.29
533.42	1157.76
533.78	1163.00
534.14	1167.57
534.50	1171.88
534.86	1176.57
535.21	1178.98
535.57	1184.05
535.93	1188.26
536.29	1193.36
536.65	1197.02
537.00	1199.10
537.36	1202.40
537.72	1205.31
538.08	1208.98
538.44	1212.05
538.79	1216.62
539.15	1219.14
539.51	1222.60
539.87	1225.69
540.22	1228.17
540.58	1231.57
540.94	1232.95
541.29	1235.26
541.65	1237.45
542.01	1239.95
542.37	1241.55
542.72	1244.45
543.08	1246.17
543.44	1248.88
543.79	1248.90
544.15	1252.05
544.51	1255.93
544.87	1257.95
545.22	1261.67
545.58	1263.74
545.94	1266.31
546.29	1268.21
546.65	1270.88
547.01	1272.98
547.36	1276.07
547.72	1278.48
548.07	1280.36
548.43	1281.71
548.79	1282.95
549.14	1285.00
549.50	1288.21
549.86	1290.31
550.21	1292.38
550.57	1295.40
550.92	1298.00
551.28	1302.00
551.64	1303.95
551.99	1305.71
552.35	1309.83
552.70	1311.81
553.06	1315.45
553.41	1319.10
553.77	1323.38
554.13	1326.45
554.48	1330.88
554.84	1334.55
555.19	1338.81
555.55	1343.26
555.90	1347.71
556.26	1352.55
556.61	1356.88
556.97	1360.12
557.32	1364.10
557.68	1368.38
558.03	1372.74
558.39	1376.45
558.74	1380.43
559.10	1385.05
559.45	1389.57
559.81	1393.86
560.16	1398.36
560.52	1402.86
560.87	1407.36
561.23	1410.14
561.58	1416.10
561.94	1420.07
562.29	1423.12
562.64	1427.93
563.00	1431.98
563.35	1436.31
563.71	1440.52
564.06	1445.93
564.42	1451.76
564.77	1457.29
565.12	1463.10
565.48	1469.76
565.83	1475.21
566.19	1480.74
566.54	1485.69
566.89	1491.29
567.25	1497.19
567.60	1503.19
567.96	1510.88
568.31	1516.64
568.66	1523.31
569.02	1527.19
569.37	1532.50
569.72	1539.43
570.08	1543.90
570.43	1548.02
570.78	1554.12
571.14	1559.81
571.49	1564.81
571.84	1570.50
572.20	1576.14
572.55	1580.86
572.90	1583.83
573.26	1588.26
573.61	1591.86
573.96	1597.33
574.31	1602.62
574.67	1605.33
575.02	1609.00
575.37	1609.57
575.72	1612.67
576.08	1616.62
576.43	1620.05
576.78	1623.26
577.13	1626.43
577.49	1630.21
577.84	1635.05
578.19	1638.00
578.54	1642.17
578.90	1645.95
579.25	1648.69
579.60	1651.33
579.95	1654.88
580.30	1658.55
580.66	1662.76
581.01	1667.24
581.36	1669.29
581.71	1671.31
582.06	1676.76
582.42	1681.26
582.77	1684.90
583.12	1688.62
583.47	1691.48
583.82	1695.12
584.17	1699.24
584.53	1703.21
584.88	1707.33
585.23	1710.62
585.58	1715.14
585.93	1717.55
586.28	1720.83
586.63	1723.83
586.98	1727.02
587.34	1730.50
587.69	1733.26
588.04	1736.24
588.39	1738.52
588.74	1741.05
589.09	1744.88
589.44	1745.21
589.79	1746.95
590.14	1748.93
590.49	1750.69
590.84	1751.79
591.19	1754.36
591.54	1755.43
591.89	1755.93
592.25	1759.07
592.60	1760.17
592.95	1760.21
593.30	1762.31
593.65	1763.33
594.00	1763.88
594.35	1770.83
594.70	1770.26
595.05	1770.64
595.40	1770.48
595.75	1770.95
596.10	1773.17
596.45	1773.88
596.80	1775.48
597.15	1775.83
597.50	1776.93
597.85	1778.40
598.19	1779.43
598.54	1779.95
598.89	1781.93
599.24	1783.90
599.59	1782.40
599.94	1783.38
600.29	1784.00
600.64	1784.00
600.99	1784.07
601.34	1785.33
601.69	1779.88
602.04	1780.26
602.39	1780.43
602.74	1782.21
603.08	1782.57
603.43	1782.62
603.78	1781.76
604.13	1782.02
604.48	1780.71
604.83	1781.10
605.18	1780.43
605.53	1780.21
605.87	1779.33
606.22	1777.40
606.57	1775.45
606.92	1774.76
607.27	1773.81
607.62	1773.00
607.96	1772.74
608.31	1772.60
608.66	1770.79
609.01	1769.90
609.36	1769.81
609.70	1768.43
610.05	1765.64
610.40	1763.60
610.75	1760.33
611.10	1759.36
611.44	1756.50
611.79	1755.19
612.14	1752.71
612.49	1748.52
612.83	1745.26
613.18	1742.17
613.53	1739.88
613.88	1736.26
614.22	1732.17
614.57	1727.71
614.92	1723.81
615.27	1719.76
615.61	1715.33
615.96	1711.43
616.31	1708.10
616.65	1704.79
617.00	1702.52
617.35	1700.26
617.70	1696.93
618.04	1693.64
618.39	1689.40
618.74	1686.14
619.08	1682.93
619.43	1680.52
619.78	1678.17
620.12	1676.29
620.47	1673.69
620.82	1669.79
621.16	1667.07
621.51	1665.50
621.85	1662.67
622.20	1660.29
622.55	1656.64
622.89	1653.55
623.24	1650.95
623.59	1646.64
623.93	1643.48
624.28	1638.86
624.62	1635.29
624.97	1632.81
625.32	1629.24
625.66	1625.95
626.01	1621.71
626.35	1617.76
626.70	1612.79
627.04	1610.24
627.39	1605.31
627.73	1601.71
628.08	1598.29
628.43	1594.33
628.77	1589.43
629.12	1585.64
629.46	1580.93
629.81	1577.14
630.15	1571.69
630.50	1567.55
630.84	1563.21
631.19	1557.45
631.53	1552.93
631.88	1546.52
632.22	1540.00
632.57	1535.76
632.91	1529.83
633.26	1526.07
633.60	1520.57
633.95	1515.57
634.29	1509.55
634.64	1505.95
634.98	1500.26
635.32	1496.55
635.67	1493.10
636.01	1489.26
636.36	1485.79
636.70	1482.29
637.05	1477.00
637.39	1473.45
637.73	1468.62
638.08	1464.76
638.42	1460.36
638.77	1456.48
639.11	1452.02
639.45	1448.21
639.80	1442.74
640.14	1438.62
640.49	1433.55
640.83	1429.21
641.17	1425.14
641.52	1420.50
641.86	1414.93
642.20	1411.26
642.55	1404.74
642.89	1398.95
643.23	1392.43
643.58	1386.64
643.92	1379.36
644.26	1374.31
644.61	1368.67
644.95	1363.19
645.29	1356.64
645.64	1351.26
645.98	1345.24
646.32	1341.10
646.66	1335.24
647.01	1329.62
647.35	1323.95
647.69	1318.57
648.04	1313.60
648.38	1307.50
648.72	1301.26
649.06	1295.02
649.41	1288.55
649.75	1282.76
650.09	1276.76
650.43	1271.57
650.78	1265.21
651.12	1259.67
651.46	1253.60
651.80	1247.48
652.14	1241.17
652.49	1236.48
652.83	1230.64
653.17	1224.50
653.51	1217.02
653.85	1211.55
654.20	1205.48
654.54	1198.52
654.88	1191.76
655.22	1185.98
655.56	1179.64
655.90	1174.17
656.25	1168.26
656.59	1162.14
656.93	1156.17
657.27	1151.48
657.61	1144.33
657.95	1138.48
658.29	1132.52
658.64	1126.76
658.98	1120.19
659.32	1113.86
659.66	1106.67
660.00	1099.93
660.34	1094.05
660.68	1087.90
661.02	1081.62
661.36	1076.00
661.70	1071.33
662.05	1065.57
662.39	1059.14
662.73	1053.69
663.07	1048.29
663.41	1042.76
663.75	1036.31
664.09	1030.29
664.43	1023.02
664.77	1017.79
665.11	1011.50
665.45	1006.17
665.79	1000.50
666.13	995.21
666.47	989.50
666.81	984.14
667.15	978.86
667.49	973.76
667.83	969.12
668.17	963.86
668.51	958.29
668.85	952.43
669.19	948.05
669.53	941.83
669.87	935.76
670.21	929.67
670.55	923.60
670.89	919.76
671.23	914.52
671.57	908.90
671.91	903.12
672.25	897.88
672.58	892.83
672.92	886.95
673.26	882.12
673.60	876.98
673.94	871.74
674.28	866.71
674.62	861.12
674.96	856.00
675.30	850.55
675.64	845.60
675.97	840.31
676.31	834.21
676.65	829.17
676.99	825.19
677.33	820.12
677.67	815.62
678.01	809.64
678.34	804.88
678.68	800.95
679.02	796.86
679.36	791.93
679.70	786.52
680.04	781.76
680.37	776.45
680.71	771.38
681.05	766.83
681.39	761.95
681.73	756.93
682.06	752.33
682.40	748.02
682.74	743.12
683.08	739.10
683.42	734.29
683.75	730.43
684.09	724.90
684.43	720.12
684.77	714.86
685.10	709.88
685.44	705.40
685.78	699.76
686.12	694.43
686.45	689.24
686.79	684.31
687.13	680.43
687.46	676.38
687.80	672.50
688.14	667.40
688.48	662.67
688.81	658.74
689.15	654.36
689.49	649.05
689.82	644.79
690.16	639.29
690.50	634.69
690.83	629.43
691.17	624.60
691.51	620.17
691.84	616.43
692.18	612.50
692.52	608.07
692.85	604.67
693.19	601.48
693.52	597.60
693.86	593.17
694.20	588.86
694.53	584.50
694.87	580.48
695.21	576.60
695.54	572.26
695.88	567.31
696.21	562.45
696.55	558.81
696.88	554.43
697.22	550.98
697.56	547.95
697.89	544.50
698.23	541.26
698.56	537.67
698.90	533.86
699.23	529.33
699.57	525.52
699.90	521.48
700.24	517.45
700.58	514.26
700.91	511.69
701.25	509.74
701.58	506.83
701.92	503.83
702.25	500.33
702.59	497.14
702.92	494.02
703.26	490.90
703.59	487.43
703.93	486.31
704.26	483.17
704.60	479.38
704.93	476.05
705.26	472.50
705.60	469.71
705.93	466.38
706.27	464.48
706.60	462.10
706.94	459.81
707.27	456.52
707.61	454.14
707.94	450.95
708.27	446.29
708.61	442.71
708.94	439.76
709.28	437.48
709.61	434.90
709.94	432.40
710.28	430.00
710.61	427.88
710.95	423.50
711.28	422.45
711.61	420.24
711.95	418.43
712.28	415.79
712.61	413.07
712.95	411.50
713.28	409.95
713.61	407.24
713.95	404.21
714.28	402.21
714.61	399.45
714.95	397.36
715.28	395.14
715.61	392.83
715.95	390.74
716.28	388.43
716.61	386.14
716.95	383.90
717.28	381.81
717.61	379.62
717.94	377.52
718.28	374.14
718.61	372.36
718.94	369.79
719.27	368.33
719.61	366.43
719.94	364.29
720.27	361.05
720.60	359.19
720.94	357.38
721.27	355.57
721.60	354.21
721.93	352.33
722.27	351.05
722.60	349.90
722.93	348.00
723.26	346.62
723.59	345.10
723.93	344.00
724.26	342.50
724.59	340.86
724.92	339.55
725.25	338.69
725.59	336.90
725.92	335.79
726.25	334.12
726.58	332.71
726.91	331.24
727.24	330.36
727.57	328.83
727.91	327.21
728.24	326.05
728.57	324.19
728.90	323.26
729.23	321.64
729.56	321.12
729.89	319.69
730.22	318.19
730.55	316.90
730.89	315.45
731.22	313.95
731.55	312.83
731.88	311.86
732.21	310.26
732.54	309.12
732.87	307.88
733.20	307.19
733.53	306.26
733.86	305.29
734.19	303.74
734.52	303.38
734.85	303.74
735.18	302.40
735.51	302.07
735.84	300.93
736.17	300.26
736.50	298.29
736.83	299.76
737.16	299.14
737.49	298.50
737.82	297.48
738.15	296.83
738.48	296.02
738.81	295.00
739.14	293.86
739.47	292.98
739.80	292.00
740.13	291.21
740.46	289.95
740.79	288.83
741.12	288.07
741.45	286.50
741.78	284.93
742.11	284.90
742.44	283.64
742.77	283.29
743.10	282.26
743.43	281.52
743.75	278.50
744.08	280.21
744.41	279.14
744.74	278.10
745.07	276.88
745.40	276.21
745.73	275.88
746.06	275.19
746.39	274.57
746.71	273.45
747.04	272.14
747.37	271.50
747.70	270.90
748.03	270.12
748.36	269.74
748.68	268.86
749.01	267.26
749.34	266.76
749.67	266.17
750.00	266.12
750.33	267.07
750.65	266.86
750.98	263.43
751.31	262.88
751.64	262.48
751.97	263.38
752.29	262.60
752.62	261.40
752.95	260.67
753.28	260.02
753.60	259.45
753.93	259.43
754.26	258.93
754.59	257.98
754.91	257.57
755.24	257.05
755.57	256.48
755.90	256.00
756.22	254.95
756.55	253.86
756.88	252.93
757.20	250.83
757.53	249.64
757.86	249.29
758.19	248.88
758.51	248.57
758.84	246.71
759.17	246.19
759.49	246.12
759.82	246.93
760.15	246.48
760.47	246.24
760.80	245.52
761.13	245.50
761.45	245.10
761.78	244.52
762.11	244.21
762.43	243.43
762.76	243.05
763.08	243.10
763.41	243.21
763.74	242.86
764.06	242.60
764.39	242.43
764.71	242.17
765.04	241.74
765.37	241.12
765.69	240.88
766.02	240.64
766.34	240.17
766.67	238.86
767.00	238.93
767.32	239.83
767.65	240.76
767.97	240.52
768.30	240.60
768.62	240.45
768.95	240.02
769.27	240.07
769.60	240.33
769.92	239.79
770.25	238.93
770.57	238.29
770.90	237.81
771.22	237.43
771.55	237.21
771.87	237.05
772.20	236.64
772.52	238.12
772.85	240.33
773.17	239.83
773.50	239.62
773.82	239.02
774.15	237.62
774.47	235.95
774.80	235.45
775.12	235.10
775.45	234.95
775.77	234.62
776.09	234.57
776.42	234.02
776.74	234.29
777.07	233.95
777.39	233.90
777.72	233.55
778.04	233.50
778.36	233.05
778.69	232.93
779.01	233.12
779.33	231.19
779.66	228.64
779.98	228.24
780.31	228.14
780.63	228.88
780.95	229.10
781.28	228.95
781.60	228.62
781.92	228.36
782.25	228.02
782.57	228.05
782.89	227.64
783.22	227.38
783.54	226.79
783.86	226.88
784.19	226.64
784.51	227.21
784.83	226.64
