SpectraSuite Data File
++++++++++++++++++++++++++++++++++++
Date: Tue Apr 02 18:44:31 EDT 2013
User: group
Dark Spectrum Present: No
Reference Spectrum Present: No
Number of Sampled Component Spectra: 1
Spectrometers: USB2E7196
Integration Time (usec): 580000 (USB2E7196)
Spectra Averaged: 2 (USB2E7196)
Boxcar Smoothing: 10 (USB2E7196)
Correct for Electrical Dark: No (USB2E7196)
Strobe/Lamp Enabled: No (USB2E7196)
Correct for Detector Non-linearity: No (USB2E7196)
Correct for Stray Light: No (USB2E7196)
Number of Pixels in Processed Spectrum: 2048
>>>>>Begin Processed Spectral Data<<<<<
339.09	0.00
339.48	194.00
339.86	195.00
340.24	191.50
340.63	199.00
341.01	231.50
341.39	201.00
341.78	208.00
342.16	209.50
342.54	207.50
342.93	198.02
343.31	207.88
343.69	208.50
344.07	208.93
344.46	210.05
344.84	210.50
345.22	209.26
345.60	209.71
345.99	209.86
346.37	209.88
346.75	209.76
347.13	209.71
347.52	210.07
347.90	210.86
348.28	211.10
348.66	211.74
349.05	211.12
349.43	211.36
349.81	211.60
350.19	211.52
350.57	211.67
350.96	211.88
351.34	212.12
351.72	212.31
352.10	212.29
352.48	212.12
352.87	212.12
353.25	212.24
353.63	212.02
354.01	212.07
354.39	212.12
354.77	212.43
355.15	213.00
355.54	212.55
355.92	211.83
356.30	211.64
356.68	212.74
357.06	212.81
357.44	212.43
357.82	212.17
358.20	213.21
358.58	213.07
358.97	213.14
359.35	213.45
359.73	213.76
360.11	213.98
360.49	214.17
360.87	214.29
361.25	214.69
361.63	215.33
362.01	215.31
362.39	215.00
362.77	215.31
363.15	215.14
363.53	215.05
363.91	215.07
364.29	215.17
364.67	213.24
365.05	213.36
365.43	213.64
365.81	214.07
366.19	214.07
366.57	214.76
366.95	214.52
367.33	214.12
367.71	214.00
368.09	214.38
368.47	214.12
368.85	214.10
369.23	214.33
369.61	214.00
369.99	214.64
370.37	215.21
370.75	216.05
371.13	215.86
371.51	215.76
371.89	215.93
372.27	216.07
372.65	216.10
373.03	216.19
373.41	215.71
373.78	215.38
374.16	214.21
374.54	213.88
374.92	213.83
375.30	213.93
375.68	213.52
376.06	213.64
376.44	213.52
376.82	213.83
377.19	213.60
377.57	213.26
377.95	212.52
378.33	212.29
378.71	210.86
379.09	211.00
379.47	211.36
379.84	211.26
380.22	211.24
380.60	210.98
380.98	210.81
381.36	211.12
381.73	210.90
382.11	211.40
382.49	211.29
382.87	211.10
383.25	211.05
383.62	213.50
384.00	213.21
384.38	213.33
384.76	213.38
385.13	214.31
385.51	214.43
385.89	214.21
386.27	214.38
386.64	214.93
387.02	214.69
387.40	214.24
387.78	214.31
388.15	214.38
388.53	214.57
388.91	214.52
389.29	214.36
389.66	214.76
390.04	214.50
390.42	214.74
390.79	215.02
391.17	214.93
391.55	212.74
391.92	212.60
392.30	212.93
392.68	212.48
393.05	212.19
393.43	212.43
393.81	212.71
394.18	212.33
394.56	212.36
394.94	212.88
395.31	212.90
395.69	213.71
396.06	214.07
396.44	214.36
396.82	214.57
397.19	215.79
397.57	215.50
397.95	215.86
398.32	215.48
398.70	215.62
399.07	216.07
399.45	216.05
399.82	216.21
400.20	215.90
400.58	216.02
400.95	215.19
401.33	215.26
401.70	216.81
402.08	216.98
402.45	217.00
402.83	217.57
403.20	217.86
403.58	217.50
403.95	217.69
404.33	217.95
404.71	218.17
405.08	219.36
405.46	219.71
405.83	220.02
406.21	220.43
406.58	221.02
406.96	221.31
407.33	221.95
407.70	222.69
408.08	224.90
408.45	225.88
408.83	227.17
409.20	227.98
409.58	227.19
409.95	228.52
410.33	229.48
410.70	229.74
411.08	230.98
411.45	232.05
411.82	232.93
412.20	234.50
412.57	237.00
412.95	236.50
413.32	238.33
413.69	239.74
414.07	241.45
414.44	243.10
414.82	245.19
415.19	247.31
415.56	249.26
415.94	250.67
416.31	253.26
416.68	256.00
417.06	259.60
417.43	263.29
417.81	266.45
418.18	270.24
418.55	273.98
418.93	278.00
419.30	282.36
419.67	286.98
420.04	291.29
420.42	295.21
420.79	302.14
421.16	307.67
421.54	314.55
421.91	320.57
422.28	326.60
422.66	333.33
423.03	341.12
423.40	347.98
423.77	354.86
424.15	362.29
424.52	369.90
424.89	377.67
425.26	385.33
425.64	392.79
426.01	401.02
426.38	409.74
426.75	419.07
427.13	427.79
427.50	437.36
427.87	447.36
428.24	456.93
428.61	465.52
428.99	476.38
429.36	486.62
429.73	497.88
430.10	509.81
430.47	520.86
430.85	531.79
431.22	544.52
431.59	559.24
431.96	571.29
432.33	585.12
432.70	599.05
433.08	615.31
433.45	630.76
433.82	645.98
434.19	663.10
434.56	679.81
434.93	695.55
435.30	711.55
435.68	729.07
436.05	746.52
436.42	763.12
436.79	779.88
437.16	797.24
437.53	815.31
437.90	832.43
438.27	850.52
438.64	868.57
439.01	885.38
439.38	899.40
439.75	914.93
440.13	931.12
440.50	946.76
440.87	959.33
441.24	972.07
441.61	986.90
441.98	997.52
442.35	1009.62
442.72	1023.62
443.09	1036.79
443.46	1044.33
443.83	1049.81
444.20	1054.62
444.57	1059.81
444.94	1062.24
445.31	1065.67
445.68	1071.79
446.05	1073.36
446.42	1072.02
446.79	1071.07
447.16	1068.71
447.53	1067.29
447.90	1061.79
448.27	1055.00
448.64	1046.64
449.01	1040.64
449.37	1028.76
449.74	1017.86
450.11	1006.62
450.48	990.98
450.85	975.05
451.22	962.45
451.59	950.79
451.96	939.62
452.33	924.02
452.70	911.05
453.07	893.69
453.43	873.79
453.80	857.24
454.17	841.48
454.54	826.55
454.91	810.67
455.28	794.90
455.65	780.00
456.02	768.98
456.38	756.17
456.75	740.64
457.12	727.81
457.49	715.05
457.86	700.83
458.23	691.45
458.59	680.31
458.96	668.36
459.33	657.57
459.70	646.88
460.07	638.93
460.43	628.60
460.80	620.17
461.17	613.10
461.54	605.14
461.91	597.05
462.27	588.52
462.64	581.57
463.01	574.05
463.38	567.76
463.74	556.79
464.11	549.90
464.48	544.50
464.85	538.24
465.21	534.05
465.58	529.14
465.95	521.90
466.32	516.55
466.68	511.43
467.05	506.64
467.42	501.64
467.78	496.14
468.15	491.19
468.52	487.88
468.88	482.40
469.25	477.57
469.62	474.45
469.98	470.43
470.35	466.86
470.72	463.12
471.08	458.17
471.45	456.00
471.82	453.57
472.18	450.43
472.55	448.19
472.92	444.05
473.28	441.00
473.65	438.64
474.02	435.76
474.38	433.81
474.75	431.50
475.11	429.31
475.48	427.79
475.85	426.52
476.21	424.05
476.58	422.48
476.94	421.40
477.31	420.19
477.67	418.64
478.04	417.52
478.41	416.69
478.77	418.10
479.14	416.17
479.50	415.55
479.87	415.29
480.23	414.74
480.60	414.62
480.96	414.38
481.33	414.95
481.69	415.14
482.06	415.17
482.42	415.67
482.79	415.83
483.15	416.21
483.52	416.98
483.88	417.60
484.25	418.57
484.61	419.10
484.98	419.40
485.34	421.43
485.71	422.90
486.07	424.62
486.44	424.21
486.80	426.07
487.17	427.26
487.53	429.29
487.90	431.43
488.26	434.74
488.62	437.71
488.99	439.60
489.35	442.31
489.72	445.00
490.08	447.50
490.44	450.17
490.81	453.36
491.17	456.43
491.54	459.90
491.90	463.50
492.26	466.95
492.63	471.05
492.99	474.19
493.36	478.10
493.72	482.36
494.08	486.81
494.45	491.76
494.81	496.81
495.17	501.40
495.54	506.43
495.90	510.45
496.26	515.14
496.63	520.50
496.99	525.17
497.35	530.40
497.72	536.67
498.08	542.62
498.44	548.02
498.80	554.52
499.17	560.43
499.53	566.71
499.89	574.14
500.26	581.07
500.62	588.17
500.98	595.21
501.34	602.31
501.71	609.55
502.07	616.90
502.43	624.14
502.79	631.29
503.16	638.60
503.52	646.00
503.88	652.76
504.24	660.40
504.60	668.83
504.97	676.74
505.33	683.76
505.69	692.48
506.05	700.93
506.41	708.60
506.78	716.57
507.14	724.10
507.50	731.40
507.86	739.02
508.22	746.83
508.59	754.12
508.95	761.52
509.31	769.93
509.67	777.48
510.03	785.19
510.39	792.83
510.75	799.88
511.12	807.45
511.48	815.83
511.84	822.43
512.20	829.83
512.56	837.26
512.92	845.07
513.28	852.43
513.64	859.55
514.00	866.38
514.37	873.43
514.73	880.71
515.09	888.48
515.45	894.86
515.81	901.83
516.17	909.14
516.53	916.33
516.89	922.00
517.25	928.93
517.61	935.60
517.97	942.05
518.33	949.19
518.69	955.93
519.05	962.12
519.41	969.07
519.77	975.90
520.13	982.05
520.49	987.10
520.85	992.31
521.21	998.43
521.57	1004.21
521.93	1009.67
522.29	1015.43
522.65	1020.48
523.01	1025.98
523.37	1030.83
523.73	1035.86
524.09	1040.19
524.45	1044.26
524.81	1048.57
525.17	1053.26
525.53	1057.71
525.89	1062.45
526.25	1066.83
526.61	1070.95
526.97	1075.52
527.33	1079.69
527.68	1085.43
528.04	1090.45
528.40	1094.79
528.76	1098.81
529.12	1103.81
529.48	1109.19
529.84	1113.26
530.20	1117.57
530.56	1122.00
530.91	1126.14
531.27	1130.79
531.63	1135.93
531.99	1140.88
532.35	1144.62
532.71	1148.76
533.07	1153.55
533.42	1158.76
533.78	1163.17
534.14	1167.07
534.50	1170.74
534.86	1175.43
535.21	1177.67
535.57	1182.40
535.93	1185.14
536.29	1190.29
536.65	1193.98
537.00	1196.81
537.36	1200.24
537.72	1202.88
538.08	1206.19
538.44	1209.26
538.79	1211.79
539.15	1214.12
539.51	1217.98
539.87	1222.07
540.22	1225.33
540.58	1228.38
540.94	1230.24
541.29	1232.57
541.65	1235.71
542.01	1239.17
542.37	1241.02
542.72	1243.57
543.08	1245.29
543.44	1249.38
543.79	1250.12
544.15	1252.64
544.51	1256.38
544.87	1259.36
545.22	1262.29
545.58	1265.24
545.94	1268.12
546.29	1271.19
546.65	1274.02
547.01	1276.21
547.36	1278.48
547.72	1281.17
548.07	1283.69
548.43	1285.98
548.79	1288.93
549.14	1291.00
549.50	1293.62
549.86	1295.86
550.21	1299.14
550.57	1302.02
550.92	1303.71
551.28	1307.31
551.64	1309.83
551.99	1312.05
552.35	1314.67
552.70	1317.24
553.06	1320.48
553.41	1323.64
553.77	1328.43
554.13	1332.43
554.48	1336.95
554.84	1341.52
555.19	1345.26
555.55	1350.29
555.90	1353.60
556.26	1358.00
556.61	1362.02
556.97	1365.05
557.32	1369.29
557.68	1373.12
558.03	1377.26
558.39	1382.17
558.74	1386.12
559.10	1390.19
559.45	1394.74
559.81	1399.26
560.16	1403.62
560.52	1408.00
560.87	1412.64
561.23	1415.50
561.58	1420.79
561.94	1423.83
562.29	1427.50
562.64	1432.17
563.00	1435.79
563.35	1440.71
563.71	1444.57
564.06	1450.60
564.42	1456.38
564.77	1461.95
565.12	1467.60
565.48	1474.93
565.83	1480.38
566.19	1485.31
566.54	1490.60
566.89	1496.05
567.25	1502.55
567.60	1510.57
567.96	1518.43
568.31	1525.36
568.66	1531.67
569.02	1536.50
569.37	1542.33
569.72	1548.48
570.08	1553.90
570.43	1558.88
570.78	1564.98
571.14	1571.40
571.49	1576.00
571.84	1581.95
572.20	1586.55
572.55	1591.57
572.90	1594.07
573.26	1598.71
573.61	1604.64
573.96	1610.19
574.31	1614.83
574.67	1619.33
575.02	1621.62
575.37	1622.74
575.72	1625.33
576.08	1629.26
576.43	1632.60
576.78	1635.79
577.13	1639.29
577.49	1642.62
577.84	1647.33
578.19	1651.21
578.54	1654.67
578.90	1658.64
579.25	1661.14
579.60	1664.55
579.95	1667.57
580.30	1672.05
580.66	1675.81
581.01	1679.14
581.36	1681.57
581.71	1685.52
582.06	1688.69
582.42	1692.33
582.77	1696.24
583.12	1700.69
583.47	1704.02
583.82	1707.93
584.17	1711.17
584.53	1714.21
584.88	1717.64
585.23	1720.62
585.58	1722.79
585.93	1725.00
586.28	1727.60
586.63	1731.17
586.98	1734.33
587.34	1738.64
587.69	1739.60
588.04	1741.83
588.39	1743.81
588.74	1745.74
589.09	1747.50
589.44	1747.69
589.79	1750.21
590.14	1752.36
590.49	1753.64
590.84	1754.67
591.19	1756.38
591.54	1758.93
591.89	1760.24
592.25	1762.69
592.60	1763.07
592.95	1765.36
593.30	1767.40
593.65	1768.67
594.00	1768.81
594.35	1775.05
594.70	1774.33
595.05	1775.81
595.40	1777.60
595.75	1778.38
596.10	1780.36
596.45	1781.57
596.80	1783.62
597.15	1783.40
597.50	1783.57
597.85	1784.67
598.19	1784.81
598.54	1784.55
598.89	1784.38
599.24	1784.83
599.59	1784.21
599.94	1784.62
600.29	1783.67
600.64	1783.88
600.99	1784.33
601.34	1785.52
601.69	1780.67
602.04	1780.12
602.39	1779.76
602.74	1778.86
603.08	1778.57
603.43	1778.67
603.78	1776.62
604.13	1776.14
604.48	1775.38
604.83	1775.26
605.18	1774.50
605.53	1774.95
605.87	1774.86
606.22	1774.55
606.57	1773.14
606.92	1771.00
607.27	1770.50
607.62	1770.40
607.96	1768.69
608.31	1768.07
608.66	1766.81
609.01	1764.64
609.36	1764.40
609.70	1763.64
610.05	1761.33
610.40	1759.69
610.75	1756.95
611.10	1755.64
611.44	1752.19
611.79	1750.76
612.14	1748.31
612.49	1744.48
612.83	1741.62
613.18	1738.64
613.53	1735.07
613.88	1731.95
614.22	1729.05
614.57	1724.55
614.92	1720.50
615.27	1717.17
615.61	1712.21
615.96	1708.05
616.31	1704.69
616.65	1701.98
617.00	1699.67
617.35	1697.07
617.70	1693.57
618.04	1690.24
618.39	1686.79
618.74	1683.83
619.08	1679.90
619.43	1676.67
619.78	1674.17
620.12	1670.50
620.47	1666.40
620.82	1662.90
621.16	1658.76
621.51	1657.00
621.85	1653.24
622.20	1649.45
622.55	1645.19
622.89	1642.10
623.24	1638.95
623.59	1634.52
623.93	1630.07
624.28	1624.67
624.62	1622.19
624.97	1619.71
625.32	1615.64
625.66	1611.48
626.01	1607.48
626.35	1604.26
626.70	1600.10
627.04	1596.43
627.39	1592.71
627.73	1589.90
628.08	1586.98
628.43	1583.90
628.77	1579.26
629.12	1576.57
629.46	1573.62
629.81	1569.86
630.15	1565.31
630.50	1560.43
630.84	1556.67
631.19	1551.10
631.53	1546.86
631.88	1540.45
632.22	1533.52
632.57	1529.36
632.91	1524.17
633.26	1520.29
633.60	1514.67
633.95	1509.24
634.29	1503.98
634.64	1499.21
634.98	1493.62
635.32	1489.36
635.67	1485.02
636.01	1480.05
636.36	1474.05
636.70	1469.29
637.05	1464.83
637.39	1460.55
637.73	1456.76
638.08	1453.29
638.42	1449.55
638.77	1445.60
639.11	1440.86
639.45	1436.29
639.80	1430.43
640.14	1426.14
640.49	1420.69
640.83	1416.02
641.17	1412.69
641.52	1407.17
641.86	1401.45
642.20	1397.29
642.55	1390.43
642.89	1384.67
643.23	1378.88
643.58	1374.83
643.92	1368.79
644.26	1362.79
644.61	1357.43
644.95	1350.76
645.29	1344.71
645.64	1338.86
645.98	1332.31
646.32	1327.31
646.66	1321.19
647.01	1315.48
647.35	1310.62
647.69	1304.95
648.04	1299.33
648.38	1292.45
648.72	1287.55
649.06	1281.69
649.41	1275.24
649.75	1269.64
650.09	1263.50
650.43	1257.12
650.78	1250.43
651.12	1244.12
651.46	1237.71
651.80	1230.88
652.14	1224.55
652.49	1218.45
652.83	1212.02
653.17	1205.62
653.51	1199.12
653.85	1193.86
654.20	1187.86
654.54	1179.86
654.88	1173.43
655.22	1167.19
655.56	1160.88
655.90	1153.76
656.25	1148.14
656.59	1141.55
656.93	1134.86
657.27	1129.74
657.61	1123.90
657.95	1118.17
658.29	1112.24
658.64	1106.48
658.98	1100.33
659.32	1093.81
659.66	1086.90
660.00	1081.05
660.34	1074.69
660.68	1068.07
661.02	1060.86
661.36	1053.86
661.70	1048.43
662.05	1042.21
662.39	1035.86
662.73	1030.00
663.07	1025.19
663.41	1018.17
663.75	1012.05
664.09	1006.40
664.43	999.29
664.77	993.26
665.11	986.74
665.45	980.48
665.79	975.48
666.13	969.64
666.47	964.81
666.81	958.71
667.15	952.24
667.49	947.07
667.83	942.17
668.17	937.43
668.51	933.00
668.85	927.40
669.19	923.05
669.53	917.60
669.87	911.36
670.21	904.79
670.55	899.10
670.89	893.90
671.23	889.00
671.57	883.50
671.91	878.07
672.25	872.55
672.58	867.86
672.92	861.17
673.26	855.83
673.60	849.88
673.94	844.71
674.28	839.86
674.62	834.86
674.96	828.86
675.30	823.45
675.64	817.79
675.97	812.33
676.31	806.55
676.65	800.64
676.99	796.74
677.33	791.14
677.67	786.74
678.01	781.24
678.34	776.05
678.68	771.55
679.02	766.43
679.36	761.38
679.70	756.12
680.04	751.79
680.37	746.36
680.71	741.14
681.05	736.07
681.39	731.07
681.73	725.24
682.06	720.12
682.40	715.62
682.74	711.26
683.08	707.76
683.42	702.33
683.75	698.62
684.09	693.00
684.43	688.69
684.77	683.62
685.10	678.98
685.44	674.29
685.78	669.71
686.12	665.29
686.45	660.79
686.79	656.12
687.13	651.74
687.46	647.83
687.80	644.12
688.14	639.93
688.48	636.17
688.81	632.93
689.15	629.55
689.49	624.93
689.82	620.40
690.16	615.07
690.50	611.00
690.83	605.98
691.17	601.50
691.51	597.29
691.84	593.43
692.18	589.67
692.52	585.71
692.85	581.86
693.19	578.52
693.52	574.69
693.86	570.24
694.20	566.38
694.53	562.62
694.87	558.57
695.21	554.40
695.54	550.43
695.88	545.52
696.21	541.02
696.55	537.07
696.88	533.31
697.22	529.76
697.56	526.19
697.89	522.71
698.23	519.79
698.56	516.17
698.90	512.74
699.23	508.55
699.57	504.52
699.90	500.71
700.24	496.74
700.58	493.52
700.91	490.45
701.25	488.64
701.58	485.69
701.92	482.71
702.25	479.93
702.59	476.05
702.92	473.26
703.26	470.10
703.59	467.19
703.93	466.10
704.26	463.12
704.60	460.55
704.93	457.71
705.26	454.19
705.60	451.67
705.93	448.43
706.27	446.40
706.60	444.36
706.94	442.29
707.27	439.10
707.61	436.40
707.94	433.69
708.27	428.88
708.61	425.50
708.94	422.74
709.28	420.43
709.61	418.05
709.94	415.79
710.28	413.40
710.61	410.98
710.95	406.76
711.28	405.76
711.61	403.31
711.95	401.40
712.28	398.90
712.61	396.40
712.95	395.43
713.28	393.79
713.61	391.48
713.95	388.81
714.28	387.10
714.61	384.90
714.95	382.67
715.28	380.76
715.61	379.00
715.95	376.90
716.28	374.52
716.61	372.81
716.95	370.62
717.28	368.50
717.61	366.40
717.94	364.33
718.28	360.71
718.61	358.55
718.94	356.29
719.27	354.50
719.61	352.76
719.94	350.14
720.27	347.26
720.60	345.02
720.94	343.29
721.27	341.55
721.60	340.12
721.93	338.57
722.27	337.98
722.60	336.36
722.93	334.60
723.26	333.19
723.59	331.50
723.93	330.52
724.26	329.45
724.59	328.05
724.92	326.69
725.25	325.69
725.59	324.43
725.92	323.31
726.25	322.26
726.58	320.95
726.91	319.98
727.24	319.21
727.57	318.12
727.91	316.57
728.24	315.74
728.57	314.43
728.90	313.43
729.23	311.45
729.56	311.38
729.89	310.55
730.22	309.26
730.55	308.29
730.89	306.71
731.22	305.45
731.55	304.26
731.88	303.33
732.21	302.26
732.54	301.24
732.87	300.12
733.20	299.17
733.53	298.43
733.86	297.36
734.19	296.00
734.52	295.43
734.85	296.10
735.18	294.76
735.51	294.55
735.84	293.69
736.17	293.19
736.50	291.26
736.83	292.57
737.16	291.81
737.49	290.95
737.82	290.26
738.15	289.74
738.48	289.00
738.81	288.21
739.14	287.24
739.47	286.26
739.80	285.43
740.13	284.86
740.46	283.83
740.79	282.83
741.12	282.12
741.45	281.02
741.78	279.10
742.11	278.76
742.44	277.17
742.77	276.76
743.10	275.79
743.43	274.90
743.75	272.12
744.08	274.07
744.41	273.24
744.74	272.36
745.07	271.29
745.40	270.95
745.73	271.00
746.06	270.33
746.39	269.79
746.71	268.98
747.04	268.00
747.37	267.14
747.70	266.57
748.03	266.12
748.36	265.64
748.68	264.81
749.01	263.67
749.34	263.02
749.67	262.43
750.00	262.26
750.33	263.24
750.65	262.93
750.98	259.62
751.31	258.98
751.64	258.69
751.97	259.43
752.29	258.71
752.62	257.17
752.95	256.57
753.28	255.81
753.60	255.33
753.93	255.55
754.26	254.88
754.59	254.12
754.91	253.24
755.24	252.74
755.57	252.38
755.90	251.83
756.22	251.50
756.55	250.67
756.88	249.52
757.20	247.67
757.53	246.31
757.86	245.88
758.19	245.69
758.51	245.36
758.84	243.67
759.17	243.07
759.49	243.02
759.82	243.76
760.15	243.88
760.47	243.38
760.80	242.21
761.13	242.64
761.45	242.10
761.78	241.86
762.11	241.62
762.43	240.81
762.76	240.40
763.08	240.19
763.41	240.19
763.74	240.17
764.06	239.93
764.39	239.98
764.71	239.62
765.04	239.14
765.37	238.52
765.69	238.43
766.02	238.07
766.34	237.43
766.67	236.12
767.00	236.00
767.32	236.93
767.65	237.98
767.97	237.14
768.30	236.98
768.62	236.86
768.95	236.26
769.27	236.21
769.60	236.43
769.92	235.81
770.25	234.90
770.57	234.29
770.90	233.95
771.22	233.43
771.55	233.29
771.87	233.10
772.20	232.60
772.52	233.86
772.85	236.02
773.17	236.14
773.50	235.98
773.82	235.33
774.15	234.07
774.47	232.38
774.80	232.40
775.12	232.31
775.45	231.95
775.77	231.86
776.09	231.74
776.42	231.36
776.74	232.00
777.07	231.81
777.39	231.88
777.72	231.50
778.04	231.62
778.36	231.10
778.69	231.02
779.01	231.10
779.33	229.45
779.66	226.95
779.98	226.52
780.31	226.43
780.63	227.36
780.95	227.62
781.28	227.71
781.60	227.24
781.92	227.12
782.25	227.12
782.57	226.90
782.89	226.69
783.22	226.69
783.54	226.17
783.86	226.24
784.19	225.98
784.51	226.48
784.83	226.02
785.16	225.83
