SpectraSuite Data File
++++++++++++++++++++++++++++++++++++
Date: Tue Apr 02 18:42:18 EDT 2013
User: group
Dark Spectrum Present: No
Reference Spectrum Present: No
Number of Sampled Component Spectra: 1
Spectrometers: USB2E7196
Integration Time (usec): 580000 (USB2E7196)
Spectra Averaged: 2 (USB2E7196)
Boxcar Smoothing: 10 (USB2E7196)
Correct for Electrical Dark: No (USB2E7196)
Strobe/Lamp Enabled: No (USB2E7196)
Correct for Detector Non-linearity: No (USB2E7196)
Correct for Stray Light: No (USB2E7196)
Number of Pixels in Processed Spectrum: 2048
>>>>>Begin Processed Spectral Data<<<<<
339.09	0.00
339.48	193.00
339.86	196.00
340.24	201.00
340.63	198.00
341.01	234.00
341.39	204.50
341.78	210.00
342.16	208.50
342.54	205.00
342.93	198.43
343.31	208.24
343.69	208.95
344.07	209.33
344.46	210.00
344.84	210.43
345.22	209.36
345.60	209.67
345.99	209.76
346.37	209.88
346.75	210.10
347.13	210.17
347.52	210.14
347.90	211.02
348.28	211.00
348.66	211.31
349.05	210.74
349.43	210.90
349.81	211.12
350.19	211.07
350.57	211.31
350.96	211.60
351.34	211.98
351.72	212.07
352.10	212.36
352.48	212.19
352.87	212.14
353.25	211.98
353.63	212.00
354.01	211.86
354.39	212.00
354.77	211.86
355.15	212.45
355.54	212.26
355.92	211.60
356.30	211.67
356.68	213.10
357.06	213.43
357.44	213.19
357.82	213.19
358.20	214.19
358.58	214.00
358.97	213.93
359.35	214.21
359.73	214.40
360.11	214.38
360.49	214.29
360.87	214.52
361.25	214.69
361.63	215.26
362.01	215.29
362.39	215.24
362.77	215.55
363.15	215.48
363.53	215.55
363.91	215.74
364.29	215.79
364.67	213.74
365.05	213.69
365.43	214.05
365.81	214.07
366.19	214.36
366.57	215.29
366.95	215.17
367.33	214.62
367.71	214.69
368.09	215.17
368.47	215.21
368.85	215.12
369.23	215.69
369.61	214.93
369.99	215.62
370.37	215.64
370.75	216.74
371.13	216.02
371.51	215.50
371.89	215.55
372.27	215.67
372.65	215.98
373.03	216.19
373.41	215.93
373.78	216.17
374.16	215.12
374.54	214.40
374.92	214.40
375.30	214.50
375.68	214.07
376.06	214.05
376.44	214.07
376.82	214.10
377.19	214.05
377.57	213.95
377.95	213.29
378.33	213.14
378.71	211.83
379.09	212.36
379.47	212.88
379.84	213.05
380.22	212.95
380.60	212.71
380.98	212.40
381.36	212.50
381.73	212.05
382.11	212.33
382.49	212.33
382.87	212.24
383.25	212.17
383.62	214.71
384.00	214.26
384.38	214.05
384.76	214.74
385.13	215.24
385.51	215.38
385.89	215.19
386.27	215.26
386.64	215.71
387.02	215.57
387.40	215.64
387.78	215.48
388.15	215.52
388.53	215.43
388.91	215.83
389.29	215.55
389.66	215.76
390.04	215.26
390.42	215.50
390.79	215.69
391.17	215.79
391.55	213.48
391.92	213.83
392.30	214.36
392.68	213.81
393.05	213.86
393.43	213.86
393.81	213.95
394.18	213.76
394.56	213.64
394.94	213.95
395.31	213.71
395.69	214.45
396.06	214.83
396.44	215.00
396.82	214.62
397.19	215.86
397.57	215.93
397.95	216.50
398.32	216.19
398.70	216.24
399.07	216.55
399.45	216.60
399.82	216.24
400.20	215.98
400.58	215.76
400.95	214.90
401.33	215.57
401.70	217.33
402.08	217.55
402.45	217.67
402.83	218.14
403.20	218.38
403.58	218.26
403.95	218.62
404.33	219.19
404.71	219.62
405.08	220.79
405.46	221.17
405.83	221.60
406.21	222.10
406.58	222.55
406.96	222.95
407.33	223.55
407.70	224.45
408.08	226.52
408.45	227.55
408.83	228.62
409.20	228.98
409.58	228.38
409.95	229.50
410.33	230.36
410.70	230.57
411.08	231.93
411.45	232.81
411.82	233.55
412.20	235.00
412.57	237.26
412.95	236.62
413.32	238.14
413.69	239.48
414.07	241.05
414.44	242.86
414.82	245.05
415.19	247.52
415.56	249.55
415.94	250.90
416.31	254.07
416.68	256.74
417.06	260.02
417.43	263.60
417.81	267.00
418.18	270.76
418.55	274.50
418.93	278.50
419.30	282.71
419.67	287.21
420.04	291.62
420.42	295.88
420.79	303.29
421.16	309.07
421.54	316.36
421.91	322.81
422.28	329.21
422.66	335.62
423.03	343.50
423.40	350.71
423.77	358.00
424.15	365.21
424.52	373.29
424.89	381.88
425.26	390.05
425.64	397.69
426.01	406.12
426.38	415.55
426.75	425.02
427.13	434.64
427.50	444.38
427.87	454.33
428.24	464.48
428.61	472.98
428.99	484.21
429.36	494.86
429.73	506.45
430.10	518.10
430.47	530.17
430.85	541.00
431.22	553.90
431.59	569.24
431.96	582.33
432.33	596.67
432.70	610.31
433.08	626.71
433.45	642.17
433.82	657.33
434.19	673.98
434.56	690.83
434.93	706.10
435.30	722.38
435.68	740.26
436.05	757.57
436.42	774.19
436.79	790.33
437.16	807.36
437.53	825.00
437.90	843.26
438.27	861.48
438.64	878.93
439.01	896.10
439.38	909.83
439.75	923.76
440.13	940.76
440.50	957.19
440.87	969.67
441.24	983.52
441.61	999.10
441.98	1010.36
442.35	1022.17
442.72	1035.83
443.09	1049.10
443.46	1057.12
443.83	1062.05
444.20	1067.88
444.57	1073.69
444.94	1076.86
445.31	1080.29
445.68	1085.24
446.05	1086.00
446.42	1085.64
446.79	1084.14
447.16	1082.60
447.53	1081.95
447.90	1074.86
448.27	1068.29
448.64	1059.48
449.01	1053.48
449.37	1041.88
449.74	1030.86
450.11	1019.76
450.48	1004.76
450.85	989.02
451.22	976.21
451.59	964.86
451.96	952.38
452.33	936.98
452.70	922.60
453.07	905.95
453.43	887.12
453.80	870.45
454.17	854.36
454.54	839.02
454.91	822.12
455.28	805.98
455.65	791.76
456.02	779.90
456.38	767.10
456.75	750.95
457.12	737.12
457.49	723.88
457.86	709.21
458.23	699.31
458.59	687.31
458.96	674.83
459.33	663.57
459.70	653.17
460.07	644.71
460.43	635.36
460.80	626.38
461.17	618.31
461.54	610.36
461.91	601.93
462.27	593.36
462.64	586.19
463.01	579.10
463.38	571.76
463.74	561.00
464.11	554.74
464.48	549.07
464.85	542.69
465.21	538.60
465.58	533.69
465.95	526.69
466.32	521.79
466.68	516.86
467.05	511.98
467.42	506.81
467.78	501.38
468.15	496.60
468.52	492.64
468.88	486.71
469.25	482.07
469.62	478.95
469.98	474.71
470.35	470.88
470.72	467.17
471.08	462.69
471.45	459.60
471.82	456.83
472.18	452.71
472.55	450.57
472.92	446.76
473.28	443.81
473.65	441.24
474.02	438.29
474.38	435.62
474.75	433.83
475.11	431.48
475.48	429.57
475.85	427.40
476.21	425.33
476.58	424.48
476.94	423.40
477.31	421.93
477.67	421.00
478.04	420.07
478.41	418.95
478.77	420.24
479.14	419.31
479.50	418.14
479.87	418.12
480.23	417.55
480.60	417.19
480.96	417.14
481.33	417.81
481.69	417.88
482.06	418.31
482.42	418.74
482.79	419.43
483.15	419.86
483.52	420.88
483.88	421.31
484.25	422.07
484.61	422.50
484.98	423.05
485.34	424.81
485.71	426.12
486.07	427.57
486.44	427.14
486.80	428.52
487.17	429.93
487.53	432.76
487.90	435.07
488.26	437.95
488.62	440.52
488.99	442.31
489.35	445.05
489.72	447.74
490.08	450.10
490.44	453.00
490.81	456.36
491.17	458.90
491.54	462.79
491.90	466.50
492.26	470.00
492.63	474.10
492.99	477.60
493.36	482.02
493.72	486.52
494.08	490.88
494.45	495.76
494.81	500.64
495.17	504.74
495.54	509.67
495.90	514.17
496.26	519.19
496.63	525.10
496.99	530.60
497.35	536.40
497.72	542.62
498.08	548.38
498.44	554.07
498.80	561.45
499.17	567.50
499.53	573.31
499.89	580.64
500.26	587.17
500.62	594.10
500.98	601.02
501.34	607.76
501.71	615.48
502.07	622.43
502.43	629.83
502.79	636.67
503.16	643.62
503.52	650.45
503.88	657.55
504.24	665.02
504.60	672.45
504.97	680.00
505.33	687.52
505.69	696.74
506.05	704.71
506.41	711.93
506.78	719.48
507.14	727.05
507.50	734.74
507.86	742.74
508.22	750.76
508.59	757.88
508.95	766.07
509.31	774.40
509.67	782.36
510.03	789.26
510.39	797.36
510.75	805.33
511.12	813.36
511.48	820.98
511.84	828.12
512.20	835.93
512.56	843.69
512.92	851.12
513.28	857.55
513.64	864.74
514.00	871.60
514.37	879.33
514.73	886.86
515.09	894.31
515.45	901.07
515.81	907.95
516.17	914.95
516.53	920.98
516.89	926.86
517.25	933.48
517.61	941.69
517.97	948.33
518.33	954.81
518.69	962.00
519.05	969.26
519.41	975.43
519.77	983.24
520.13	989.19
520.49	994.95
520.85	1000.88
521.21	1007.95
521.57	1014.64
521.93	1019.81
522.29	1026.14
522.65	1030.64
523.01	1036.57
523.37	1041.83
523.73	1047.76
524.09	1053.07
524.45	1057.81
524.81	1063.07
525.17	1068.14
525.53	1073.57
525.89	1078.48
526.25	1083.45
526.61	1087.40
526.97	1092.00
527.33	1095.60
527.68	1101.67
528.04	1106.48
528.40	1110.57
528.76	1114.19
529.12	1118.02
529.48	1123.10
529.84	1127.21
530.20	1132.31
530.56	1136.86
530.91	1141.00
531.27	1146.10
531.63	1150.48
531.99	1154.79
532.35	1158.24
532.71	1161.76
533.07	1166.95
533.42	1173.81
533.78	1177.60
534.14	1182.52
534.50	1186.83
534.86	1191.50
535.21	1194.36
535.57	1198.50
535.93	1202.24
536.29	1206.88
536.65	1211.24
537.00	1215.05
537.36	1218.74
537.72	1222.50
538.08	1225.83
538.44	1229.31
538.79	1232.10
539.15	1235.86
539.51	1240.43
539.87	1245.36
540.22	1248.60
540.58	1250.86
540.94	1252.02
541.29	1254.83
541.65	1256.86
542.01	1260.10
542.37	1262.64
542.72	1264.81
543.08	1267.50
543.44	1271.02
543.79	1272.79
544.15	1275.95
544.51	1279.29
544.87	1282.98
545.22	1286.00
545.58	1289.79
545.94	1293.17
546.29	1296.31
546.65	1299.55
547.01	1301.93
547.36	1304.81
547.72	1307.40
548.07	1310.55
548.43	1313.24
548.79	1315.38
549.14	1318.69
549.50	1321.71
549.86	1323.98
550.21	1326.69
550.57	1329.95
550.92	1333.21
551.28	1336.74
551.64	1339.67
551.99	1341.98
552.35	1343.81
552.70	1346.50
553.06	1349.17
553.41	1352.21
553.77	1357.00
554.13	1360.29
554.48	1364.12
554.84	1367.50
555.19	1371.71
555.55	1376.21
555.90	1379.83
556.26	1384.74
556.61	1388.36
556.97	1392.12
557.32	1396.40
557.68	1401.31
558.03	1404.48
558.39	1408.17
558.74	1412.26
559.10	1416.10
559.45	1420.86
559.81	1425.43
560.16	1429.71
560.52	1434.45
560.87	1439.21
561.23	1441.86
561.58	1447.60
561.94	1452.02
562.29	1456.43
562.64	1461.26
563.00	1465.02
563.35	1469.79
563.71	1474.36
564.06	1479.50
564.42	1484.69
564.77	1489.81
565.12	1495.79
565.48	1503.88
565.83	1509.55
566.19	1514.67
566.54	1519.93
566.89	1525.40
567.25	1532.45
567.60	1539.14
567.96	1545.81
568.31	1553.02
568.66	1559.64
569.02	1564.05
569.37	1568.57
569.72	1574.36
570.08	1579.88
570.43	1584.62
570.78	1590.90
571.14	1596.62
571.49	1601.60
571.84	1606.29
572.20	1610.86
572.55	1615.64
572.90	1618.33
573.26	1622.98
573.61	1628.10
573.96	1632.12
574.31	1635.98
574.67	1639.31
575.02	1642.60
575.37	1644.71
575.72	1645.93
576.08	1649.17
576.43	1652.76
576.78	1656.95
577.13	1660.29
577.49	1664.07
577.84	1669.05
578.19	1671.07
578.54	1674.79
578.90	1679.31
579.25	1682.79
579.60	1685.95
579.95	1688.38
580.30	1691.98
580.66	1694.86
581.01	1697.60
581.36	1701.31
581.71	1704.83
582.06	1708.71
582.42	1711.98
582.77	1714.64
583.12	1718.43
583.47	1721.62
583.82	1724.19
584.17	1727.36
584.53	1731.14
584.88	1733.45
585.23	1734.86
585.58	1737.50
585.93	1738.86
586.28	1740.45
586.63	1742.71
586.98	1744.93
587.34	1748.05
587.69	1750.14
588.04	1752.76
588.39	1755.19
588.74	1755.95
589.09	1757.71
589.44	1758.12
589.79	1760.24
590.14	1762.38
590.49	1762.64
590.84	1763.24
591.19	1765.71
591.54	1766.81
591.89	1766.83
592.25	1769.83
592.60	1770.76
592.95	1771.83
593.30	1774.14
593.65	1774.67
594.00	1774.98
594.35	1782.38
594.70	1782.19
595.05	1783.02
595.40	1782.98
595.75	1783.29
596.10	1785.05
596.45	1785.64
596.80	1785.93
597.15	1785.60
597.50	1785.69
597.85	1787.64
598.19	1787.81
598.54	1786.67
598.89	1786.95
599.24	1787.62
599.59	1785.62
599.94	1785.55
600.29	1786.05
600.64	1785.12
600.99	1785.48
601.34	1785.79
601.69	1778.98
602.04	1777.74
602.39	1776.48
602.74	1777.12
603.08	1776.21
603.43	1777.50
603.78	1776.95
604.13	1775.83
604.48	1775.29
604.83	1775.31
605.18	1774.48
605.53	1773.43
605.87	1771.88
606.22	1770.02
606.57	1767.05
606.92	1765.33
607.27	1764.69
607.62	1764.19
607.96	1763.36
608.31	1762.38
608.66	1761.52
609.01	1759.76
609.36	1759.81
609.70	1758.38
610.05	1755.40
610.40	1753.21
610.75	1748.81
611.10	1747.12
611.44	1745.17
611.79	1741.86
612.14	1739.07
612.49	1735.14
612.83	1732.02
613.18	1729.76
613.53	1726.55
613.88	1723.86
614.22	1720.50
614.57	1715.81
614.92	1710.43
615.27	1705.83
615.61	1701.02
615.96	1696.90
616.31	1693.14
616.65	1689.19
617.00	1686.00
617.35	1681.86
617.70	1678.07
618.04	1673.95
618.39	1668.86
618.74	1665.14
619.08	1661.81
619.43	1657.48
619.78	1653.45
620.12	1650.55
620.47	1647.14
620.82	1642.95
621.16	1638.50
621.51	1635.26
621.85	1631.00
622.20	1627.02
622.55	1622.83
622.89	1618.83
623.24	1614.02
623.59	1609.95
623.93	1605.48
624.28	1600.38
624.62	1598.24
624.97	1595.50
625.32	1591.90
625.66	1587.24
626.01	1582.62
626.35	1578.33
626.70	1573.86
627.04	1571.55
627.39	1566.24
627.73	1561.98
628.08	1558.45
628.43	1554.55
628.77	1549.55
629.12	1546.12
629.46	1542.55
629.81	1538.14
630.15	1533.24
630.50	1528.45
630.84	1523.33
631.19	1517.43
631.53	1512.86
631.88	1505.31
632.22	1498.71
632.57	1493.40
632.91	1488.43
633.26	1483.93
633.60	1477.71
633.95	1472.36
634.29	1465.10
634.64	1460.83
634.98	1454.81
635.32	1450.00
635.67	1445.64
636.01	1441.40
636.36	1435.50
636.70	1430.90
637.05	1425.52
637.39	1421.05
637.73	1416.79
638.08	1412.52
638.42	1408.19
638.77	1403.29
639.11	1399.00
639.45	1393.57
639.80	1387.64
640.14	1382.76
640.49	1376.19
640.83	1370.57
641.17	1365.26
641.52	1360.07
641.86	1354.38
642.20	1349.71
642.55	1342.74
642.89	1335.93
643.23	1329.02
643.58	1324.36
643.92	1316.62
644.26	1310.19
644.61	1304.26
644.95	1298.02
645.29	1290.86
645.64	1284.83
645.98	1277.52
646.32	1271.69
646.66	1264.95
647.01	1258.43
647.35	1252.12
647.69	1246.38
648.04	1241.00
648.38	1234.36
648.72	1228.24
649.06	1221.10
649.41	1213.95
649.75	1207.83
650.09	1201.38
650.43	1194.76
650.78	1187.26
651.12	1181.05
651.46	1175.43
651.80	1168.62
652.14	1161.90
652.49	1156.31
652.83	1149.74
653.17	1143.76
653.51	1135.81
653.85	1130.45
654.20	1124.17
654.54	1116.48
654.88	1109.64
655.22	1103.48
655.56	1096.69
655.90	1090.26
656.25	1083.31
656.59	1077.29
656.93	1070.79
657.27	1065.14
657.61	1058.57
657.95	1052.24
658.29	1046.07
658.64	1040.60
658.98	1033.74
659.32	1026.17
659.66	1019.43
660.00	1012.38
660.34	1005.57
660.68	999.31
661.02	992.26
661.36	985.60
661.70	980.02
662.05	974.31
662.39	967.62
662.73	962.43
663.07	957.19
663.41	951.52
663.75	945.10
664.09	939.24
664.43	932.71
664.77	926.88
665.11	921.12
665.45	915.69
665.79	908.83
666.13	903.12
666.47	897.93
666.81	892.00
667.15	886.64
667.49	882.17
667.83	877.79
668.17	872.24
668.51	866.95
668.85	861.55
669.19	856.74
669.53	851.24
669.87	845.00
670.21	838.57
670.55	832.76
670.89	827.69
671.23	822.14
671.57	817.00
671.91	811.60
672.25	806.64
672.58	801.79
672.92	795.86
673.26	790.67
673.60	785.69
673.94	780.81
674.28	776.02
674.62	770.19
674.96	764.43
675.30	760.10
675.64	755.29
675.97	750.57
676.31	744.98
676.65	739.55
676.99	736.14
677.33	731.24
677.67	727.60
678.01	721.95
678.34	717.62
678.68	713.17
679.02	708.45
679.36	703.71
679.70	698.26
680.04	694.29
680.37	689.55
680.71	685.10
681.05	680.38
681.39	675.29
681.73	670.88
682.06	666.52
682.40	661.90
682.74	658.05
683.08	654.12
683.42	649.76
683.75	646.21
684.09	640.81
684.43	636.07
684.77	631.14
685.10	627.38
685.44	622.33
685.78	617.88
686.12	613.60
686.45	608.69
686.79	604.52
687.13	600.67
687.46	596.64
687.80	592.86
688.14	588.81
688.48	584.93
688.81	580.88
689.15	577.52
689.49	573.24
689.82	569.02
690.16	564.12
690.50	560.17
690.83	556.07
691.17	551.64
691.51	548.43
691.84	544.64
692.18	540.79
692.52	537.76
692.85	534.33
693.19	531.52
693.52	528.19
693.86	524.71
694.20	521.17
694.53	518.07
694.87	514.29
695.21	510.86
695.54	507.43
695.88	503.38
696.21	498.90
696.55	495.55
696.88	492.21
697.22	488.98
697.56	485.50
697.89	481.79
698.23	479.17
698.56	475.48
698.90	472.31
699.23	469.00
699.57	465.48
699.90	461.86
700.24	458.19
700.58	454.79
700.91	451.55
701.25	449.67
701.58	446.98
701.92	444.40
702.25	441.38
702.59	438.64
702.92	436.38
703.26	433.83
703.59	430.93
703.93	429.76
704.26	427.40
704.60	424.69
704.93	422.24
705.26	419.17
705.60	417.05
705.93	414.36
706.27	412.64
706.60	410.67
706.94	409.21
707.27	406.62
707.61	404.90
707.94	402.62
708.27	398.83
708.61	395.76
708.94	393.02
709.28	390.86
709.61	388.33
709.94	386.00
710.28	383.88
710.61	381.79
710.95	377.81
711.28	377.02
711.61	375.02
711.95	373.36
712.28	371.36
712.61	368.98
712.95	368.19
713.28	366.64
713.61	364.31
713.95	361.81
714.28	360.40
714.61	358.36
714.95	356.67
715.28	354.69
715.61	353.14
715.95	351.81
716.28	349.79
716.61	348.52
716.95	346.69
717.28	344.93
717.61	343.31
717.94	341.69
718.28	338.55
718.61	336.74
718.94	334.76
719.27	333.00
719.61	331.60
719.94	329.02
720.27	326.48
720.60	325.05
720.94	323.36
721.27	321.71
721.60	320.40
721.93	318.83
722.27	318.33
722.60	317.31
722.93	315.79
723.26	314.74
723.59	312.95
723.93	312.26
724.26	311.52
724.59	310.02
724.92	309.40
725.25	308.86
725.59	307.64
725.92	307.10
726.25	306.29
726.58	305.45
726.91	304.83
727.24	304.24
727.57	303.26
727.91	302.21
728.24	301.74
728.57	300.10
728.90	299.48
729.23	297.64
729.56	297.40
729.89	296.29
730.22	295.43
730.55	294.62
730.89	293.31
731.22	292.12
731.55	291.29
731.88	290.10
732.21	288.79
732.54	287.90
732.87	286.95
733.20	286.33
733.53	285.48
733.86	284.55
734.19	283.62
734.52	283.02
734.85	283.64
735.18	282.05
735.51	282.36
735.84	281.62
736.17	281.48
736.50	279.93
736.83	281.76
737.16	280.76
737.49	280.02
737.82	279.31
738.15	278.83
738.48	278.21
738.81	277.36
739.14	276.38
739.47	275.64
739.80	274.74
740.13	274.24
740.46	273.12
740.79	271.93
741.12	270.83
741.45	269.93
741.78	268.10
742.11	268.33
742.44	266.95
742.77	266.50
743.10	265.60
743.43	264.76
743.75	261.98
744.08	264.00
744.41	263.36
744.74	262.69
745.07	261.81
745.40	261.64
745.73	261.93
746.06	261.50
746.39	261.43
746.71	260.64
747.04	259.57
747.37	259.02
747.70	259.12
748.03	258.86
748.36	258.60
748.68	258.02
749.01	256.71
749.34	256.38
749.67	255.67
750.00	255.60
750.33	256.57
750.65	256.26
750.98	253.43
751.31	252.98
751.64	252.67
751.97	253.43
752.29	252.67
752.62	251.36
752.95	250.83
753.28	249.93
753.60	249.60
753.93	249.93
754.26	249.81
754.59	248.74
754.91	248.14
755.24	247.48
755.57	246.93
755.90	246.40
756.22	245.79
756.55	245.00
756.88	244.05
757.20	242.17
757.53	241.02
757.86	240.57
758.19	240.36
758.51	239.81
758.84	238.26
759.17	237.86
759.49	237.45
759.82	238.24
760.15	238.12
760.47	237.60
760.80	236.60
761.13	236.52
761.45	236.24
761.78	235.86
762.11	235.69
762.43	235.26
762.76	235.29
763.08	235.36
763.41	235.36
763.74	235.38
764.06	235.00
764.39	235.07
764.71	234.52
765.04	234.29
765.37	233.90
765.69	233.62
766.02	233.24
766.34	233.07
766.67	232.24
767.00	232.33
767.32	233.48
767.65	234.50
767.97	234.07
768.30	233.95
768.62	233.81
768.95	233.38
769.27	233.14
769.60	233.07
769.92	232.60
770.25	232.05
770.57	231.31
770.90	231.50
771.22	231.24
771.55	231.57
771.87	231.26
772.20	231.02
772.52	232.74
772.85	235.10
773.17	235.00
773.50	234.40
773.82	234.02
774.15	232.69
774.47	231.36
774.80	231.00
775.12	230.86
775.45	230.57
775.77	230.67
776.09	230.83
776.42	230.62
776.74	231.10
777.07	231.02
777.39	231.02
777.72	230.57
778.04	230.52
778.36	229.95
778.69	229.86
779.01	230.00
779.33	227.86
779.66	225.43
779.98	224.95
780.31	224.83
780.63	225.43
780.95	225.69
781.28	225.62
781.60	225.40
781.92	225.38
782.25	225.38
782.57	225.12
782.89	224.71
783.22	224.45
783.54	223.74
783.86	223.60
784.19	223.36
784.51	223.93
784.83	223.24
785.16	223.19
