SpectraSuite Data File
++++++++++++++++++++++++++++++++++++
Date: Tue Apr 02 18:43:11 EDT 2013
User: group
Dark Spectrum Present: No
Reference Spectrum Present: No
Number of Sampled Component Spectra: 1
Spectrometers: USB2E7196
Integration Time (usec): 580000 (USB2E7196)
Spectra Averaged: 2 (USB2E7196)
Boxcar Smoothing: 10 (USB2E7196)
Correct for Electrical Dark: No (USB2E7196)
Strobe/Lamp Enabled: No (USB2E7196)
Correct for Detector Non-linearity: No (USB2E7196)
Correct for Stray Light: No (USB2E7196)
Number of Pixels in Processed Spectrum: 2048
>>>>>Begin Processed Spectral Data<<<<<
339.09	0.00
339.48	193.00
339.86	196.00
340.24	200.00
340.63	195.50
341.01	232.00
341.39	206.00
341.78	204.50
342.16	212.00
342.54	205.00
342.93	198.67
343.31	208.43
343.69	209.02
344.07	209.45
344.46	210.17
344.84	210.79
345.22	209.60
345.60	209.79
345.99	210.10
346.37	209.90
346.75	210.10
347.13	210.33
347.52	210.26
347.90	211.24
348.28	211.05
348.66	211.24
349.05	210.74
349.43	210.98
349.81	211.19
350.19	211.02
350.57	211.26
350.96	211.26
351.34	211.50
351.72	211.79
352.10	211.95
352.48	211.48
352.87	211.36
353.25	211.45
353.63	211.40
354.01	211.43
354.39	211.69
354.77	211.71
355.15	212.21
355.54	212.14
355.92	211.19
356.30	211.40
356.68	212.71
357.06	212.79
357.44	212.26
357.82	212.07
358.20	213.19
358.58	213.05
358.97	213.26
359.35	213.62
359.73	213.62
360.11	213.50
360.49	213.71
360.87	213.83
361.25	214.17
361.63	214.93
362.01	215.10
362.39	214.83
362.77	214.93
363.15	214.81
363.53	214.74
363.91	214.93
364.29	214.88
364.67	213.07
365.05	213.05
365.43	213.45
365.81	213.76
366.19	213.86
366.57	214.52
366.95	214.40
367.33	214.02
367.71	213.98
368.09	214.64
368.47	214.52
368.85	214.50
369.23	214.76
369.61	213.93
369.99	214.36
370.37	214.74
370.75	215.79
371.13	215.10
371.51	214.98
371.89	215.19
372.27	215.62
372.65	215.76
373.03	215.93
373.41	215.81
373.78	215.88
374.16	214.93
374.54	214.38
374.92	214.38
375.30	214.55
375.68	214.36
376.06	214.38
376.44	214.83
376.82	214.93
377.19	215.02
377.57	215.07
377.95	214.40
378.33	214.24
378.71	213.00
379.09	213.48
379.47	213.83
379.84	213.69
380.22	213.24
380.60	212.90
380.98	212.71
381.36	212.55
381.73	212.00
382.11	212.50
382.49	212.74
382.87	212.43
383.25	212.24
383.62	214.71
384.00	214.24
384.38	213.86
384.76	214.57
385.13	215.21
385.51	215.31
385.89	215.29
386.27	215.29
386.64	215.62
387.02	215.38
387.40	215.05
387.78	215.00
388.15	215.29
388.53	215.29
388.91	215.36
389.29	215.29
389.66	215.88
390.04	215.57
390.42	215.83
390.79	216.17
391.17	216.19
391.55	213.95
391.92	214.07
392.30	214.36
392.68	213.69
393.05	213.57
393.43	213.62
393.81	213.64
394.18	213.38
394.56	213.24
394.94	213.69
395.31	213.67
395.69	214.29
396.06	214.52
396.44	214.60
396.82	214.40
397.19	215.57
397.57	215.19
397.95	215.48
398.32	215.07
398.70	215.14
399.07	215.69
399.45	215.62
399.82	215.45
400.20	215.21
400.58	215.26
400.95	214.38
401.33	214.88
401.70	216.64
402.08	216.98
402.45	217.17
402.83	217.81
403.20	218.10
403.58	217.98
403.95	218.33
404.33	218.93
404.71	219.40
405.08	220.69
405.46	220.98
405.83	221.48
406.21	221.60
406.58	222.02
406.96	222.07
407.33	222.69
407.70	223.55
408.08	226.12
408.45	227.12
408.83	228.36
409.20	228.67
409.58	227.98
409.95	229.26
410.33	230.19
410.70	230.38
411.08	231.67
411.45	233.07
411.82	233.81
412.20	235.52
412.57	237.74
412.95	237.14
413.32	239.07
413.69	240.26
414.07	241.95
414.44	243.93
414.82	246.19
415.19	248.64
415.56	250.88
415.94	251.55
416.31	254.31
416.68	256.93
417.06	260.24
417.43	264.12
417.81	267.36
418.18	271.21
418.55	274.98
418.93	278.86
419.30	282.67
419.67	287.17
420.04	291.62
420.42	295.93
420.79	303.38
421.16	309.12
421.54	316.19
421.91	322.48
422.28	328.52
422.66	335.00
423.03	342.83
423.40	349.43
423.77	356.86
424.15	364.10
424.52	371.76
424.89	380.38
425.26	387.48
425.64	394.95
426.01	403.19
426.38	412.36
426.75	421.86
427.13	430.81
427.50	440.57
427.87	450.33
428.24	460.48
428.61	469.12
428.99	480.40
429.36	490.74
429.73	502.12
430.10	513.60
430.47	525.31
430.85	536.05
431.22	548.93
431.59	563.88
431.96	576.95
432.33	591.55
432.70	605.17
433.08	621.79
433.45	637.43
433.82	652.62
434.19	669.45
434.56	686.86
434.93	702.93
435.30	718.74
435.68	735.86
436.05	753.29
436.42	769.83
436.79	785.43
437.16	803.00
437.53	820.76
437.90	838.95
438.27	856.93
438.64	874.29
439.01	891.50
439.38	905.40
439.75	919.71
440.13	935.62
440.50	951.83
440.87	964.55
441.24	977.45
441.61	992.40
441.98	1003.57
442.35	1014.40
442.72	1027.07
443.09	1040.90
443.46	1049.05
443.83	1054.14
444.20	1058.98
444.57	1064.52
444.94	1067.12
445.31	1070.74
445.68	1076.64
446.05	1078.52
446.42	1077.48
446.79	1076.24
447.16	1074.55
447.53	1073.55
447.90	1067.55
448.27	1060.14
448.64	1051.43
449.01	1045.81
449.37	1034.62
449.74	1023.12
450.11	1012.36
450.48	998.17
450.85	981.83
451.22	969.17
451.59	957.05
451.96	946.14
452.33	931.69
452.70	918.14
453.07	900.71
453.43	880.21
453.80	863.17
454.17	848.14
454.54	832.81
454.91	816.19
455.28	800.43
455.65	785.10
456.02	774.33
456.38	761.81
456.75	746.14
457.12	732.64
457.49	719.86
457.86	705.74
458.23	695.52
458.59	683.71
458.96	671.74
459.33	660.81
459.70	649.38
460.07	640.50
460.43	630.64
460.80	622.43
461.17	615.55
461.54	607.36
461.91	598.40
462.27	589.62
462.64	582.55
463.01	574.74
463.38	568.17
463.74	557.52
464.11	550.64
464.48	544.67
464.85	538.43
465.21	534.02
465.58	528.81
465.95	522.38
466.32	517.26
466.68	512.07
467.05	507.24
467.42	502.38
467.78	496.98
468.15	491.71
468.52	488.05
468.88	482.12
469.25	477.26
469.62	474.50
469.98	470.90
470.35	467.48
470.72	464.12
471.08	459.88
471.45	456.83
471.82	454.19
472.18	450.43
472.55	447.67
472.92	443.93
473.28	441.07
473.65	438.21
474.02	435.71
474.38	433.69
474.75	431.57
475.11	429.02
475.48	427.36
475.85	425.81
476.21	423.55
476.58	422.10
476.94	421.12
477.31	420.10
477.67	419.14
478.04	417.83
478.41	417.02
478.77	418.64
479.14	417.40
479.50	416.60
479.87	416.60
480.23	416.45
480.60	416.12
480.96	416.19
481.33	416.52
481.69	416.57
482.06	416.43
482.42	417.02
482.79	417.81
483.15	418.00
483.52	418.57
483.88	418.83
484.25	419.79
484.61	420.10
484.98	420.67
485.34	422.14
485.71	423.76
486.07	424.71
486.44	424.31
486.80	426.12
487.17	427.19
487.53	429.62
487.90	431.60
488.26	434.64
488.62	437.40
488.99	439.83
489.35	442.57
489.72	445.33
490.08	448.00
490.44	450.67
490.81	454.10
491.17	456.76
491.54	460.74
491.90	464.12
492.26	467.76
492.63	471.31
492.99	474.33
493.36	478.14
493.72	483.02
494.08	487.29
494.45	492.02
494.81	497.17
495.17	501.29
495.54	506.86
495.90	510.81
496.26	515.62
496.63	520.90
496.99	526.29
497.35	532.21
497.72	538.29
498.08	543.90
498.44	549.60
498.80	556.50
499.17	562.55
499.53	568.98
499.89	576.10
500.26	582.60
500.62	589.26
500.98	596.74
501.34	603.21
501.71	610.48
502.07	617.36
502.43	624.55
502.79	631.31
503.16	637.83
503.52	645.12
503.88	651.98
504.24	659.33
504.60	667.02
504.97	674.74
505.33	682.02
505.69	690.83
506.05	698.55
506.41	706.14
506.78	713.76
507.14	721.60
507.50	729.45
507.86	737.60
508.22	745.74
508.59	752.76
508.95	761.14
509.31	769.90
509.67	777.48
510.03	784.83
510.39	793.17
510.75	801.07
511.12	809.74
511.48	817.55
511.84	825.40
512.20	832.69
512.56	840.48
512.92	848.10
513.28	854.88
513.64	862.60
514.00	869.98
514.37	877.88
514.73	885.31
515.09	892.55
515.45	899.60
515.81	907.05
516.17	914.69
516.53	920.81
516.89	926.45
517.25	933.60
517.61	940.64
517.97	947.38
518.33	954.29
518.69	961.00
519.05	967.79
519.41	973.50
519.77	981.07
520.13	986.21
520.49	991.83
520.85	998.17
521.21	1004.48
521.57	1010.83
521.93	1016.17
522.29	1021.50
522.65	1026.67
523.01	1032.29
523.37	1037.00
523.73	1041.50
524.09	1046.40
524.45	1050.88
524.81	1055.38
525.17	1060.67
525.53	1065.64
525.89	1070.19
526.25	1074.40
526.61	1078.05
526.97	1083.05
527.33	1086.81
527.68	1093.57
528.04	1098.38
528.40	1101.79
528.76	1105.21
529.12	1109.00
529.48	1113.55
529.84	1117.48
530.20	1121.74
530.56	1126.21
530.91	1131.14
531.27	1135.71
531.63	1140.57
531.99	1144.62
532.35	1148.07
532.71	1152.07
533.07	1156.21
533.42	1162.86
533.78	1167.24
534.14	1172.19
534.50	1176.10
534.86	1180.74
535.21	1183.33
535.57	1187.83
535.93	1191.05
536.29	1196.50
536.65	1200.48
537.00	1203.81
537.36	1207.90
537.72	1211.76
538.08	1214.93
538.44	1218.29
538.79	1221.76
539.15	1225.45
539.51	1228.86
539.87	1232.86
540.22	1235.24
540.58	1238.57
540.94	1239.88
541.29	1242.86
541.65	1244.93
542.01	1248.36
542.37	1250.48
542.72	1252.55
543.08	1254.57
543.44	1258.79
543.79	1259.52
544.15	1262.50
544.51	1265.98
544.87	1269.12
545.22	1272.14
545.58	1275.21
545.94	1277.48
546.29	1280.05
546.65	1281.93
547.01	1285.83
547.36	1288.57
547.72	1291.83
548.07	1294.43
548.43	1296.40
548.79	1298.74
549.14	1301.45
549.50	1304.43
549.86	1306.69
550.21	1309.40
550.57	1312.14
550.92	1314.38
551.28	1318.62
551.64	1321.26
551.99	1323.93
552.35	1326.00
552.70	1328.93
553.06	1332.24
553.41	1335.60
553.77	1340.79
554.13	1344.93
554.48	1348.79
554.84	1353.29
555.19	1357.48
555.55	1362.45
555.90	1366.50
556.26	1370.55
556.61	1374.62
556.97	1376.88
557.32	1380.50
557.68	1384.67
558.03	1388.76
558.39	1392.52
558.74	1395.98
559.10	1400.50
559.45	1404.67
559.81	1409.64
560.16	1413.43
560.52	1417.33
560.87	1422.02
561.23	1425.10
561.58	1431.43
561.94	1435.05
562.29	1439.10
562.64	1443.07
563.00	1446.43
563.35	1451.38
563.71	1456.02
564.06	1461.17
564.42	1468.02
564.77	1474.45
565.12	1480.21
565.48	1487.93
565.83	1494.00
566.19	1500.07
566.54	1505.21
566.89	1510.60
567.25	1516.36
567.60	1523.71
567.96	1531.12
568.31	1538.17
568.66	1543.98
569.02	1547.33
569.37	1552.19
569.72	1557.98
570.08	1563.02
570.43	1567.83
570.78	1573.57
571.14	1579.10
571.49	1583.81
571.84	1588.98
572.20	1593.62
572.55	1598.38
572.90	1600.48
573.26	1605.26
573.61	1609.74
573.96	1614.26
574.31	1618.62
574.67	1622.45
575.02	1625.14
575.37	1627.17
575.72	1629.71
576.08	1633.71
576.43	1637.02
576.78	1641.12
577.13	1645.76
577.49	1650.62
577.84	1655.29
578.19	1658.52
578.54	1662.10
578.90	1666.88
579.25	1669.19
579.60	1671.71
579.95	1674.48
580.30	1679.12
580.66	1683.36
581.01	1687.19
581.36	1690.48
581.71	1693.90
582.06	1698.12
582.42	1702.36
582.77	1706.12
583.12	1709.33
583.47	1711.90
583.82	1715.76
584.17	1719.67
584.53	1721.57
584.88	1723.81
585.23	1727.19
585.58	1729.05
585.93	1731.55
586.28	1733.93
586.63	1737.10
586.98	1740.88
587.34	1745.48
587.69	1747.26
588.04	1749.19
588.39	1751.19
588.74	1753.43
589.09	1755.33
589.44	1756.43
589.79	1757.95
590.14	1759.69
590.49	1760.74
590.84	1761.76
591.19	1763.57
591.54	1764.45
591.89	1765.48
592.25	1768.55
592.60	1768.57
592.95	1769.98
593.30	1771.88
593.65	1771.62
594.00	1772.21
594.35	1778.88
594.70	1777.55
595.05	1778.93
595.40	1778.93
595.75	1778.26
596.10	1779.02
596.45	1780.05
596.80	1781.40
597.15	1781.33
597.50	1781.81
597.85	1784.24
598.19	1785.19
598.54	1785.14
598.89	1785.10
599.24	1786.02
599.59	1785.64
599.94	1785.83
600.29	1785.98
600.64	1785.43
600.99	1787.00
601.34	1787.05
601.69	1780.33
602.04	1780.71
602.39	1780.00
602.74	1780.93
603.08	1781.33
603.43	1781.19
603.78	1780.52
604.13	1779.62
604.48	1779.21
604.83	1779.26
605.18	1778.81
605.53	1778.62
605.87	1778.36
606.22	1777.81
606.57	1775.52
606.92	1773.71
607.27	1773.43
607.62	1773.38
607.96	1772.43
608.31	1771.52
608.66	1770.76
609.01	1769.48
609.36	1768.76
609.70	1767.02
610.05	1763.98
610.40	1762.40
610.75	1760.02
611.10	1758.79
611.44	1756.36
611.79	1753.62
612.14	1751.02
612.49	1746.36
612.83	1743.21
613.18	1739.33
613.53	1737.24
613.88	1734.81
614.22	1731.21
614.57	1727.12
614.92	1723.17
615.27	1719.69
615.61	1714.64
615.96	1710.67
616.31	1707.19
616.65	1704.43
617.00	1701.48
617.35	1698.79
617.70	1695.45
618.04	1692.17
618.39	1687.31
618.74	1683.14
619.08	1679.40
619.43	1674.55
619.78	1671.67
620.12	1668.52
620.47	1665.55
620.82	1660.40
621.16	1656.38
621.51	1653.86
621.85	1649.12
622.20	1644.83
622.55	1640.67
622.89	1637.67
623.24	1634.29
623.59	1630.52
623.93	1626.00
624.28	1621.26
624.62	1617.76
624.97	1614.86
625.32	1610.57
625.66	1606.29
626.01	1601.98
626.35	1598.81
626.70	1594.38
627.04	1590.55
627.39	1586.05
627.73	1582.52
628.08	1578.57
628.43	1574.33
628.77	1568.98
629.12	1566.17
629.46	1563.19
629.81	1559.43
630.15	1554.62
630.50	1549.40
630.84	1544.21
631.19	1538.10
631.53	1533.33
631.88	1527.50
632.22	1520.64
632.57	1515.29
632.91	1509.52
633.26	1505.45
633.60	1499.67
633.95	1494.88
634.29	1488.50
634.64	1483.79
634.98	1477.57
635.32	1473.69
635.67	1469.95
636.01	1466.29
636.36	1460.76
636.70	1456.21
637.05	1450.57
637.39	1446.17
637.73	1441.95
638.08	1437.62
638.42	1432.83
638.77	1428.86
639.11	1424.57
639.45	1419.29
639.80	1414.40
640.14	1409.60
640.49	1404.26
640.83	1398.76
641.17	1394.38
641.52	1389.57
641.86	1383.83
642.20	1379.98
642.55	1373.05
642.89	1367.45
643.23	1360.83
643.58	1356.17
643.92	1348.93
644.26	1343.38
644.61	1337.93
644.95	1331.29
645.29	1324.95
645.64	1319.76
645.98	1312.79
646.32	1305.86
646.66	1300.29
647.01	1293.45
647.35	1288.38
647.69	1282.00
648.04	1276.86
648.38	1270.81
648.72	1265.00
649.06	1258.76
649.41	1251.50
649.75	1245.33
650.09	1238.07
650.43	1231.40
650.78	1224.76
651.12	1218.05
651.46	1211.29
651.80	1204.43
652.14	1198.38
652.49	1192.50
652.83	1185.90
653.17	1179.24
653.51	1172.71
653.85	1166.10
654.20	1160.74
654.54	1153.88
654.88	1147.50
655.22	1141.00
655.56	1133.81
655.90	1126.71
656.25	1120.21
656.59	1113.81
656.93	1107.76
657.27	1102.17
657.61	1096.14
657.95	1089.29
658.29	1083.45
658.64	1078.10
658.98	1070.90
659.32	1063.93
659.66	1057.14
660.00	1050.69
660.34	1044.67
660.68	1038.98
661.02	1032.29
661.36	1025.05
661.70	1019.26
662.05	1013.26
662.39	1007.17
662.73	1001.69
663.07	996.71
663.41	990.79
663.75	984.14
664.09	978.02
664.43	971.45
664.77	965.00
665.11	958.88
665.45	952.74
665.79	946.12
666.13	940.21
666.47	934.90
666.81	928.90
667.15	922.93
667.49	917.69
667.83	912.64
668.17	907.52
668.51	902.76
668.85	896.93
669.19	892.17
669.53	885.95
669.87	879.88
670.21	873.36
670.55	867.19
670.89	862.69
671.23	857.71
671.57	852.14
671.91	846.79
672.25	841.88
672.58	837.33
672.92	832.10
673.26	827.00
673.60	821.40
673.94	816.19
674.28	810.88
674.62	805.67
674.96	799.74
675.30	794.24
675.64	789.05
675.97	783.83
676.31	777.60
676.65	772.57
676.99	768.64
677.33	763.76
677.67	759.62
678.01	754.02
678.34	749.10
678.68	744.67
679.02	739.98
679.36	734.02
679.70	728.21
680.04	722.76
680.37	717.55
680.71	712.48
681.05	708.29
681.39	703.67
681.73	698.36
682.06	693.62
682.40	689.26
682.74	684.60
683.08	680.74
683.42	676.05
683.75	671.64
684.09	665.76
684.43	661.12
684.77	656.21
685.10	651.81
685.44	647.43
685.78	642.67
686.12	638.07
686.45	634.05
686.79	629.50
687.13	625.71
687.46	621.90
687.80	618.74
688.14	614.93
688.48	610.74
688.81	607.00
689.15	603.21
689.49	599.21
689.82	595.31
690.16	590.33
690.50	586.60
690.83	582.24
691.17	578.12
691.51	574.21
691.84	570.12
692.18	565.93
692.52	561.40
692.85	557.90
693.19	554.95
693.52	551.24
693.86	547.45
694.20	543.69
694.53	540.12
694.87	535.43
695.21	530.81
695.54	527.24
695.88	522.98
696.21	518.64
696.55	514.71
696.88	511.05
697.22	507.48
697.56	504.31
697.89	501.05
698.23	498.36
698.56	494.69
698.90	491.50
699.23	487.93
699.57	485.10
699.90	480.95
700.24	476.69
700.58	473.48
700.91	470.81
701.25	469.64
701.58	467.48
701.92	464.93
702.25	462.17
702.59	458.81
702.92	456.00
703.26	453.26
703.59	450.60
703.93	449.31
704.26	446.79
704.60	443.71
704.93	440.12
705.26	437.05
705.60	434.95
705.93	431.93
706.27	429.93
706.60	427.40
706.94	426.36
707.27	423.76
707.61	421.17
707.94	418.10
708.27	413.43
708.61	409.74
708.94	407.17
709.28	404.60
709.61	402.52
709.94	400.55
710.28	398.24
710.61	395.71
710.95	391.60
711.28	390.83
711.61	388.62
711.95	387.43
712.28	384.86
712.61	382.48
712.95	381.36
713.28	379.76
713.61	377.57
713.95	374.45
714.28	372.69
714.61	370.81
714.95	369.10
715.28	367.14
715.61	365.50
715.95	363.88
716.28	361.83
716.61	360.02
716.95	357.71
717.28	355.74
717.61	354.02
717.94	352.10
718.28	348.60
718.61	346.62
718.94	344.31
719.27	342.90
719.61	341.07
719.94	338.74
720.27	336.33
720.60	334.36
720.94	332.95
721.27	331.62
721.60	330.02
721.93	328.19
722.27	327.52
722.60	326.43
722.93	324.50
723.26	323.57
723.59	321.76
723.93	320.74
724.26	319.43
724.59	318.05
724.92	317.14
725.25	316.76
725.59	315.86
725.92	315.14
726.25	314.00
726.58	312.95
726.91	311.64
727.24	311.12
727.57	310.21
727.91	308.81
728.24	307.83
728.57	306.55
728.90	306.05
729.23	304.26
729.56	303.86
729.89	303.07
730.22	302.14
730.55	301.48
730.89	300.24
731.22	299.14
731.55	298.17
731.88	297.17
732.21	295.52
732.54	294.43
732.87	293.33
733.20	292.45
733.53	291.62
733.86	291.00
734.19	289.52
734.52	288.90
734.85	289.55
735.18	288.50
735.51	288.60
735.84	287.83
736.17	287.55
736.50	285.81
736.83	287.31
737.16	286.26
737.49	285.55
737.82	284.95
738.15	284.62
738.48	283.74
738.81	282.86
739.14	281.98
739.47	280.93
739.80	280.14
740.13	279.43
740.46	278.33
740.79	277.24
741.12	276.48
741.45	275.38
741.78	273.48
742.11	273.14
742.44	271.83
742.77	271.29
743.10	270.21
743.43	269.43
743.75	266.52
744.08	268.24
744.41	267.19
744.74	266.50
745.07	265.40
745.40	265.17
745.73	265.38
746.06	264.88
746.39	264.40
746.71	263.76
747.04	262.88
747.37	262.45
747.70	262.21
748.03	261.86
748.36	261.62
748.68	260.90
749.01	259.60
749.34	259.19
749.67	258.60
750.00	258.52
750.33	259.33
750.65	258.90
750.98	256.02
751.31	255.95
751.64	255.31
751.97	256.31
752.29	255.57
752.62	253.93
752.95	253.31
753.28	252.76
753.60	252.33
753.93	252.64
754.26	252.26
754.59	251.43
754.91	250.67
755.24	250.05
755.57	249.83
755.90	249.55
756.22	248.90
756.55	248.26
756.88	247.43
757.20	245.74
757.53	244.86
757.86	244.38
758.19	244.05
758.51	243.76
758.84	241.86
759.17	241.62
759.49	241.69
759.82	242.40
760.15	242.17
760.47	241.60
760.80	240.71
761.13	240.60
761.45	240.17
761.78	239.86
762.11	239.38
762.43	238.76
762.76	238.40
763.08	238.29
763.41	238.02
763.74	237.74
764.06	237.62
764.39	237.48
764.71	237.07
765.04	236.40
765.37	235.74
765.69	235.62
766.02	235.31
766.34	234.95
766.67	233.95
767.00	234.02
767.32	234.86
767.65	235.74
767.97	235.40
768.30	235.36
768.62	234.98
768.95	234.69
769.27	234.48
769.60	234.64
769.92	234.05
770.25	233.50
770.57	232.90
770.90	232.38
771.22	231.88
771.55	232.02
771.87	232.00
772.20	232.17
772.52	233.76
772.85	235.93
773.17	235.64
773.50	235.24
773.82	234.93
774.15	233.88
774.47	232.12
774.80	231.67
775.12	231.33
775.45	231.17
775.77	230.81
776.09	230.67
776.42	230.14
776.74	230.67
777.07	230.33
777.39	230.43
777.72	230.29
778.04	230.48
778.36	230.17
778.69	229.93
779.01	229.74
779.33	227.64
779.66	225.29
779.98	224.90
780.31	224.98
780.63	225.55
780.95	225.79
781.28	225.79
781.60	225.45
781.92	225.43
782.25	225.33
782.57	225.36
782.89	225.10
783.22	225.21
783.54	224.69
783.86	224.88
784.19	224.40
784.51	224.86
784.83	224.38
785.16	224.19
