SpectraSuite Data File
++++++++++++++++++++++++++++++++++++
Date: Tue Apr 02 18:37:25 EDT 2013
User: group
Dark Spectrum Present: No
Reference Spectrum Present: No
Number of Sampled Component Spectra: 1
Spectrometers: USB2E7196
Integration Time (usec): 580000 (USB2E7196)
Spectra Averaged: 2 (USB2E7196)
Boxcar Smoothing: 10 (USB2E7196)
Correct for Electrical Dark: No (USB2E7196)
Strobe/Lamp Enabled: No (USB2E7196)
Correct for Detector Non-linearity: No (USB2E7196)
Correct for Stray Light: No (USB2E7196)
Number of Pixels in Processed Spectrum: 2048
>>>>>Begin Processed Spectral Data<<<<<
339.09	0.00
339.48	190.00
339.86	194.00
340.24	192.50
340.63	192.50
341.01	227.50
341.39	200.50
341.78	206.00
342.16	207.50
342.54	208.00
342.93	195.55
343.31	205.40
343.69	206.36
344.07	206.83
344.46	207.86
344.84	208.67
345.22	207.74
345.60	208.05
345.99	208.07
346.37	208.19
346.75	208.05
347.13	208.50
347.52	208.60
347.90	209.52
348.28	209.52
348.66	210.10
349.05	209.83
349.43	210.24
349.81	210.50
350.19	210.76
350.57	210.98
350.96	211.24
351.34	211.48
351.72	211.29
352.10	211.45
352.48	211.12
352.87	211.17
353.25	211.14
353.63	211.19
354.01	211.40
354.39	211.50
354.77	211.86
355.15	212.14
355.54	212.12
355.92	211.48
356.30	211.90
356.68	213.19
357.06	213.40
357.44	213.12
357.82	213.24
358.20	214.21
358.58	214.17
358.97	214.38
359.35	214.62
359.73	215.17
360.11	215.14
360.49	215.45
360.87	215.33
361.25	215.79
361.63	216.60
362.01	216.71
362.39	216.64
362.77	216.74
363.15	216.67
363.53	216.69
363.91	216.69
364.29	216.48
364.67	214.45
365.05	214.36
365.43	214.69
365.81	214.76
366.19	215.00
366.57	215.86
366.95	215.86
367.33	215.57
367.71	215.55
368.09	215.95
368.47	215.60
368.85	215.64
369.23	215.98
369.61	215.21
369.99	215.71
370.37	216.07
370.75	216.95
371.13	216.71
371.51	216.71
371.89	216.83
372.27	217.12
372.65	217.43
373.03	217.50
373.41	217.38
373.78	217.55
374.16	216.38
374.54	216.07
374.92	215.76
375.30	215.93
375.68	215.67
376.06	216.02
376.44	216.31
376.82	216.43
377.19	216.26
377.57	216.14
377.95	215.55
378.33	215.43
378.71	214.31
379.09	214.45
379.47	214.45
379.84	214.31
380.22	213.79
380.60	213.64
380.98	213.64
381.36	213.57
381.73	213.07
382.11	213.45
382.49	213.40
382.87	213.17
383.25	213.12
383.62	215.45
384.00	214.76
384.38	214.76
384.76	215.40
385.13	216.31
385.51	216.52
385.89	216.40
386.27	216.19
386.64	216.33
387.02	216.33
387.40	216.38
387.78	216.52
388.15	216.86
388.53	216.69
388.91	216.79
389.29	216.64
389.66	216.62
390.04	216.43
390.42	216.60
390.79	216.64
391.17	216.76
391.55	214.36
391.92	214.52
392.30	214.81
392.68	214.14
393.05	213.86
393.43	213.67
393.81	213.67
394.18	213.76
394.56	213.90
394.94	214.33
395.31	214.07
395.69	214.52
396.06	214.86
396.44	214.90
396.82	214.67
397.19	215.83
397.57	216.12
397.95	216.48
398.32	215.86
398.70	216.21
399.07	216.64
399.45	216.60
399.82	216.45
400.20	216.17
400.58	216.33
400.95	215.31
401.33	216.14
401.70	218.17
402.08	218.17
402.45	218.40
402.83	218.76
403.20	218.95
403.58	219.07
403.95	219.43
404.33	220.07
404.71	220.24
405.08	221.38
405.46	221.74
405.83	222.26
406.21	223.02
406.58	223.64
406.96	223.76
407.33	224.76
407.70	225.64
408.08	228.12
408.45	229.26
408.83	230.83
409.20	231.07
409.58	230.43
409.95	231.90
410.33	232.83
410.70	233.31
411.08	234.69
411.45	236.02
411.82	237.02
412.20	238.74
412.57	241.40
412.95	241.14
413.32	242.83
413.69	244.19
414.07	245.90
414.44	248.12
414.82	250.43
415.19	253.21
415.56	255.90
415.94	257.43
416.31	260.55
416.68	263.24
417.06	267.21
417.43	271.43
417.81	275.31
418.18	279.67
418.55	284.17
418.93	289.07
419.30	293.71
419.67	298.74
420.04	304.07
420.42	309.19
420.79	317.50
421.16	324.12
421.54	332.19
421.91	339.33
422.28	346.40
422.66	354.43
423.03	363.24
423.40	371.60
423.77	379.98
424.15	388.33
424.52	397.90
424.89	407.98
425.26	416.95
425.64	425.38
426.01	435.48
426.38	446.12
426.75	457.05
427.13	468.07
427.50	479.69
427.87	491.26
428.24	503.05
428.61	513.14
428.99	526.19
429.36	538.88
429.73	552.71
430.10	566.29
430.47	580.26
430.85	593.29
431.22	607.79
431.59	624.98
431.96	640.43
432.33	656.95
432.70	673.21
433.08	692.07
433.45	710.31
433.82	728.02
434.19	747.93
434.56	768.05
434.93	786.88
435.30	805.69
435.68	827.67
436.05	848.40
436.42	868.83
436.79	888.21
437.16	909.05
437.53	930.95
437.90	951.79
438.27	972.98
438.64	995.14
439.01	1015.76
439.38	1032.86
439.75	1050.93
440.13	1071.43
440.50	1090.98
440.87	1107.19
441.24	1124.45
441.61	1142.33
441.98	1156.12
442.35	1171.00
442.72	1186.57
443.09	1203.55
443.46	1212.12
443.83	1218.98
444.20	1225.33
444.57	1233.10
444.94	1236.21
445.31	1240.33
445.68	1247.67
446.05	1249.62
446.42	1248.12
446.79	1246.86
447.16	1245.29
447.53	1244.19
447.90	1236.71
448.27	1228.83
448.64	1217.76
449.01	1210.05
449.37	1196.93
449.74	1183.90
450.11	1170.43
450.48	1153.00
450.85	1133.21
451.22	1118.43
451.59	1103.93
451.96	1090.17
452.33	1071.19
452.70	1055.05
453.07	1034.21
453.43	1011.71
453.80	991.69
454.17	972.43
454.54	954.45
454.91	934.33
455.28	914.79
455.65	896.71
456.02	881.62
456.38	867.43
456.75	848.93
457.12	832.98
457.49	817.29
457.86	800.50
458.23	788.90
458.59	775.33
458.96	761.00
459.33	748.05
459.70	735.50
460.07	725.90
460.43	714.55
460.80	704.43
461.17	695.17
461.54	685.62
461.91	676.12
462.27	666.17
462.64	658.19
463.01	649.14
463.38	641.36
463.74	629.71
464.11	621.33
464.48	614.45
464.85	606.71
465.21	601.38
465.58	595.12
465.95	586.98
466.32	580.88
466.68	574.71
467.05	569.31
467.42	562.90
467.78	556.52
468.15	550.43
468.52	545.86
468.88	539.21
469.25	533.74
469.62	529.93
469.98	525.14
470.35	521.21
470.72	517.55
471.08	512.52
471.45	509.76
471.82	506.90
472.18	502.64
472.55	500.19
472.92	495.88
473.28	492.14
473.65	489.48
474.02	486.67
474.38	484.02
474.75	481.71
475.11	478.74
475.48	476.45
475.85	474.50
476.21	472.33
476.58	471.26
476.94	470.26
477.31	468.69
477.67	467.52
478.04	466.26
478.41	465.14
478.77	466.38
479.14	464.74
479.50	463.76
479.87	463.90
480.23	463.67
480.60	463.83
480.96	463.93
481.33	464.40
481.69	464.76
482.06	465.50
482.42	465.79
482.79	466.88
483.15	467.79
483.52	469.21
483.88	470.64
484.25	471.50
484.61	472.57
484.98	473.69
485.34	475.83
485.71	477.50
486.07	479.74
486.44	479.71
486.80	482.14
487.17	484.33
487.53	487.14
487.90	490.48
488.26	494.05
488.62	497.86
488.99	500.60
489.35	503.79
489.72	507.14
490.08	510.90
490.44	514.81
490.81	519.17
491.17	523.10
491.54	527.00
491.90	531.81
492.26	536.55
492.63	542.05
492.99	546.74
493.36	552.40
493.72	558.07
494.08	564.12
494.45	570.55
494.81	576.79
495.17	583.14
495.54	589.55
495.90	595.64
496.26	601.74
496.63	608.98
496.99	616.36
497.35	623.43
497.72	631.21
498.08	638.86
498.44	646.52
498.80	654.57
499.17	663.21
499.53	671.19
499.89	680.05
500.26	688.52
500.62	697.43
500.98	706.79
501.34	715.76
501.71	725.43
502.07	734.24
502.43	743.60
502.79	752.43
503.16	761.29
503.52	771.10
503.88	780.40
504.24	790.26
504.60	800.05
504.97	810.31
505.33	819.81
505.69	830.86
506.05	841.45
506.41	851.64
506.78	861.21
507.14	871.00
507.50	880.88
507.86	891.05
508.22	900.71
508.59	909.88
508.95	919.90
509.31	930.62
509.67	941.36
510.03	951.69
510.39	962.19
510.75	972.86
511.12	982.57
511.48	993.31
511.84	1002.76
512.20	1013.00
512.56	1022.86
512.92	1033.02
513.28	1042.21
513.64	1051.52
514.00	1061.21
514.37	1071.43
514.73	1081.52
515.09	1091.14
515.45	1100.33
515.81	1109.88
516.17	1119.33
516.53	1128.33
516.89	1135.98
517.25	1143.62
517.61	1152.10
517.97	1160.17
518.33	1168.55
518.69	1177.21
519.05	1185.24
519.41	1193.50
519.77	1202.33
520.13	1210.05
520.49	1217.12
520.85	1223.69
521.21	1231.48
521.57	1238.26
521.93	1243.79
522.29	1250.71
522.65	1257.14
523.01	1264.21
523.37	1271.05
523.73	1277.74
524.09	1283.67
524.45	1289.55
524.81	1295.40
525.17	1301.36
525.53	1306.57
525.89	1311.88
526.25	1317.10
526.61	1321.14
526.97	1325.45
527.33	1328.57
527.68	1335.05
528.04	1339.45
528.40	1344.45
528.76	1348.38
529.12	1353.21
529.48	1358.26
529.84	1361.81
530.20	1366.33
530.56	1369.14
530.91	1372.38
531.27	1375.71
531.63	1379.81
531.99	1382.57
532.35	1386.19
532.71	1388.64
533.07	1393.02
533.42	1397.79
533.78	1401.07
534.14	1405.76
534.50	1408.69
534.86	1412.55
535.21	1413.79
535.57	1417.24
535.93	1419.90
536.29	1422.74
536.65	1425.02
537.00	1428.12
537.36	1430.57
537.72	1432.38
538.08	1435.24
538.44	1437.48
538.79	1439.33
539.15	1440.36
539.51	1443.10
539.87	1445.07
540.22	1447.52
540.58	1448.40
540.94	1448.24
541.29	1449.40
541.65	1449.62
542.01	1451.31
542.37	1452.00
542.72	1451.64
543.08	1451.67
543.44	1451.95
543.79	1451.83
544.15	1452.52
544.51	1452.90
544.87	1453.07
545.22	1452.76
545.58	1452.38
545.94	1451.57
546.29	1451.55
546.65	1451.57
547.01	1450.43
547.36	1450.10
547.72	1448.19
548.07	1447.64
548.43	1446.45
548.79	1445.00
549.14	1443.21
549.50	1442.14
549.86	1439.81
550.21	1438.38
550.57	1437.57
550.92	1435.88
551.28	1434.31
551.64	1432.52
551.99	1430.62
552.35	1428.79
552.70	1427.36
553.06	1426.33
553.41	1425.10
553.77	1424.31
554.13	1422.43
554.48	1422.31
554.84	1421.52
555.19	1421.48
555.55	1421.48
555.90	1420.36
556.26	1418.83
556.61	1417.79
556.97	1415.52
557.32	1414.07
557.68	1413.52
558.03	1411.88
558.39	1411.07
558.74	1410.12
559.10	1408.90
559.45	1407.79
559.81	1406.26
560.16	1404.36
560.52	1402.71
560.87	1400.81
561.23	1397.79
561.58	1398.26
561.94	1395.64
562.29	1393.38
562.64	1391.38
563.00	1387.52
563.35	1385.19
563.71	1382.98
564.06	1382.02
564.42	1381.21
564.77	1380.86
565.12	1380.02
565.48	1379.93
565.83	1378.45
566.19	1377.24
566.54	1375.38
566.89	1373.38
567.25	1373.33
567.60	1374.29
567.96	1374.29
568.31	1373.95
568.66	1373.19
569.02	1369.29
569.37	1367.43
569.72	1365.33
570.08	1363.93
570.43	1361.95
570.78	1360.33
571.14	1359.36
571.49	1356.64
571.84	1355.07
572.20	1352.83
572.55	1350.79
572.90	1346.33
573.26	1343.88
573.61	1340.79
573.96	1338.50
574.31	1335.60
574.67	1331.64
575.02	1327.45
575.37	1322.79
575.72	1318.95
576.08	1316.21
576.43	1313.12
576.78	1309.81
577.13	1305.52
577.49	1301.40
577.84	1299.12
578.19	1295.83
578.54	1292.33
578.90	1289.33
579.25	1285.12
579.60	1280.71
579.95	1275.95
580.30	1272.98
580.66	1269.17
581.01	1265.52
581.36	1260.95
581.71	1257.00
582.06	1253.83
582.42	1249.71
582.77	1244.48
583.12	1240.81
583.47	1236.10
583.82	1232.24
584.17	1228.83
584.53	1226.50
584.88	1222.17
585.23	1218.21
585.58	1213.71
585.93	1208.62
586.28	1204.74
586.63	1201.40
586.98	1197.83
587.34	1194.48
587.69	1189.83
588.04	1184.55
588.39	1180.69
588.74	1176.24
589.09	1172.05
589.44	1166.60
589.79	1161.79
590.14	1158.64
590.49	1154.12
590.84	1150.05
591.19	1145.12
591.54	1140.57
591.89	1135.60
592.25	1133.21
592.60	1128.05
592.95	1124.21
593.30	1120.71
593.65	1115.62
594.00	1110.64
594.35	1112.17
594.70	1106.98
595.05	1103.29
595.40	1099.57
595.75	1094.76
596.10	1090.71
596.45	1086.74
596.80	1083.14
597.15	1078.71
597.50	1073.83
597.85	1069.67
598.19	1064.81
598.54	1061.43
598.89	1057.12
599.24	1052.05
599.59	1046.62
599.94	1042.29
600.29	1038.14
600.64	1033.31
600.99	1030.02
601.34	1025.93
601.69	1015.74
602.04	1010.79
602.39	1005.93
602.74	1002.02
603.08	997.69
603.43	994.26
603.78	989.21
604.13	983.98
604.48	978.93
604.83	975.14
605.18	970.71
605.53	966.21
605.87	961.64
606.22	957.07
606.57	953.14
606.92	948.31
607.27	944.21
607.62	939.17
607.96	935.48
608.31	930.88
608.66	926.07
609.01	921.71
609.36	918.29
609.70	914.14
610.05	909.57
610.40	905.19
610.75	900.36
611.10	896.67
611.44	892.90
611.79	889.36
612.14	884.90
612.49	879.64
612.83	874.98
613.18	870.07
613.53	865.81
613.88	861.55
614.22	857.10
614.57	852.14
614.92	847.36
615.27	842.62
615.61	837.76
615.96	833.00
616.31	828.36
616.65	824.81
617.00	820.79
617.35	815.67
617.70	810.95
618.04	806.24
618.39	801.55
618.74	797.43
619.08	792.64
619.43	788.17
619.78	784.40
620.12	780.57
620.47	776.81
620.82	772.64
621.16	768.36
621.51	765.62
621.85	761.64
622.20	758.10
622.55	753.64
622.89	750.14
623.24	747.02
623.59	743.17
623.93	738.57
624.28	734.50
624.62	733.40
624.97	731.79
625.32	727.95
625.66	724.48
626.01	720.40
626.35	717.45
626.70	713.71
627.04	710.71
627.39	707.50
627.73	704.67
628.08	701.07
628.43	697.60
628.77	693.10
629.12	689.67
629.46	687.02
629.81	683.98
630.15	679.81
630.50	675.69
630.84	672.19
631.19	668.60
631.53	665.14
631.88	659.29
632.22	653.55
632.57	650.83
632.91	646.79
633.26	643.60
633.60	640.05
633.95	636.60
634.29	632.79
634.64	629.45
634.98	625.45
635.32	622.71
635.67	619.60
636.01	616.21
636.36	612.90
636.70	609.71
637.05	606.57
637.39	603.76
637.73	601.07
638.08	598.26
638.42	594.90
638.77	592.31
639.11	589.50
639.45	586.76
639.80	583.43
640.14	581.19
640.49	578.17
640.83	574.64
641.17	572.07
641.52	568.71
641.86	565.98
642.20	563.88
642.55	560.21
642.89	557.17
643.23	554.43
643.58	552.38
643.92	548.62
644.26	545.81
644.61	543.29
644.95	540.36
645.29	536.88
645.64	534.76
645.98	531.38
646.32	529.31
646.66	526.43
647.01	523.24
647.35	520.19
647.69	517.60
648.04	515.29
648.38	512.57
648.72	510.50
649.06	507.33
649.41	503.81
649.75	501.26
650.09	498.90
650.43	495.88
650.78	492.55
651.12	489.69
651.46	487.07
651.80	483.83
652.14	481.17
652.49	479.38
652.83	476.90
653.17	474.36
653.51	471.36
653.85	469.17
654.20	466.93
654.54	464.60
654.88	461.52
655.22	459.64
655.56	457.26
655.90	454.90
656.25	452.81
656.59	450.60
656.93	448.21
657.27	446.26
657.61	443.67
657.95	442.02
658.29	440.19
658.64	438.62
658.98	436.62
659.32	434.31
659.66	432.12
660.00	430.12
660.34	428.31
660.68	426.07
661.02	424.00
661.36	421.76
661.70	419.43
662.05	417.71
662.39	415.83
662.73	414.43
663.07	413.67
663.41	411.88
663.75	410.07
664.09	408.67
664.43	406.05
664.77	404.40
665.11	402.12
665.45	400.76
665.79	399.19
666.13	397.71
666.47	395.90
666.81	393.83
667.15	391.48
667.49	390.10
667.83	389.57
668.17	387.71
668.51	386.31
668.85	385.33
669.19	384.69
669.53	382.45
669.87	380.76
670.21	378.21
670.55	376.57
670.89	375.83
671.23	374.52
671.57	373.33
671.91	372.52
672.25	371.45
672.58	370.43
672.92	368.12
673.26	366.67
673.60	365.45
673.94	364.57
674.28	363.55
674.62	362.38
674.96	360.26
675.30	359.36
675.64	358.21
675.97	356.76
676.31	355.05
676.65	353.98
676.99	353.14
677.33	351.93
677.67	350.90
678.01	348.86
678.34	347.50
678.68	346.81
679.02	345.19
679.36	343.79
679.70	342.05
680.04	340.95
680.37	339.76
680.71	338.60
681.05	337.48
681.39	336.43
681.73	334.86
682.06	333.64
682.40	332.38
682.74	331.55
683.08	330.95
683.42	329.83
683.75	329.00
684.09	327.21
684.43	326.00
684.77	324.76
685.10	323.88
685.44	322.71
685.78	321.36
686.12	320.19
686.45	319.02
686.79	317.69
687.13	316.93
687.46	315.93
687.80	315.48
688.14	314.12
688.48	312.88
688.81	312.14
689.15	311.67
689.49	310.71
689.82	309.55
690.16	307.79
690.50	306.76
690.83	305.64
691.17	304.43
691.51	303.55
691.84	302.69
692.18	301.71
692.52	300.90
692.85	300.36
693.19	300.24
693.52	299.38
693.86	298.62
694.20	297.83
694.53	296.79
694.87	295.50
695.21	294.67
695.54	293.93
695.88	292.69
696.21	291.26
696.55	290.31
696.88	289.83
697.22	289.24
697.56	288.69
697.89	287.69
698.23	287.50
698.56	286.50
698.90	285.88
699.23	284.86
699.57	284.12
699.90	283.00
700.24	281.83
700.58	281.45
700.91	281.05
701.25	281.67
701.58	281.64
701.92	281.60
702.25	280.88
702.59	280.12
702.92	279.52
703.26	279.29
703.59	278.81
703.93	279.55
704.26	279.02
704.60	278.33
704.93	277.45
705.26	276.45
705.60	276.48
705.93	275.62
706.27	275.62
706.60	275.24
706.94	275.67
707.27	274.79
707.61	274.02
707.94	273.29
708.27	271.17
708.61	269.88
708.94	268.62
709.28	268.29
709.61	267.69
709.94	267.21
710.28	266.26
710.61	265.69
710.95	263.19
711.28	263.88
711.61	263.12
711.95	263.31
712.28	262.57
712.61	261.81
712.95	262.45
713.28	262.81
713.61	261.98
713.95	260.52
714.28	260.38
714.61	259.81
714.95	259.10
715.28	258.40
715.61	257.95
715.95	257.90
716.28	257.38
716.61	257.38
716.95	256.74
717.28	256.40
717.61	255.88
717.94	255.69
718.28	254.10
718.61	253.86
718.94	252.98
719.27	252.67
719.61	252.40
719.94	251.36
720.27	249.76
720.60	249.19
720.94	248.98
721.27	248.64
721.60	248.55
721.93	248.31
722.27	248.79
722.60	248.48
722.93	248.05
723.26	247.57
723.59	246.62
723.93	246.57
724.26	246.60
724.59	246.21
724.92	245.83
725.25	245.64
725.59	245.33
725.92	245.52
726.25	245.12
726.58	244.71
726.91	244.21
727.24	244.17
727.57	244.00
727.91	243.36
728.24	243.36
728.57	242.88
728.90	242.98
729.23	241.93
729.56	242.62
729.89	242.12
730.22	241.76
730.55	241.62
730.89	241.24
731.22	240.79
731.55	240.50
731.88	240.62
732.21	240.33
732.54	240.05
732.87	239.71
733.20	239.74
733.53	239.62
733.86	239.79
734.19	239.43
734.52	239.48
734.85	240.76
735.18	239.93
735.51	240.38
735.84	240.21
736.17	240.45
736.50	239.24
736.83	241.45
737.16	241.40
737.49	241.50
737.82	241.10
738.15	241.14
738.48	241.00
738.81	240.40
739.14	239.74
739.47	239.55
739.80	239.07
740.13	239.10
740.46	238.55
740.79	237.76
741.12	237.67
741.45	237.31
741.78	235.90
742.11	236.52
742.44	235.64
742.77	235.33
743.10	234.71
743.43	234.57
743.75	232.07
744.08	234.48
744.41	233.86
744.74	233.64
745.07	233.05
745.40	233.07
745.73	233.95
746.06	234.02
746.39	234.05
746.71	233.83
747.04	233.05
747.37	232.81
747.70	233.19
748.03	233.05
748.36	232.98
748.68	232.79
749.01	231.86
749.34	232.02
749.67	231.90
750.00	232.36
750.33	233.71
750.65	234.12
750.98	231.21
751.31	231.21
751.64	231.19
751.97	232.45
752.29	232.10
752.62	230.95
752.95	230.40
753.28	230.05
753.60	229.67
753.93	230.45
754.26	230.52
754.59	229.74
754.91	229.45
755.24	229.07
755.57	228.83
755.90	228.62
756.22	227.88
756.55	227.45
756.88	226.98
757.20	225.52
757.53	224.29
757.86	224.38
758.19	224.40
758.51	224.43
758.84	223.02
759.17	222.86
759.49	222.90
759.82	224.07
760.15	223.95
760.47	224.12
760.80	223.17
761.13	223.29
761.45	223.14
761.78	223.00
762.11	222.98
762.43	223.05
762.76	222.90
763.08	223.33
763.41	223.31
763.74	223.12
764.06	223.00
764.39	223.52
764.71	223.55
765.04	223.19
765.37	222.86
765.69	222.83
766.02	222.76
766.34	222.50
766.67	221.57
767.00	221.81
767.32	222.81
767.65	224.19
767.97	224.14
768.30	224.14
768.62	223.98
768.95	223.88
769.27	223.48
769.60	223.95
769.92	223.31
770.25	222.98
770.57	222.64
770.90	222.40
771.22	221.93
771.55	221.64
771.87	221.60
772.20	221.71
772.52	223.21
772.85	225.74
773.17	225.62
773.50	225.74
773.82	225.40
774.15	224.24
774.47	222.79
774.80	222.40
775.12	222.45
775.45	222.50
775.77	222.43
776.09	222.79
776.42	222.52
776.74	223.40
777.07	223.50
777.39	223.64
777.72	223.43
778.04	223.71
778.36	223.67
778.69	223.62
779.01	223.50
779.33	221.81
779.66	219.31
779.98	219.14
780.31	219.05
780.63	219.52
780.95	219.88
781.28	220.19
781.60	220.05
781.92	219.93
782.25	219.74
782.57	219.76
782.89	219.43
783.22	219.36
783.54	218.76
783.86	218.79
784.19	218.55
784.51	219.36
784.83	218.93
785.16	218.62
785.48	218.88
785.80	218.93
786.12	219.12
786.45	219.10
786.77	219.10
787.09	218.74
787.42	218.17
787.74	217.98
788.06	217.81
