SpectraSuite Data File
++++++++++++++++++++++++++++++++++++
Date: Tue Apr 02 18:45:26 EDT 2013
User: group
Dark Spectrum Present: No
Reference Spectrum Present: No
Number of Sampled Component Spectra: 1
Spectrometers: USB2E7196
Integration Time (usec): 580000 (USB2E7196)
Spectra Averaged: 2 (USB2E7196)
Boxcar Smoothing: 10 (USB2E7196)
Correct for Electrical Dark: No (USB2E7196)
Strobe/Lamp Enabled: No (USB2E7196)
Correct for Detector Non-linearity: No (USB2E7196)
Correct for Stray Light: No (USB2E7196)
Number of Pixels in Processed Spectrum: 2048
>>>>>Begin Processed Spectral Data<<<<<
339.09	0.00
339.48	193.00
339.86	195.50
340.24	194.50
340.63	196.00
341.01	234.00
341.39	199.00
341.78	202.00
342.16	209.50
342.54	204.00
342.93	196.17
343.31	205.90
343.69	206.45
344.07	207.10
344.46	207.98
344.84	208.52
345.22	207.29
345.60	207.69
345.99	208.05
346.37	207.71
346.75	207.93
347.13	208.07
347.52	208.38
347.90	209.19
348.28	209.29
348.66	209.83
349.05	209.10
349.43	209.40
349.81	209.74
350.19	210.05
350.57	210.45
350.96	210.86
351.34	211.29
351.72	211.52
352.10	211.57
352.48	211.43
352.87	211.60
353.25	211.60
353.63	211.57
354.01	211.79
354.39	212.43
354.77	212.74
355.15	213.38
355.54	213.21
355.92	212.74
356.30	213.10
356.68	214.48
357.06	214.93
357.44	214.52
357.82	214.60
358.20	215.55
358.58	215.33
358.97	215.33
359.35	215.62
359.73	216.00
360.11	216.10
360.49	216.14
360.87	216.19
361.25	216.57
361.63	217.50
362.01	217.60
362.39	217.38
362.77	217.55
363.15	217.60
363.53	217.69
363.91	217.62
364.29	217.55
364.67	215.52
365.05	215.74
365.43	216.26
365.81	216.60
366.19	216.69
366.57	217.69
366.95	217.76
367.33	217.36
367.71	217.43
368.09	217.74
368.47	218.00
368.85	217.79
369.23	218.17
369.61	217.40
369.99	217.95
370.37	218.36
370.75	219.17
371.13	218.43
371.51	218.19
371.89	218.36
372.27	218.69
372.65	218.83
373.03	218.67
373.41	218.21
373.78	218.02
374.16	216.90
374.54	216.24
374.92	216.19
375.30	216.29
375.68	215.79
376.06	215.86
376.44	215.55
376.82	215.95
377.19	215.71
377.57	215.57
377.95	214.93
378.33	214.74
378.71	213.67
379.09	214.12
379.47	214.21
379.84	213.98
380.22	213.57
380.60	213.31
380.98	213.12
381.36	213.12
381.73	212.86
382.11	213.31
382.49	213.38
382.87	212.67
383.25	212.57
383.62	215.00
384.00	214.43
384.38	214.45
384.76	214.57
385.13	215.57
385.51	215.76
385.89	215.50
386.27	215.29
386.64	215.60
387.02	215.31
387.40	215.17
387.78	215.40
388.15	215.43
388.53	215.36
388.91	215.40
389.29	215.43
389.66	215.60
390.04	215.02
390.42	215.21
390.79	215.57
391.17	215.40
391.55	213.21
391.92	213.29
392.30	213.64
392.68	213.26
393.05	212.95
393.43	212.88
393.81	213.07
394.18	213.00
394.56	212.62
394.94	213.05
395.31	213.14
395.69	213.55
396.06	213.79
396.44	214.05
396.82	213.83
397.19	214.90
397.57	214.76
397.95	215.33
398.32	215.02
398.70	215.21
399.07	215.67
399.45	215.74
399.82	215.90
400.20	215.50
400.58	215.43
400.95	214.57
401.33	214.95
401.70	216.31
402.08	216.64
402.45	216.83
402.83	217.36
403.20	217.60
403.58	217.60
403.95	218.05
404.33	218.45
404.71	218.83
405.08	219.86
405.46	220.00
405.83	220.57
406.21	220.69
406.58	221.12
406.96	221.57
407.33	222.12
407.70	222.74
408.08	225.17
408.45	226.10
408.83	227.24
409.20	227.81
409.58	227.24
409.95	228.40
410.33	229.48
410.70	229.62
411.08	230.88
411.45	231.76
411.82	232.50
412.20	233.95
412.57	236.31
412.95	236.17
413.32	238.07
413.69	238.95
414.07	240.76
414.44	242.69
414.82	244.52
415.19	246.88
415.56	249.19
415.94	250.10
416.31	252.95
416.68	255.43
417.06	258.40
417.43	261.95
417.81	264.93
418.18	268.95
418.55	272.95
418.93	276.69
419.30	281.10
419.67	285.64
420.04	289.98
420.42	294.26
420.79	301.26
421.16	307.12
421.54	314.10
421.91	320.31
422.28	326.52
422.66	333.17
423.03	340.86
423.40	347.43
423.77	354.79
424.15	361.86
424.52	369.48
424.89	378.00
425.26	385.74
425.64	393.45
426.01	401.07
426.38	409.74
426.75	418.86
427.13	428.07
427.50	437.79
427.87	447.76
428.24	457.48
428.61	466.10
428.99	477.02
429.36	487.38
429.73	498.38
430.10	509.43
430.47	521.24
430.85	531.69
431.22	544.76
431.59	559.81
431.96	572.07
432.33	586.17
432.70	599.64
433.08	615.81
433.45	631.07
433.82	645.90
434.19	662.48
434.56	679.24
434.93	694.83
435.30	710.67
435.68	728.17
436.05	745.19
436.42	761.64
436.79	777.26
437.16	794.21
437.53	811.76
437.90	829.69
438.27	847.33
438.64	865.00
439.01	881.74
439.38	894.52
439.75	909.81
440.13	926.60
440.50	942.52
440.87	955.14
441.24	968.36
441.61	983.31
441.98	994.31
442.35	1006.40
442.72	1018.05
443.09	1031.26
443.46	1039.12
443.83	1044.81
444.20	1049.81
444.57	1055.26
444.94	1059.00
445.31	1063.43
445.68	1068.74
446.05	1069.93
446.42	1068.90
446.79	1067.76
447.16	1065.98
447.53	1065.29
447.90	1059.07
448.27	1052.79
448.64	1044.33
449.01	1038.45
449.37	1027.55
449.74	1016.36
450.11	1005.17
450.48	991.79
450.85	976.17
451.22	963.40
451.59	952.12
451.96	940.62
452.33	925.79
452.70	911.67
453.07	894.17
453.43	875.00
453.80	859.33
454.17	843.95
454.54	828.38
454.91	812.43
455.28	795.98
455.65	780.60
456.02	769.57
456.38	756.50
456.75	740.55
457.12	727.36
457.49	715.05
457.86	700.50
458.23	690.69
458.59	679.17
458.96	666.90
459.33	655.60
459.70	645.07
460.07	636.71
460.43	627.26
460.80	618.79
461.17	611.43
461.54	602.55
461.91	594.00
462.27	586.02
462.64	579.31
463.01	572.14
463.38	566.43
463.74	555.45
464.11	548.88
464.48	543.76
464.85	537.21
465.21	532.98
465.58	528.24
465.95	521.62
466.32	516.43
466.68	511.36
467.05	506.36
467.42	501.10
467.78	495.71
468.15	490.64
468.52	486.83
468.88	481.33
469.25	476.62
469.62	474.07
469.98	470.26
470.35	466.83
470.72	463.12
471.08	458.00
471.45	455.00
471.82	452.45
472.18	448.64
472.55	446.52
472.92	442.71
473.28	440.00
473.65	436.98
474.02	434.17
474.38	432.36
474.75	430.50
475.11	428.64
475.48	427.07
475.85	425.29
476.21	423.45
476.58	422.14
476.94	421.05
477.31	419.24
477.67	417.88
478.04	416.74
478.41	415.98
478.77	417.50
479.14	416.50
479.50	416.05
479.87	415.52
480.23	415.14
480.60	414.67
480.96	414.57
481.33	415.52
481.69	415.64
482.06	415.67
482.42	416.19
482.79	416.33
483.15	416.60
483.52	417.38
483.88	417.62
484.25	417.93
484.61	418.60
484.98	419.40
485.34	421.10
485.71	422.36
486.07	423.24
486.44	422.88
486.80	424.19
487.17	425.71
487.53	428.50
487.90	430.48
488.26	433.50
488.62	436.14
488.99	437.60
489.35	440.29
489.72	443.40
490.08	445.83
490.44	448.43
490.81	451.93
491.17	455.14
491.54	458.76
491.90	463.00
492.26	466.69
492.63	470.07
492.99	473.38
493.36	478.00
493.72	482.98
494.08	487.62
494.45	492.90
494.81	497.83
495.17	502.05
495.54	507.26
495.90	511.71
496.26	516.86
496.63	522.50
496.99	527.52
497.35	532.76
497.72	538.48
498.08	544.50
498.44	550.02
498.80	556.40
499.17	562.48
499.53	568.43
499.89	575.62
500.26	582.86
500.62	589.45
500.98	595.98
501.34	602.90
501.71	610.38
502.07	617.00
502.43	623.83
502.79	630.67
503.16	637.93
503.52	645.26
503.88	652.05
504.24	659.86
504.60	667.74
504.97	675.83
505.33	683.36
505.69	692.02
506.05	700.17
506.41	707.60
506.78	715.17
507.14	722.95
507.50	730.43
507.86	738.14
508.22	746.05
508.59	753.17
508.95	760.57
509.31	768.90
509.67	776.48
510.03	783.69
510.39	791.79
510.75	799.40
511.12	807.21
511.48	814.95
511.84	822.31
512.20	830.02
512.56	837.00
512.92	844.86
513.28	851.90
513.64	859.10
514.00	866.19
514.37	873.60
514.73	881.14
515.09	888.74
515.45	895.38
515.81	901.79
516.17	908.40
516.53	914.88
516.89	920.07
517.25	926.60
517.61	933.76
517.97	939.76
518.33	945.95
518.69	952.45
519.05	959.33
519.41	965.14
519.77	972.33
520.13	977.98
520.49	983.43
520.85	989.07
521.21	995.83
521.57	1002.48
521.93	1007.36
522.29	1012.71
522.65	1017.05
523.01	1022.45
523.37	1028.29
523.73	1034.71
524.09	1039.24
524.45	1044.36
524.81	1048.76
525.17	1053.83
525.53	1058.86
525.89	1063.62
526.25	1067.93
526.61	1071.24
526.97	1075.17
527.33	1078.50
527.68	1084.95
528.04	1088.98
528.40	1092.95
528.76	1096.88
529.12	1100.05
529.48	1105.29
529.84	1109.64
530.20	1115.10
530.56	1120.29
530.91	1125.02
531.27	1128.50
531.63	1133.29
531.99	1136.90
532.35	1141.52
532.71	1144.71
533.07	1149.10
533.42	1156.10
533.78	1160.71
534.14	1166.38
534.50	1170.62
534.86	1174.76
535.21	1177.05
535.57	1182.45
535.93	1185.81
536.29	1189.98
536.65	1193.60
537.00	1196.43
537.36	1199.33
537.72	1201.71
538.08	1205.00
538.44	1207.93
538.79	1211.26
539.15	1214.36
539.51	1218.43
539.87	1222.02
540.22	1225.81
540.58	1229.21
540.94	1229.33
541.29	1232.10
541.65	1233.57
542.01	1236.79
542.37	1238.98
542.72	1240.79
543.08	1242.26
543.44	1246.05
543.79	1246.93
544.15	1250.21
544.51	1254.00
544.87	1257.36
545.22	1260.64
545.58	1262.74
545.94	1264.90
546.29	1267.45
546.65	1270.40
547.01	1272.14
547.36	1274.83
547.72	1277.19
548.07	1279.79
548.43	1282.21
548.79	1283.98
549.14	1286.62
549.50	1289.62
549.86	1291.79
550.21	1295.57
550.57	1299.02
550.92	1300.10
551.28	1303.60
551.64	1306.26
551.99	1308.02
552.35	1310.52
552.70	1312.79
553.06	1316.79
553.41	1320.31
553.77	1324.48
554.13	1327.31
554.48	1331.90
554.84	1335.93
555.19	1339.98
555.55	1344.57
555.90	1347.98
556.26	1352.14
556.61	1356.21
556.97	1359.38
557.32	1363.79
557.68	1367.52
558.03	1370.81
558.39	1375.26
558.74	1378.98
559.10	1382.81
559.45	1387.50
559.81	1392.02
560.16	1396.07
560.52	1399.24
560.87	1404.00
561.23	1407.57
561.58	1414.17
561.94	1418.00
562.29	1421.88
562.64	1426.24
563.00	1429.36
563.35	1434.62
563.71	1439.55
564.06	1444.52
564.42	1449.88
564.77	1455.90
565.12	1461.55
565.48	1468.36
565.83	1474.74
566.19	1480.38
566.54	1486.45
566.89	1491.67
567.25	1498.40
567.60	1505.45
567.96	1513.38
568.31	1519.98
568.66	1526.62
569.02	1530.93
569.37	1535.48
569.72	1541.31
570.08	1546.12
570.43	1551.50
570.78	1557.19
571.14	1562.62
571.49	1568.07
571.84	1574.02
572.20	1578.50
572.55	1583.50
572.90	1586.12
573.26	1590.38
573.61	1595.50
573.96	1599.57
574.31	1604.14
574.67	1606.93
575.02	1609.74
575.37	1611.36
575.72	1614.00
576.08	1617.69
576.43	1621.71
576.78	1626.26
577.13	1629.76
577.49	1634.10
577.84	1638.40
578.19	1641.24
578.54	1644.71
578.90	1647.95
579.25	1650.52
579.60	1653.21
579.95	1655.67
580.30	1660.38
580.66	1664.86
581.01	1669.05
581.36	1673.17
581.71	1677.21
582.06	1681.24
582.42	1684.40
582.77	1688.05
583.12	1691.31
583.47	1694.93
583.82	1698.17
584.17	1701.60
584.53	1705.62
584.88	1708.43
585.23	1712.26
585.58	1715.62
585.93	1718.00
586.28	1721.40
586.63	1724.62
586.98	1728.38
587.34	1732.60
587.69	1735.29
588.04	1736.98
588.39	1738.69
588.74	1738.98
589.09	1741.02
589.44	1742.40
589.79	1745.74
590.14	1748.10
590.49	1749.17
590.84	1749.74
591.19	1751.12
591.54	1752.55
591.89	1753.52
592.25	1757.40
592.60	1757.76
592.95	1759.79
593.30	1763.21
593.65	1765.02
594.00	1765.31
594.35	1771.14
594.70	1770.29
595.05	1770.98
595.40	1771.67
595.75	1772.00
596.10	1774.76
596.45	1776.55
596.80	1778.02
597.15	1779.57
597.50	1778.38
597.85	1780.19
598.19	1780.60
598.54	1780.71
598.89	1781.67
599.24	1781.81
599.59	1781.02
599.94	1781.62
600.29	1781.69
600.64	1781.14
600.99	1780.60
601.34	1782.21
601.69	1777.57
602.04	1777.60
602.39	1777.79
602.74	1778.29
603.08	1777.95
603.43	1778.69
603.78	1778.24
604.13	1777.48
604.48	1775.86
604.83	1777.79
605.18	1778.05
605.53	1778.00
605.87	1777.71
606.22	1776.95
606.57	1775.76
606.92	1773.76
607.27	1772.62
607.62	1772.12
607.96	1771.36
608.31	1770.50
608.66	1768.60
609.01	1767.02
609.36	1767.05
609.70	1764.93
610.05	1762.88
610.40	1762.21
610.75	1758.64
611.10	1756.26
611.44	1753.90
611.79	1752.45
612.14	1749.88
612.49	1745.79
612.83	1743.52
613.18	1740.14
613.53	1737.43
613.88	1734.64
614.22	1731.86
614.57	1728.33
614.92	1724.14
615.27	1720.98
615.61	1716.86
615.96	1713.95
616.31	1711.05
616.65	1708.21
617.00	1706.26
617.35	1703.45
617.70	1699.95
618.04	1697.17
618.39	1693.24
618.74	1690.93
619.08	1687.00
619.43	1683.90
619.78	1681.86
620.12	1678.62
620.47	1675.88
620.82	1672.45
621.16	1667.95
621.51	1665.21
621.85	1661.55
622.20	1657.86
622.55	1652.86
622.89	1650.43
623.24	1647.12
623.59	1642.79
623.93	1638.38
624.28	1633.57
624.62	1631.40
624.97	1628.24
625.32	1624.10
625.66	1619.98
626.01	1615.12
626.35	1611.64
626.70	1606.64
627.04	1602.33
627.39	1598.60
627.73	1595.36
628.08	1591.69
628.43	1589.05
628.77	1584.57
629.12	1581.43
629.46	1578.71
629.81	1575.48
630.15	1570.67
630.50	1565.81
630.84	1561.64
631.19	1556.83
631.53	1552.50
631.88	1545.62
632.22	1539.76
632.57	1535.57
632.91	1530.48
633.26	1525.83
633.60	1520.69
633.95	1515.55
634.29	1510.38
634.64	1505.31
634.98	1499.86
635.32	1495.69
635.67	1491.69
636.01	1486.95
636.36	1481.26
636.70	1476.31
637.05	1471.05
637.39	1466.36
637.73	1462.43
638.08	1458.57
638.42	1454.81
638.77	1449.71
639.11	1445.38
639.45	1441.02
639.80	1436.21
640.14	1432.10
640.49	1427.74
640.83	1422.07
641.17	1418.14
641.52	1413.10
641.86	1408.14
642.20	1404.05
642.55	1398.60
642.89	1392.12
643.23	1386.62
643.58	1382.40
643.92	1376.36
644.26	1371.40
644.61	1366.67
644.95	1360.52
645.29	1354.19
645.64	1348.74
645.98	1343.55
646.32	1338.33
646.66	1332.33
647.01	1326.02
647.35	1320.29
647.69	1314.67
648.04	1309.14
648.38	1303.07
648.72	1297.71
649.06	1291.45
649.41	1285.02
649.75	1278.40
650.09	1272.90
650.43	1267.50
650.78	1260.48
651.12	1253.93
651.46	1247.12
651.80	1240.45
652.14	1234.00
652.49	1228.38
652.83	1221.50
653.17	1214.69
653.51	1207.21
653.85	1201.19
654.20	1195.07
654.54	1189.02
654.88	1182.57
655.22	1177.14
655.56	1170.69
655.90	1164.71
656.25	1158.10
656.59	1151.55
656.93	1145.79
657.27	1140.57
657.61	1133.83
657.95	1128.95
658.29	1122.83
658.64	1117.71
658.98	1110.90
659.32	1104.38
659.66	1097.52
660.00	1091.24
660.34	1085.71
660.68	1080.50
661.02	1074.05
661.36	1068.26
661.70	1062.36
662.05	1055.93
662.39	1050.12
662.73	1044.67
663.07	1039.48
663.41	1034.00
663.75	1028.48
664.09	1022.43
664.43	1015.38
664.77	1009.17
665.11	1002.29
665.45	996.71
665.79	990.48
666.13	985.29
666.47	979.86
666.81	975.00
667.15	969.24
667.49	963.43
667.83	958.55
668.17	952.64
668.51	947.26
668.85	941.90
669.19	937.21
669.53	930.55
669.87	924.83
670.21	918.10
670.55	912.05
670.89	906.52
671.23	900.64
671.57	895.50
671.91	890.64
672.25	885.98
672.58	881.50
672.92	876.05
673.26	870.95
673.60	865.67
673.94	860.05
674.28	855.40
674.62	850.69
674.96	845.26
675.30	840.26
675.64	835.02
675.97	830.17
676.31	824.52
676.65	819.50
676.99	815.43
677.33	810.21
677.67	806.19
678.01	801.17
678.34	796.62
678.68	792.02
679.02	786.60
679.36	781.48
679.70	775.31
680.04	770.14
680.37	764.60
680.71	760.10
681.05	755.52
681.39	750.33
681.73	745.17
682.06	740.71
682.40	736.45
682.74	731.76
683.08	727.50
683.42	722.74
683.75	718.64
684.09	713.21
684.43	708.67
684.77	703.21
685.10	698.60
685.44	693.74
685.78	688.79
686.12	684.19
686.45	679.31
686.79	675.45
687.13	671.36
687.46	667.19
687.80	663.10
688.14	658.17
688.48	654.24
688.81	649.88
689.15	645.38
689.49	640.43
689.82	635.74
690.16	629.76
690.50	625.14
690.83	620.69
691.17	615.93
691.51	611.71
691.84	607.88
692.18	603.50
692.52	599.33
692.85	595.88
693.19	592.86
693.52	588.81
693.86	584.38
694.20	579.90
694.53	575.81
694.87	571.00
695.21	566.98
695.54	562.36
695.88	557.69
696.21	553.10
696.55	549.60
696.88	546.05
697.22	542.79
697.56	539.67
697.89	536.07
698.23	532.52
698.56	528.26
698.90	524.62
699.23	520.55
699.57	517.19
699.90	512.81
700.24	508.36
700.58	504.67
700.91	501.90
701.25	500.57
701.58	497.81
701.92	495.33
702.25	491.90
702.59	489.02
702.92	486.67
703.26	483.62
703.59	480.64
703.93	479.05
704.26	476.19
704.60	472.98
704.93	469.60
705.26	466.52
705.60	464.36
705.93	461.29
706.27	459.21
706.60	456.60
706.94	454.76
707.27	451.95
707.61	449.12
707.94	445.64
708.27	440.95
708.61	437.90
708.94	434.76
709.28	432.40
709.61	429.43
709.94	426.64
710.28	423.98
710.61	421.69
710.95	417.24
711.28	416.40
711.61	414.12
711.95	412.05
712.28	409.57
712.61	407.12
712.95	405.60
713.28	404.10
713.61	401.60
713.95	398.90
714.28	396.79
714.61	394.62
714.95	392.64
715.28	390.21
715.61	387.71
715.95	385.71
716.28	383.60
716.61	381.62
716.95	379.17
717.28	377.07
717.61	374.62
717.94	372.79
718.28	368.69
718.61	366.50
718.94	364.36
719.27	362.38
719.61	360.40
719.94	358.07
720.27	355.05
720.60	352.93
720.94	350.90
721.27	349.45
721.60	348.00
721.93	346.29
722.27	345.67
722.60	344.26
722.93	342.62
723.26	340.98
723.59	338.90
723.93	337.93
724.26	336.62
724.59	334.83
724.92	333.71
725.25	333.07
725.59	331.67
725.92	330.57
726.25	329.12
726.58	327.88
726.91	326.71
727.24	325.79
727.57	324.43
727.91	322.69
728.24	321.48
728.57	320.24
728.90	319.26
729.23	317.21
729.56	316.71
729.89	315.43
730.22	314.29
730.55	313.52
730.89	312.14
731.22	310.93
731.55	310.12
731.88	308.62
732.21	307.26
732.54	305.90
732.87	304.62
733.20	303.64
733.53	302.52
733.86	301.36
734.19	299.90
734.52	299.21
734.85	299.67
735.18	298.38
735.51	297.79
735.84	296.81
736.17	296.52
736.50	294.88
736.83	296.33
737.16	295.45
737.49	294.55
737.82	293.52
738.15	292.67
738.48	291.57
738.81	290.69
739.14	289.55
739.47	288.71
739.80	287.98
740.13	287.55
740.46	286.50
740.79	285.36
741.12	284.38
741.45	283.43
741.78	281.45
742.11	281.36
742.44	279.98
742.77	279.36
743.10	278.17
743.43	277.10
743.75	274.10
744.08	276.12
744.41	275.12
744.74	274.43
745.07	273.43
745.40	272.90
745.73	273.40
746.06	272.76
746.39	272.14
746.71	270.98
747.04	269.67
747.37	268.79
747.70	268.81
748.03	268.40
748.36	267.95
748.68	267.62
749.01	266.10
749.34	265.55
749.67	265.05
750.00	264.88
750.33	265.88
750.65	265.26
750.98	261.81
751.31	261.71
751.64	261.50
751.97	262.31
752.29	261.76
752.62	260.19
752.95	259.45
753.28	258.76
753.60	258.31
753.93	258.76
754.26	258.57
754.59	257.14
754.91	256.31
755.24	255.38
755.57	254.71
755.90	254.33
756.22	253.86
756.55	252.86
756.88	251.83
757.20	249.83
757.53	248.81
757.86	248.38
758.19	247.93
758.51	247.12
758.84	245.52
759.17	244.76
759.49	244.36
759.82	244.81
760.15	244.71
760.47	244.48
760.80	243.21
761.13	243.14
761.45	243.07
761.78	243.00
762.11	242.74
762.43	242.19
762.76	241.81
763.08	241.55
763.41	241.45
763.74	241.33
764.06	240.95
764.39	241.05
764.71	240.86
765.04	239.95
765.37	239.45
765.69	239.02
766.02	238.88
766.34	238.50
766.67	237.71
767.00	237.71
767.32	238.24
767.65	239.33
767.97	238.81
768.30	238.38
768.62	238.12
768.95	237.71
769.27	237.57
769.60	237.57
769.92	236.95
770.25	236.14
770.57	235.74
770.90	235.50
771.22	234.83
771.55	234.52
771.87	234.57
772.20	234.55
772.52	236.07
772.85	238.36
773.17	238.05
773.50	237.48
773.82	236.86
774.15	235.67
774.47	234.14
774.80	233.86
775.12	233.69
775.45	233.26
775.77	233.02
776.09	233.07
776.42	233.05
776.74	233.52
777.07	233.40
777.39	233.07
777.72	232.67
778.04	232.93
778.36	232.60
778.69	232.40
779.01	232.24
779.33	230.07
779.66	227.64
779.98	227.24
780.31	227.21
780.63	227.76
780.95	227.86
781.28	227.88
781.60	227.48
781.92	227.12
782.25	226.71
782.57	226.55
782.89	226.05
783.22	225.69
783.54	224.98
783.86	225.14
784.19	224.83
784.51	225.21
784.83	224.83
