SpectraSuite Data File
++++++++++++++++++++++++++++++++++++
Date: Tue Apr 02 18:40:54 EDT 2013
User: group
Dark Spectrum Present: No
Reference Spectrum Present: No
Number of Sampled Component Spectra: 1
Spectrometers: USB2E7196
Integration Time (usec): 580000 (USB2E7196)
Spectra Averaged: 2 (USB2E7196)
Boxcar Smoothing: 10 (USB2E7196)
Correct for Electrical Dark: No (USB2E7196)
Strobe/Lamp Enabled: No (USB2E7196)
Correct for Detector Non-linearity: No (USB2E7196)
Correct for Stray Light: No (USB2E7196)
Number of Pixels in Processed Spectrum: 2048
>>>>>Begin Processed Spectral Data<<<<<
339.09	0.00
339.48	194.50
339.86	197.00
340.24	200.00
340.63	199.00
341.01	231.00
341.39	203.00
341.78	205.50
342.16	211.00
342.54	205.00
342.93	198.05
343.31	207.86
343.69	208.55
344.07	208.98
344.46	209.50
344.84	210.10
345.22	208.93
345.60	209.38
345.99	209.64
346.37	209.55
346.75	209.45
347.13	209.57
347.52	209.83
347.90	210.52
348.28	210.45
348.66	211.00
349.05	210.36
349.43	210.57
349.81	210.60
350.19	210.45
350.57	210.69
350.96	210.83
351.34	210.88
351.72	211.00
352.10	211.05
352.48	210.79
352.87	210.64
353.25	210.83
353.63	210.76
354.01	210.60
354.39	210.69
354.77	210.86
355.15	211.40
355.54	211.02
355.92	210.52
356.30	210.76
356.68	212.07
357.06	212.31
357.44	212.02
357.82	211.93
358.20	212.95
358.58	212.81
358.97	212.76
359.35	213.36
359.73	213.43
360.11	213.33
360.49	213.48
360.87	213.31
361.25	213.60
361.63	214.02
362.01	214.26
362.39	214.21
362.77	214.29
363.15	214.12
363.53	214.21
363.91	214.21
364.29	214.02
364.67	211.93
365.05	211.98
365.43	212.29
365.81	212.24
366.19	212.43
366.57	213.29
366.95	213.24
367.33	212.52
367.71	212.62
368.09	213.12
368.47	213.17
368.85	213.31
369.23	213.64
369.61	213.12
369.99	213.79
370.37	214.07
370.75	215.19
371.13	214.86
371.51	214.90
371.89	215.31
372.27	215.50
372.65	215.88
373.03	215.76
373.41	215.67
373.78	215.67
374.16	214.67
374.54	213.93
374.92	213.98
375.30	214.05
375.68	213.83
376.06	214.00
376.44	213.95
376.82	214.17
377.19	214.12
377.57	214.07
377.95	213.31
378.33	213.24
378.71	211.98
379.09	212.29
379.47	212.55
379.84	212.33
380.22	212.26
380.60	211.93
380.98	211.90
381.36	211.81
381.73	211.83
382.11	212.17
382.49	212.26
382.87	212.00
383.25	212.21
383.62	214.48
384.00	213.95
384.38	214.02
384.76	214.57
385.13	215.19
385.51	215.40
385.89	215.40
386.27	215.21
386.64	215.60
387.02	215.31
387.40	215.21
387.78	215.45
388.15	215.36
388.53	215.21
388.91	215.50
389.29	215.38
389.66	215.48
390.04	215.12
390.42	215.60
390.79	215.83
391.17	215.86
391.55	213.71
391.92	214.05
392.30	214.36
392.68	213.64
393.05	213.60
393.43	213.57
393.81	213.64
394.18	213.55
394.56	213.86
394.94	214.29
395.31	214.00
395.69	214.45
396.06	215.12
396.44	215.40
396.82	215.19
397.19	216.43
397.57	216.29
397.95	216.79
398.32	216.38
398.70	216.57
399.07	217.14
399.45	217.21
399.82	217.14
400.20	217.05
400.58	217.05
400.95	216.17
401.33	216.62
401.70	218.14
402.08	218.36
402.45	218.36
402.83	218.52
403.20	218.79
403.58	218.50
403.95	218.71
404.33	219.21
404.71	219.45
405.08	220.52
405.46	220.76
405.83	221.24
406.21	221.38
406.58	221.98
406.96	222.21
407.33	222.74
407.70	223.43
408.08	225.33
408.45	226.48
408.83	227.64
409.20	228.02
409.58	227.48
409.95	228.67
410.33	229.52
410.70	230.14
411.08	231.62
411.45	233.00
411.82	233.98
412.20	235.71
412.57	238.29
412.95	238.10
413.32	239.86
413.69	241.17
414.07	243.29
414.44	245.00
414.82	247.14
415.19	249.45
415.56	251.71
415.94	253.14
416.31	256.07
416.68	259.02
417.06	262.69
417.43	266.45
417.81	269.88
418.18	273.79
418.55	277.98
418.93	282.07
419.30	286.33
419.67	291.00
420.04	295.60
420.42	300.10
420.79	307.55
421.16	313.71
421.54	320.93
421.91	327.21
422.28	334.12
422.66	340.60
423.03	349.12
423.40	356.17
423.77	363.76
424.15	371.43
424.52	379.38
424.89	387.74
425.26	395.98
425.64	404.14
426.01	412.55
426.38	422.10
426.75	432.33
427.13	442.36
427.50	452.62
427.87	462.69
428.24	473.02
428.61	481.95
428.99	493.95
429.36	504.98
429.73	516.67
430.10	528.17
430.47	540.81
430.85	551.81
431.22	564.86
431.59	580.98
431.96	593.90
432.33	608.43
432.70	623.50
433.08	640.00
433.45	656.07
433.82	672.43
434.19	689.43
434.56	706.52
434.93	722.95
435.30	739.36
435.68	758.21
436.05	776.43
436.42	793.90
436.79	810.12
437.16	828.12
437.53	846.83
437.90	865.31
438.27	883.62
438.64	902.24
439.01	921.02
439.38	934.69
439.75	950.33
440.13	968.36
440.50	984.43
440.87	998.17
441.24	1012.62
441.61	1027.71
441.98	1039.29
442.35	1052.14
442.72	1065.50
443.09	1079.29
443.46	1086.48
443.83	1091.57
444.20	1096.69
444.57	1102.50
444.94	1105.60
445.31	1108.93
445.68	1115.29
446.05	1118.02
446.42	1117.10
446.79	1115.43
447.16	1113.31
447.53	1112.24
447.90	1104.93
448.27	1098.24
448.64	1089.05
449.01	1082.38
449.37	1070.52
449.74	1059.14
450.11	1047.26
450.48	1031.55
450.85	1015.29
451.22	1002.79
451.59	990.38
451.96	978.10
452.33	962.48
452.70	948.05
453.07	930.29
453.43	909.40
453.80	890.57
454.17	873.79
454.54	857.19
454.91	840.62
455.28	823.43
455.65	808.14
456.02	796.33
456.38	782.98
456.75	766.31
457.12	752.76
457.49	739.81
457.86	724.67
458.23	715.14
458.59	702.38
458.96	690.10
459.33	678.81
459.70	668.14
460.07	659.10
460.43	648.62
460.80	639.76
461.17	631.86
461.54	623.36
461.91	615.05
462.27	606.55
462.64	598.71
463.01	591.14
463.38	584.24
463.74	573.07
464.11	565.88
464.48	559.52
464.85	552.83
465.21	547.57
465.58	542.33
465.95	534.60
466.32	529.69
466.68	523.67
467.05	518.76
467.42	513.24
467.78	507.62
468.15	502.52
468.52	498.93
468.88	493.45
469.25	488.79
469.62	485.55
469.98	481.55
470.35	477.95
470.72	474.26
471.08	469.67
471.45	466.52
471.82	463.74
472.18	460.40
472.55	457.90
472.92	454.21
473.28	450.93
473.65	447.93
474.02	444.95
474.38	442.67
474.75	440.36
475.11	438.07
475.48	436.64
475.85	434.74
476.21	432.21
476.58	430.76
476.94	429.83
477.31	428.43
477.67	427.69
478.04	426.67
478.41	426.07
478.77	427.10
479.14	425.74
479.50	425.52
479.87	425.12
480.23	424.76
480.60	424.29
480.96	424.02
481.33	424.98
481.69	424.98
482.06	425.40
482.42	425.79
482.79	425.98
483.15	425.79
483.52	427.02
483.88	427.57
484.25	428.02
484.61	428.79
484.98	429.00
485.34	430.24
485.71	431.71
486.07	433.00
486.44	432.93
486.80	434.69
487.17	435.90
487.53	438.21
487.90	440.17
488.26	443.69
488.62	446.62
488.99	448.40
489.35	451.24
489.72	453.67
490.08	456.07
490.44	458.93
490.81	462.50
491.17	465.71
491.54	469.36
491.90	473.55
492.26	477.31
492.63	481.64
492.99	484.95
493.36	489.10
493.72	493.88
494.08	498.12
494.45	502.81
494.81	508.17
495.17	512.98
495.54	518.12
495.90	522.21
496.26	527.48
496.63	533.07
496.99	538.86
497.35	545.02
497.72	551.50
498.08	557.62
498.44	563.98
498.80	570.71
499.17	577.83
499.53	584.14
499.89	591.40
500.26	598.21
500.62	605.79
500.98	613.48
501.34	620.48
501.71	628.40
502.07	635.95
502.43	643.12
502.79	650.38
503.16	658.17
503.52	666.02
503.88	672.86
504.24	680.69
504.60	688.88
504.97	697.02
505.33	705.10
505.69	714.86
506.05	722.86
506.41	730.55
506.78	738.12
507.14	745.81
507.50	753.95
507.86	762.07
508.22	769.95
508.59	777.69
508.95	786.21
509.31	795.29
509.67	803.43
510.03	811.52
510.39	819.71
510.75	827.67
511.12	836.21
511.48	845.21
511.84	853.05
512.20	860.60
512.56	868.88
512.92	877.14
513.28	884.71
513.64	892.76
514.00	900.71
514.37	909.00
514.73	917.79
515.09	925.57
515.45	933.52
515.81	940.83
516.17	947.76
516.53	954.48
516.89	961.02
517.25	968.17
517.61	975.86
517.97	983.40
518.33	990.88
518.69	997.88
519.05	1004.52
519.41	1011.21
519.77	1019.26
520.13	1025.43
520.49	1032.07
520.85	1038.36
521.21	1045.90
521.57	1052.17
521.93	1057.88
522.29	1063.83
522.65	1069.21
523.01	1075.29
523.37	1081.55
523.73	1087.48
524.09	1093.48
524.45	1098.95
524.81	1104.33
525.17	1110.24
525.53	1115.62
525.89	1120.64
526.25	1126.29
526.61	1130.90
526.97	1136.83
527.33	1142.19
527.68	1148.83
528.04	1153.38
528.40	1157.48
528.76	1161.76
529.12	1167.10
529.48	1172.67
529.84	1176.45
530.20	1182.10
530.56	1186.93
530.91	1192.40
531.27	1198.29
531.63	1202.79
531.99	1207.10
532.35	1211.93
532.71	1215.90
533.07	1219.93
533.42	1226.33
533.78	1230.12
534.14	1235.64
534.50	1239.95
534.86	1244.55
535.21	1247.48
535.57	1252.69
535.93	1257.21
536.29	1262.45
536.65	1266.71
537.00	1270.00
537.36	1275.38
537.72	1278.86
538.08	1283.00
538.44	1286.02
538.79	1290.05
539.15	1293.98
539.51	1297.95
539.87	1302.50
540.22	1306.38
540.58	1311.29
540.94	1313.64
541.29	1317.67
541.65	1321.33
542.01	1325.29
542.37	1327.14
542.72	1330.26
543.08	1331.93
543.44	1335.26
543.79	1336.55
544.15	1339.93
544.51	1344.07
544.87	1346.74
545.22	1350.40
545.58	1353.33
545.94	1356.90
546.29	1359.88
546.65	1363.40
547.01	1366.26
547.36	1369.57
547.72	1372.86
548.07	1376.38
548.43	1379.33
548.79	1382.10
549.14	1385.21
549.50	1388.60
549.86	1392.36
550.21	1395.57
550.57	1400.31
550.92	1402.79
551.28	1406.90
551.64	1409.95
551.99	1413.52
552.35	1417.29
552.70	1420.98
553.06	1424.71
553.41	1428.14
553.77	1432.71
554.13	1437.10
554.48	1442.50
554.84	1446.07
555.19	1449.90
555.55	1455.43
555.90	1459.74
556.26	1464.74
556.61	1468.57
556.97	1472.00
557.32	1475.81
557.68	1481.33
558.03	1485.14
558.39	1490.02
558.74	1495.02
559.10	1499.86
559.45	1504.10
559.81	1508.88
560.16	1513.00
560.52	1517.71
560.87	1523.12
561.23	1526.38
561.58	1532.21
561.94	1536.98
562.29	1541.88
562.64	1547.71
563.00	1550.74
563.35	1555.40
563.71	1559.88
564.06	1566.36
564.42	1571.19
564.77	1577.67
565.12	1583.26
565.48	1590.45
565.83	1597.02
566.19	1602.64
566.54	1608.07
566.89	1613.24
567.25	1619.98
567.60	1626.90
567.96	1634.90
568.31	1641.48
568.66	1648.36
569.02	1652.26
569.37	1656.48
569.72	1661.10
570.08	1664.86
570.43	1669.00
570.78	1675.17
571.14	1680.31
571.49	1684.31
571.84	1690.33
572.20	1694.24
572.55	1698.57
572.90	1700.83
573.26	1704.48
573.61	1707.43
573.96	1711.98
574.31	1716.83
574.67	1719.62
575.02	1721.88
575.37	1723.07
575.72	1725.05
576.08	1728.05
576.43	1730.67
576.78	1734.29
577.13	1737.57
577.49	1741.14
577.84	1745.60
578.19	1748.19
578.54	1751.79
578.90	1755.02
579.25	1757.07
579.60	1758.69
579.95	1760.50
580.30	1764.00
580.66	1767.45
581.01	1770.52
581.36	1772.33
581.71	1775.02
582.06	1778.83
582.42	1782.00
582.77	1784.14
583.12	1786.40
583.47	1788.95
583.82	1791.95
584.17	1793.38
584.53	1797.43
584.88	1799.33
585.23	1800.64
585.58	1801.57
585.93	1802.33
586.28	1803.93
586.63	1806.60
586.98	1809.55
587.34	1811.64
587.69	1812.07
588.04	1811.71
588.39	1813.21
588.74	1813.14
589.09	1813.52
589.44	1812.26
589.79	1812.55
590.14	1813.40
590.49	1813.24
590.84	1812.76
591.19	1813.07
591.54	1814.71
591.89	1812.26
592.25	1814.67
592.60	1813.69
592.95	1814.05
593.30	1814.93
593.65	1813.50
594.00	1811.81
594.35	1816.90
594.70	1815.86
595.05	1816.02
595.40	1816.43
595.75	1815.07
596.10	1815.19
596.45	1814.14
596.80	1814.10
597.15	1813.57
597.50	1812.07
597.85	1812.24
598.19	1810.88
598.54	1810.10
598.89	1808.86
599.24	1810.00
599.59	1806.36
599.94	1805.38
600.29	1804.62
600.64	1803.00
600.99	1802.17
601.34	1802.02
601.69	1795.40
602.04	1793.29
602.39	1791.33
602.74	1790.00
603.08	1789.14
603.43	1788.67
603.78	1786.12
604.13	1784.12
604.48	1781.31
604.83	1780.79
605.18	1779.31
605.53	1778.29
605.87	1774.93
606.22	1771.95
606.57	1768.21
606.92	1766.17
607.27	1764.79
607.62	1763.31
607.96	1761.19
608.31	1759.79
608.66	1756.48
609.01	1753.60
609.36	1751.83
609.70	1749.33
610.05	1745.52
610.40	1742.07
610.75	1737.45
611.10	1735.71
611.44	1731.60
611.79	1728.74
612.14	1724.29
612.49	1719.21
612.83	1715.21
613.18	1711.88
613.53	1707.95
613.88	1703.52
614.22	1699.62
614.57	1694.48
614.92	1688.40
615.27	1683.14
615.61	1677.50
615.96	1672.67
616.31	1668.02
616.65	1664.00
617.00	1659.74
617.35	1655.29
617.70	1650.21
618.04	1645.60
618.39	1639.76
618.74	1635.40
619.08	1629.64
619.43	1624.76
619.78	1620.12
620.12	1614.33
620.47	1609.64
620.82	1604.48
621.16	1599.17
621.51	1595.02
621.85	1590.07
622.20	1584.93
622.55	1579.62
622.89	1575.17
623.24	1570.31
623.59	1564.43
623.93	1559.10
624.28	1554.02
624.62	1551.64
624.97	1548.21
625.32	1543.86
625.66	1538.81
626.01	1533.76
626.35	1529.83
626.70	1524.33
627.04	1520.02
627.39	1515.79
627.73	1511.48
628.08	1506.81
628.43	1502.45
628.77	1496.74
629.12	1492.60
629.46	1488.26
629.81	1483.81
630.15	1477.81
630.50	1472.45
630.84	1466.88
631.19	1460.83
631.53	1454.95
631.88	1445.81
632.22	1438.69
632.57	1433.52
632.91	1428.12
633.26	1422.45
633.60	1416.36
633.95	1411.07
634.29	1404.55
634.64	1399.14
634.98	1392.76
635.32	1387.62
635.67	1382.10
636.01	1376.48
636.36	1369.79
636.70	1364.52
637.05	1358.71
637.39	1353.62
637.73	1348.00
638.08	1343.52
638.42	1337.62
638.77	1332.60
639.11	1327.67
639.45	1322.33
639.80	1315.67
640.14	1309.19
640.49	1303.55
640.83	1297.67
641.17	1291.57
641.52	1285.26
641.86	1278.31
642.20	1273.19
642.55	1266.24
642.89	1259.67
643.23	1252.81
643.58	1247.14
643.92	1239.45
644.26	1232.64
644.61	1225.90
644.95	1219.14
645.29	1211.98
645.64	1206.26
645.98	1199.19
646.32	1192.88
646.66	1185.67
647.01	1178.67
647.35	1173.52
647.69	1166.86
648.04	1161.14
648.38	1154.79
648.72	1148.83
649.06	1142.40
649.41	1134.57
649.75	1127.88
650.09	1121.40
650.43	1114.52
650.78	1107.74
651.12	1100.88
651.46	1093.76
651.80	1087.31
652.14	1081.36
652.49	1075.14
652.83	1068.05
653.17	1061.62
653.51	1054.98
653.85	1048.64
654.20	1041.93
654.54	1033.86
654.88	1026.90
655.22	1020.00
655.56	1013.26
655.90	1007.05
656.25	1000.48
656.59	994.55
656.93	988.60
657.27	982.95
657.61	976.45
657.95	969.81
658.29	963.95
658.64	958.83
658.98	952.98
659.32	946.31
659.66	939.62
660.00	934.43
660.34	928.12
660.68	921.98
661.02	916.00
661.36	910.36
661.70	904.90
662.05	899.36
662.39	893.79
662.73	888.95
663.07	883.69
663.41	878.12
663.75	871.69
664.09	865.79
664.43	859.62
664.77	854.38
665.11	848.24
665.45	842.86
665.79	836.95
666.13	829.98
666.47	824.14
666.81	818.95
667.15	812.19
667.49	807.38
667.83	802.93
668.17	797.52
668.51	792.45
668.85	787.81
669.19	783.40
669.53	777.21
669.87	770.76
670.21	765.02
670.55	759.14
670.89	755.48
671.23	750.05
671.57	744.76
671.91	740.14
672.25	736.02
672.58	732.05
672.92	726.83
673.26	722.62
673.60	717.81
673.94	712.98
674.28	708.67
674.62	703.67
674.96	698.36
675.30	694.00
675.64	689.55
675.97	684.71
676.31	679.81
676.65	675.57
676.99	672.33
677.33	667.74
677.67	664.17
678.01	658.74
678.34	654.64
678.68	650.71
679.02	645.86
679.36	641.31
679.70	636.19
680.04	631.74
680.37	627.57
680.71	623.21
681.05	619.33
681.39	614.55
681.73	609.67
682.06	605.21
682.40	600.52
682.74	596.10
683.08	592.43
683.42	587.62
683.75	583.43
684.09	578.76
684.43	574.76
684.77	570.14
685.10	565.50
685.44	561.40
685.78	557.10
686.12	553.26
686.45	549.50
686.79	545.36
687.13	542.26
687.46	538.62
687.80	535.71
688.14	531.86
688.48	528.69
688.81	525.43
689.15	522.69
689.49	519.31
689.82	516.05
690.16	511.81
690.50	508.48
690.83	504.81
691.17	500.33
691.51	496.38
691.84	493.48
692.18	490.29
692.52	486.71
692.85	483.79
693.19	480.69
693.52	477.21
693.86	473.62
694.20	469.95
694.53	466.14
694.87	462.43
695.21	458.62
695.54	455.79
695.88	452.45
696.21	448.19
696.55	444.74
696.88	441.50
697.22	438.67
697.56	436.14
697.89	433.07
698.23	431.02
698.56	428.38
698.90	425.88
699.23	423.29
699.57	420.90
699.90	417.88
700.24	414.98
700.58	412.29
700.91	410.48
701.25	409.33
701.58	407.86
701.92	405.98
702.25	403.98
702.59	401.29
702.92	398.95
703.26	397.05
703.59	395.24
703.93	394.71
704.26	392.64
704.60	389.93
704.93	387.67
705.26	385.19
705.60	383.57
705.93	381.02
706.27	379.71
706.60	377.90
706.94	376.69
707.27	374.62
707.61	372.95
707.94	370.79
708.27	367.36
708.61	364.69
708.94	362.40
709.28	360.33
709.61	358.29
709.94	356.74
710.28	354.90
710.61	353.02
710.95	349.48
711.28	348.88
711.61	347.33
711.95	346.26
712.28	344.81
712.61	342.79
712.95	342.02
713.28	340.93
713.61	338.76
713.95	336.67
714.28	335.10
714.61	333.43
714.95	331.86
715.28	330.33
715.61	328.81
715.95	327.50
716.28	326.14
716.61	325.38
716.95	323.38
717.28	322.10
717.61	320.98
717.94	319.38
718.28	316.33
718.61	315.07
718.94	313.55
719.27	311.93
719.61	310.81
719.94	308.95
720.27	306.60
720.60	305.48
720.94	304.29
721.27	303.48
721.60	302.62
721.93	301.40
722.27	300.83
722.60	300.21
722.93	298.79
723.26	297.90
723.59	296.19
723.93	295.57
724.26	294.60
724.59	293.24
724.92	292.69
725.25	292.50
725.59	291.26
725.92	290.64
726.25	289.90
726.58	288.88
726.91	287.90
727.24	287.48
727.57	286.67
727.91	285.36
728.24	284.60
728.57	283.29
728.90	282.76
729.23	281.33
729.56	281.26
729.89	280.62
730.22	279.79
730.55	278.98
730.89	278.24
731.22	277.33
731.55	276.64
731.88	276.14
732.21	275.05
732.54	274.50
732.87	273.33
733.20	272.64
733.53	272.17
733.86	271.60
734.19	270.52
734.52	270.05
734.85	270.98
735.18	269.81
735.51	269.86
735.84	269.19
736.17	269.33
736.50	267.81
736.83	269.69
737.16	269.14
737.49	268.79
737.82	268.19
738.15	267.98
738.48	267.64
738.81	266.64
739.14	265.95
739.47	265.31
739.80	264.81
740.13	264.31
740.46	263.26
740.79	262.52
741.12	262.10
741.45	261.33
741.78	259.50
742.11	259.86
742.44	258.88
742.77	258.60
743.10	257.64
743.43	256.90
743.75	254.26
744.08	256.14
744.41	255.26
744.74	254.64
745.07	253.74
745.40	253.38
745.73	253.79
746.06	253.55
746.39	253.17
746.71	252.36
747.04	251.88
747.37	251.45
747.70	251.55
748.03	251.31
748.36	251.10
748.68	250.74
749.01	249.71
749.34	249.38
749.67	249.10
750.00	249.24
750.33	250.64
750.65	250.43
750.98	247.52
751.31	247.40
751.64	247.07
751.97	247.81
752.29	247.36
752.62	246.19
752.95	245.55
753.28	245.14
753.60	244.95
753.93	245.00
754.26	244.90
754.59	243.76
754.91	243.24
755.24	242.71
755.57	242.24
755.90	241.69
756.22	241.19
756.55	240.26
756.88	239.38
757.20	237.64
757.53	236.43
757.86	236.00
758.19	235.79
758.51	235.50
758.84	234.05
759.17	233.43
759.49	233.29
759.82	234.07
760.15	233.90
760.47	233.79
760.80	232.95
761.13	232.95
761.45	232.45
761.78	232.17
762.11	231.98
762.43	231.71
762.76	231.45
763.08	231.43
763.41	231.69
763.74	231.57
764.06	231.38
764.39	231.55
764.71	231.43
765.04	231.14
765.37	230.86
765.69	230.69
766.02	230.60
766.34	229.98
766.67	228.95
767.00	228.95
767.32	229.71
767.65	230.74
767.97	230.43
768.30	230.69
768.62	230.52
768.95	230.17
769.27	229.98
769.60	230.10
769.92	229.57
770.25	228.71
770.57	228.12
770.90	227.83
771.22	227.45
771.55	227.62
771.87	227.48
772.20	227.12
772.52	228.76
772.85	231.02
773.17	231.12
773.50	230.88
773.82	230.43
774.15	229.40
774.47	228.00
774.80	227.67
775.12	227.48
775.45	227.33
775.77	227.21
776.09	227.24
776.42	227.07
776.74	227.62
777.07	227.43
777.39	227.48
777.72	227.05
778.04	227.14
778.36	226.71
778.69	226.79
779.01	227.02
779.33	225.21
779.66	222.76
779.98	222.62
780.31	222.67
780.63	223.52
780.95	223.74
781.28	223.64
781.60	223.52
781.92	223.52
782.25	223.43
782.57	223.45
782.89	223.14
783.22	223.07
783.54	222.48
783.86	222.60
784.19	222.31
784.51	223.10
784.83	222.88
785.16	222.71
