SpectraSuite Data File
++++++++++++++++++++++++++++++++++++
Date: Tue Apr 02 18:42:56 EDT 2013
User: group
Dark Spectrum Present: No
Reference Spectrum Present: No
Number of Sampled Component Spectra: 1
Spectrometers: USB2E7196
Integration Time (usec): 580000 (USB2E7196)
Spectra Averaged: 2 (USB2E7196)
Boxcar Smoothing: 10 (USB2E7196)
Correct for Electrical Dark: No (USB2E7196)
Strobe/Lamp Enabled: No (USB2E7196)
Correct for Detector Non-linearity: No (USB2E7196)
Correct for Stray Light: No (USB2E7196)
Number of Pixels in Processed Spectrum: 2048
>>>>>Begin Processed Spectral Data<<<<<
339.09	0.00
339.48	192.50
339.86	193.50
340.24	197.50
340.63	198.00
341.01	232.50
341.39	204.50
341.78	204.00
342.16	210.00
342.54	206.00
342.93	198.38
343.31	208.26
343.69	208.93
344.07	209.67
344.46	210.45
344.84	211.05
345.22	209.88
345.60	210.40
345.99	210.98
346.37	211.02
346.75	211.33
347.13	211.21
347.52	211.31
347.90	211.95
348.28	212.10
348.66	212.71
349.05	212.29
349.43	212.74
349.81	213.10
350.19	213.00
350.57	212.90
350.96	213.07
351.34	213.26
351.72	213.45
352.10	213.81
352.48	213.83
352.87	213.81
353.25	213.86
353.63	213.48
354.01	213.10
354.39	213.14
354.77	212.95
355.15	213.60
355.54	213.29
355.92	212.62
356.30	212.64
356.68	213.81
357.06	213.95
357.44	213.60
357.82	213.48
358.20	214.57
358.58	214.69
358.97	214.60
359.35	214.90
359.73	215.07
360.11	214.81
360.49	214.64
360.87	214.57
361.25	214.62
361.63	215.14
362.01	215.40
362.39	215.17
362.77	215.17
363.15	215.07
363.53	215.05
363.91	215.33
364.29	215.26
364.67	213.14
365.05	212.93
365.43	213.07
365.81	213.21
366.19	213.07
366.57	213.57
366.95	213.69
367.33	213.29
367.71	213.36
368.09	213.81
368.47	213.93
368.85	213.88
369.23	214.55
369.61	213.93
369.99	214.52
370.37	214.90
370.75	216.14
371.13	215.62
371.51	215.48
371.89	215.40
372.27	215.62
372.65	215.64
373.03	215.67
373.41	215.50
373.78	215.43
374.16	214.40
374.54	213.86
374.92	213.88
375.30	213.98
375.68	213.60
376.06	213.45
376.44	213.14
376.82	213.36
377.19	213.17
377.57	213.21
377.95	212.55
378.33	212.52
378.71	211.21
379.09	211.52
379.47	211.81
379.84	211.69
380.22	211.40
380.60	211.33
380.98	211.29
381.36	211.38
381.73	211.14
382.11	211.67
382.49	211.76
382.87	211.26
383.25	211.31
383.62	213.50
384.00	213.31
384.38	213.55
384.76	213.98
385.13	214.64
385.51	214.76
385.89	214.40
386.27	214.29
386.64	214.69
387.02	214.48
387.40	214.48
387.78	214.45
388.15	214.69
388.53	214.69
388.91	214.62
389.29	214.48
389.66	214.74
390.04	214.36
390.42	214.76
390.79	214.95
391.17	214.95
391.55	213.07
391.92	212.93
392.30	212.83
392.68	212.38
393.05	212.26
393.43	212.26
393.81	212.76
394.18	212.62
394.56	212.52
394.94	213.17
395.31	212.93
395.69	213.62
396.06	213.98
396.44	214.19
396.82	214.17
397.19	215.17
397.57	214.93
397.95	215.50
398.32	214.93
398.70	215.33
399.07	215.69
399.45	215.50
399.82	215.50
400.20	215.55
400.58	215.36
400.95	214.48
401.33	215.17
401.70	216.48
402.08	216.52
402.45	216.76
402.83	217.10
403.20	217.17
403.58	216.90
403.95	217.21
404.33	217.67
404.71	217.90
405.08	219.02
405.46	219.62
405.83	219.79
406.21	219.95
406.58	220.29
406.96	220.55
407.33	221.21
407.70	221.95
408.08	224.10
408.45	225.21
408.83	226.60
409.20	226.81
409.58	226.43
409.95	227.67
410.33	228.50
410.70	228.71
411.08	230.31
411.45	231.50
411.82	232.21
412.20	233.62
412.57	236.14
412.95	236.05
413.32	237.67
413.69	239.10
414.07	240.98
414.44	242.76
414.82	245.02
415.19	247.62
415.56	249.76
415.94	250.79
416.31	253.52
416.68	256.17
417.06	259.69
417.43	263.02
417.81	266.60
418.18	270.38
418.55	274.31
418.93	277.74
419.30	281.90
419.67	286.50
420.04	290.90
420.42	295.17
420.79	302.24
421.16	307.86
421.54	314.81
421.91	321.12
422.28	327.31
422.66	333.93
423.03	341.67
423.40	348.60
423.77	355.93
424.15	363.07
424.52	370.74
424.89	379.00
425.26	386.55
425.64	394.14
426.01	402.19
426.38	410.98
426.75	421.29
427.13	430.71
427.50	440.38
427.87	450.29
428.24	460.45
428.61	468.98
428.99	480.17
429.36	490.31
429.73	501.88
430.10	513.24
430.47	524.86
430.85	535.33
431.22	548.00
431.59	562.43
431.96	575.60
432.33	589.90
432.70	603.98
433.08	620.83
433.45	636.10
433.82	651.67
434.19	669.14
434.56	684.98
434.93	700.71
435.30	716.52
435.68	734.55
436.05	751.76
436.42	769.26
436.79	785.31
437.16	803.19
437.53	820.95
437.90	838.48
438.27	855.90
438.64	874.05
439.01	891.86
439.38	905.86
439.75	920.40
440.13	936.95
440.50	952.50
440.87	964.93
441.24	978.64
441.61	993.24
441.98	1003.33
442.35	1015.60
442.72	1029.48
443.09	1042.21
443.46	1049.55
443.83	1054.79
444.20	1059.31
444.57	1065.19
444.94	1068.45
445.31	1072.38
445.68	1078.00
446.05	1079.36
446.42	1078.60
446.79	1076.45
447.16	1074.86
447.53	1073.81
447.90	1067.98
448.27	1061.57
448.64	1052.55
449.01	1045.69
449.37	1035.43
449.74	1024.76
450.11	1013.95
450.48	998.12
450.85	982.88
451.22	970.24
451.59	958.24
451.96	946.24
452.33	930.57
452.70	916.17
453.07	898.67
453.43	879.69
453.80	863.74
454.17	847.79
454.54	832.60
454.91	816.40
455.28	800.69
455.65	785.14
456.02	773.83
456.38	761.48
456.75	746.62
457.12	732.48
457.49	719.76
457.86	704.83
458.23	695.24
458.59	683.93
458.96	672.14
459.33	661.38
459.70	650.86
460.07	642.83
460.43	632.95
460.80	624.21
461.17	616.55
461.54	608.10
461.91	599.74
462.27	591.40
462.64	584.48
463.01	576.64
463.38	569.90
463.74	558.62
464.11	551.93
464.48	545.95
464.85	539.67
465.21	535.07
465.58	530.45
465.95	523.43
466.32	518.19
466.68	512.83
467.05	507.69
467.42	502.79
467.78	497.10
468.15	492.38
468.52	488.38
468.88	482.69
469.25	477.69
469.62	474.60
469.98	470.67
470.35	467.07
470.72	463.38
471.08	458.93
471.45	456.40
471.82	453.93
472.18	450.21
472.55	447.76
472.92	444.14
473.28	441.00
473.65	438.21
474.02	435.57
474.38	433.88
474.75	432.17
475.11	429.29
475.48	427.62
475.85	425.81
476.21	423.76
476.58	422.81
476.94	421.76
477.31	420.07
477.67	419.00
478.04	417.71
478.41	416.98
478.77	418.48
479.14	417.00
479.50	416.17
479.87	415.74
480.23	415.40
480.60	414.86
480.96	415.17
481.33	416.00
481.69	415.79
482.06	415.33
482.42	415.64
482.79	416.69
483.15	417.19
483.52	418.21
483.88	418.79
484.25	419.17
484.61	419.83
484.98	420.76
485.34	422.45
485.71	423.98
486.07	425.62
486.44	425.29
486.80	427.07
487.17	428.33
487.53	430.83
487.90	432.90
488.26	435.93
488.62	438.10
488.99	439.74
489.35	443.02
489.72	445.79
490.08	448.24
490.44	450.62
490.81	453.93
491.17	456.26
491.54	459.74
491.90	464.19
492.26	468.10
492.63	472.00
492.99	475.43
493.36	479.24
493.72	483.45
494.08	487.74
494.45	492.43
494.81	497.62
495.17	501.86
495.54	507.07
495.90	511.81
496.26	517.00
496.63	522.71
496.99	527.14
497.35	533.00
497.72	539.14
498.08	545.10
498.44	550.76
498.80	557.88
499.17	563.98
499.53	569.71
499.89	576.43
500.26	583.14
500.62	589.90
500.98	597.36
501.34	604.26
501.71	611.67
502.07	619.07
502.43	625.76
502.79	633.79
503.16	640.38
503.52	647.95
503.88	654.83
504.24	662.38
504.60	670.50
504.97	678.24
505.33	685.69
505.69	694.31
506.05	702.12
506.41	709.40
506.78	717.45
507.14	725.24
507.50	732.98
507.86	741.00
508.22	748.95
508.59	756.55
508.95	763.90
509.31	772.64
509.67	780.36
510.03	788.17
510.39	795.48
510.75	803.90
511.12	811.67
511.48	819.67
511.84	826.98
512.20	834.40
512.56	841.60
512.92	849.29
513.28	856.62
513.64	863.71
514.00	871.02
514.37	878.43
514.73	886.29
515.09	893.50
515.45	899.98
515.81	906.74
516.17	913.10
516.53	919.48
516.89	925.12
517.25	931.86
517.61	939.19
517.97	945.24
518.33	951.21
518.69	957.76
519.05	964.31
519.41	971.29
519.77	979.10
520.13	984.88
520.49	990.24
520.85	996.10
521.21	1002.95
521.57	1008.76
521.93	1013.64
522.29	1018.57
522.65	1023.48
523.01	1029.24
523.37	1034.12
523.73	1039.95
524.09	1046.40
524.45	1051.48
524.81	1056.05
525.17	1060.38
525.53	1065.05
525.89	1069.29
526.25	1073.93
526.61	1078.48
526.97	1082.43
527.33	1086.07
527.68	1092.86
528.04	1097.88
528.40	1101.55
528.76	1105.62
529.12	1110.00
529.48	1115.33
529.84	1119.90
530.20	1124.90
530.56	1129.12
530.91	1134.14
531.27	1138.40
531.63	1141.93
531.99	1145.48
532.35	1149.71
532.71	1153.48
533.07	1158.48
533.42	1165.98
533.78	1170.31
534.14	1174.55
534.50	1178.45
534.86	1182.83
535.21	1185.00
535.57	1189.05
535.93	1193.38
536.29	1198.10
536.65	1202.86
537.00	1205.86
537.36	1209.26
537.72	1212.52
538.08	1216.05
538.44	1219.10
538.79	1222.43
539.15	1225.69
539.51	1230.43
539.87	1233.95
540.22	1238.05
540.58	1241.12
540.94	1241.67
541.29	1244.64
541.65	1246.67
542.01	1250.45
542.37	1253.19
542.72	1255.17
543.08	1257.29
543.44	1260.48
543.79	1261.52
544.15	1263.40
544.51	1267.52
544.87	1270.52
545.22	1274.29
545.58	1277.33
545.94	1280.17
546.29	1282.95
546.65	1286.64
547.01	1288.45
547.36	1290.55
547.72	1293.10
548.07	1295.90
548.43	1298.52
548.79	1300.88
549.14	1303.67
549.50	1306.00
549.86	1308.38
550.21	1311.98
550.57	1315.12
550.92	1317.88
551.28	1321.50
551.64	1324.55
551.99	1326.45
552.35	1329.69
552.70	1332.31
553.06	1334.90
553.41	1337.81
553.77	1342.52
554.13	1345.55
554.48	1350.14
554.84	1355.26
555.19	1358.93
555.55	1363.57
555.90	1367.52
556.26	1371.24
556.61	1375.83
556.97	1379.31
557.32	1383.14
557.68	1387.55
558.03	1391.74
558.39	1395.71
558.74	1400.10
559.10	1404.52
559.45	1409.69
559.81	1413.62
560.16	1417.60
560.52	1422.17
560.87	1426.45
561.23	1428.76
561.58	1434.93
561.94	1438.12
562.29	1441.76
562.64	1445.86
563.00	1449.81
563.35	1455.26
563.71	1460.95
564.06	1466.05
564.42	1471.55
564.77	1477.81
565.12	1484.02
565.48	1491.90
565.83	1497.33
566.19	1502.71
566.54	1508.52
566.89	1513.62
567.25	1519.52
567.60	1526.74
567.96	1535.07
568.31	1542.33
568.66	1550.69
569.02	1554.88
569.37	1561.10
569.72	1567.48
570.08	1573.02
570.43	1578.67
570.78	1583.52
571.14	1588.67
571.49	1593.79
571.84	1599.10
572.20	1602.57
572.55	1607.48
572.90	1610.10
573.26	1614.64
573.61	1619.10
573.96	1623.38
574.31	1628.38
574.67	1631.98
575.02	1634.93
575.37	1635.98
575.72	1638.69
576.08	1641.31
576.43	1645.31
576.78	1648.71
577.13	1652.00
577.49	1655.71
577.84	1659.83
578.19	1663.33
578.54	1666.69
578.90	1670.90
579.25	1674.71
579.60	1678.36
579.95	1680.24
580.30	1683.93
580.66	1687.88
581.01	1691.17
581.36	1693.50
581.71	1696.00
582.06	1701.10
582.42	1703.95
582.77	1708.43
583.12	1711.95
583.47	1714.24
583.82	1716.21
584.17	1719.95
584.53	1724.31
584.88	1727.76
585.23	1730.36
585.58	1732.88
585.93	1735.24
586.28	1737.67
586.63	1739.71
586.98	1742.67
587.34	1746.83
587.69	1748.74
588.04	1750.93
588.39	1753.45
588.74	1755.50
589.09	1757.64
589.44	1757.07
589.79	1759.88
590.14	1760.69
590.49	1761.69
590.84	1763.50
591.19	1766.05
591.54	1767.29
591.89	1766.88
592.25	1769.86
592.60	1770.52
592.95	1771.98
593.30	1773.86
593.65	1774.48
594.00	1774.60
594.35	1781.62
594.70	1781.21
595.05	1781.88
595.40	1782.50
595.75	1783.21
596.10	1785.45
596.45	1786.07
596.80	1787.81
597.15	1787.17
597.50	1786.76
597.85	1789.26
598.19	1789.14
598.54	1789.38
598.89	1789.81
599.24	1791.05
599.59	1789.60
599.94	1790.17
600.29	1790.88
600.64	1791.05
600.99	1791.21
601.34	1792.33
601.69	1785.79
602.04	1784.81
602.39	1783.88
602.74	1784.07
603.08	1783.17
603.43	1782.76
603.78	1783.31
604.13	1783.40
604.48	1783.29
604.83	1784.14
605.18	1783.05
605.53	1783.24
605.87	1781.90
606.22	1780.69
606.57	1779.02
606.92	1777.67
607.27	1776.64
607.62	1775.93
607.96	1775.40
608.31	1775.21
608.66	1773.69
609.01	1771.88
609.36	1772.02
609.70	1771.81
610.05	1768.98
610.40	1766.67
610.75	1764.29
611.10	1762.14
611.44	1759.14
611.79	1756.95
612.14	1754.45
612.49	1750.36
612.83	1747.19
613.18	1744.31
613.53	1741.12
613.88	1737.76
614.22	1734.40
614.57	1730.02
614.92	1725.29
615.27	1720.62
615.61	1716.02
615.96	1712.36
616.31	1709.57
616.65	1705.90
617.00	1702.62
617.35	1699.43
617.70	1697.29
618.04	1692.29
618.39	1688.05
618.74	1684.24
619.08	1678.98
619.43	1674.60
619.78	1671.36
620.12	1668.98
620.47	1665.50
620.82	1660.86
621.16	1656.17
621.51	1653.40
621.85	1648.88
622.20	1644.69
622.55	1640.50
622.89	1636.40
623.24	1632.60
623.59	1628.76
623.93	1624.02
624.28	1618.93
624.62	1616.45
624.97	1612.12
625.32	1607.79
625.66	1603.45
626.01	1599.33
626.35	1596.60
626.70	1592.55
627.04	1589.02
627.39	1583.62
627.73	1579.74
628.08	1576.07
628.43	1572.17
628.77	1567.12
629.12	1564.88
629.46	1561.31
629.81	1556.81
630.15	1552.57
630.50	1547.48
630.84	1541.76
631.19	1536.36
631.53	1531.76
631.88	1523.60
632.22	1518.36
632.57	1514.57
632.91	1508.74
633.26	1504.07
633.60	1498.74
633.95	1493.52
634.29	1487.36
634.64	1482.33
634.98	1476.95
635.32	1472.48
635.67	1469.00
636.01	1463.81
636.36	1457.88
636.70	1453.57
637.05	1449.33
637.39	1444.21
637.73	1439.40
638.08	1435.86
638.42	1431.55
638.77	1426.95
639.11	1423.76
639.45	1418.67
639.80	1413.76
640.14	1409.52
640.49	1404.02
640.83	1398.21
641.17	1393.52
641.52	1387.79
641.86	1382.14
642.20	1376.95
642.55	1370.67
642.89	1363.83
643.23	1358.29
643.58	1353.57
643.92	1346.50
644.26	1339.64
644.61	1334.31
644.95	1328.31
645.29	1321.29
645.64	1315.60
645.98	1308.64
646.32	1302.31
646.66	1295.69
647.01	1289.02
647.35	1282.79
647.69	1276.62
648.04	1271.76
648.38	1265.55
648.72	1260.00
649.06	1253.79
649.41	1246.74
649.75	1239.81
650.09	1233.52
650.43	1226.74
650.78	1219.45
651.12	1213.43
651.46	1207.12
651.80	1200.07
652.14	1194.52
652.49	1188.29
652.83	1180.74
653.17	1173.83
653.51	1167.12
653.85	1160.67
654.20	1153.69
654.54	1146.43
654.88	1139.45
655.22	1132.88
655.56	1126.00
655.90	1120.17
656.25	1113.64
656.59	1107.76
656.93	1102.24
657.27	1097.02
657.61	1091.19
657.95	1085.14
658.29	1078.71
658.64	1073.52
658.98	1066.64
659.32	1059.48
659.66	1053.05
660.00	1047.81
660.34	1042.29
660.68	1035.81
661.02	1029.14
661.36	1022.95
661.70	1017.17
662.05	1011.12
662.39	1005.21
662.73	999.88
663.07	993.81
663.41	987.81
663.75	981.48
664.09	975.81
664.43	968.71
664.77	962.52
665.11	955.50
665.45	949.33
665.79	942.76
666.13	936.98
666.47	930.86
666.81	925.21
667.15	918.67
667.49	913.24
667.83	908.76
668.17	903.48
668.51	898.38
668.85	892.62
669.19	888.67
669.53	881.38
669.87	875.24
670.21	868.86
670.55	862.83
670.89	858.12
671.23	852.38
671.57	846.62
671.91	841.31
672.25	835.98
672.58	831.12
672.92	824.95
673.26	819.81
673.60	815.02
673.94	809.38
674.28	804.95
674.62	799.60
674.96	793.60
675.30	788.69
675.64	783.69
675.97	778.40
676.31	772.05
676.65	767.64
676.99	763.33
677.33	758.48
677.67	754.00
678.01	747.88
678.34	742.79
678.68	738.98
679.02	733.60
679.36	728.67
679.70	723.00
680.04	718.43
680.37	713.21
680.71	707.90
681.05	703.29
681.39	697.98
681.73	693.29
682.06	688.43
682.40	683.86
682.74	679.26
683.08	675.38
683.42	670.45
683.75	666.26
684.09	661.14
684.43	656.45
684.77	651.21
685.10	647.43
685.44	642.90
685.78	637.83
686.12	633.60
686.45	629.36
686.79	624.74
687.13	620.52
687.46	616.45
687.80	613.21
688.14	609.36
688.48	605.79
688.81	601.57
689.15	598.24
689.49	593.67
689.82	589.38
690.16	584.57
690.50	580.52
690.83	576.07
691.17	571.36
691.51	567.48
691.84	564.19
692.18	559.81
692.52	555.86
692.85	551.71
693.19	549.10
693.52	545.55
693.86	542.02
694.20	538.79
694.53	535.00
694.87	530.55
695.21	526.38
695.54	521.98
695.88	517.69
696.21	513.12
696.55	509.76
696.88	505.90
697.22	502.86
697.56	499.93
697.89	496.38
698.23	493.38
698.56	490.17
698.90	487.17
699.23	483.40
699.57	480.31
699.90	477.48
700.24	473.40
700.58	469.86
700.91	467.50
701.25	465.88
701.58	463.93
701.92	461.62
702.25	458.71
702.59	455.79
702.92	453.48
703.26	450.55
703.59	447.76
703.93	447.02
704.26	444.31
704.60	441.48
704.93	438.86
705.26	436.05
705.60	433.57
705.93	430.19
706.27	428.83
706.60	426.57
706.94	424.52
707.27	421.69
707.61	419.17
707.94	416.38
708.27	412.07
708.61	408.36
708.94	405.31
709.28	403.05
709.61	400.60
709.94	398.43
710.28	396.31
710.61	393.88
710.95	389.64
711.28	388.88
711.61	386.38
711.95	384.55
712.28	382.33
712.61	379.67
712.95	378.81
713.28	377.26
713.61	375.14
713.95	372.71
714.28	370.98
714.61	369.29
714.95	367.24
715.28	365.21
715.61	363.69
715.95	362.12
716.28	360.10
716.61	358.62
716.95	356.43
717.28	354.52
717.61	352.52
717.94	350.74
718.28	347.12
718.61	345.64
718.94	343.50
719.27	341.71
719.61	340.52
719.94	338.26
720.27	335.48
720.60	333.50
720.94	331.88
721.27	330.21
721.60	328.74
721.93	327.38
722.27	326.60
722.60	325.45
722.93	323.93
723.26	322.79
723.59	321.14
723.93	320.07
724.26	318.95
724.59	317.74
724.92	316.62
725.25	316.07
725.59	314.79
725.92	314.02
726.25	313.00
726.58	311.76
726.91	310.71
727.24	309.88
727.57	308.90
727.91	307.38
728.24	306.60
728.57	305.52
728.90	304.79
729.23	303.12
729.56	302.64
729.89	301.76
730.22	300.31
730.55	299.33
730.89	298.17
731.22	297.19
731.55	296.19
731.88	295.36
732.21	293.98
732.54	292.76
732.87	291.81
733.20	291.00
733.53	290.24
733.86	289.52
734.19	288.24
734.52	287.76
734.85	288.40
735.18	287.10
735.51	286.98
735.84	286.10
736.17	285.93
736.50	284.24
736.83	285.45
737.16	284.83
737.49	284.12
737.82	283.36
738.15	282.86
738.48	282.07
738.81	281.26
739.14	280.31
739.47	279.50
739.80	278.52
740.13	277.71
740.46	276.67
740.79	275.29
741.12	274.43
741.45	273.14
741.78	271.24
742.11	271.36
742.44	269.79
742.77	269.21
743.10	267.95
743.43	267.21
743.75	264.43
744.08	266.19
744.41	265.55
744.74	264.71
745.07	263.45
745.40	263.31
745.73	263.36
746.06	263.05
746.39	262.98
746.71	262.38
747.04	261.62
747.37	260.90
747.70	260.98
748.03	261.00
748.36	260.79
748.68	260.40
749.01	259.19
749.34	258.93
749.67	258.36
750.00	258.31
750.33	259.52
750.65	259.29
750.98	256.50
751.31	256.07
751.64	255.95
751.97	256.93
752.29	256.29
752.62	255.14
752.95	254.43
753.28	253.62
753.60	253.00
753.93	252.98
754.26	252.76
754.59	251.69
754.91	250.81
755.24	250.24
755.57	249.55
755.90	249.00
756.22	248.52
756.55	247.67
756.88	246.62
757.20	244.64
757.53	243.60
757.86	243.26
758.19	242.83
758.51	242.24
758.84	240.74
759.17	240.19
759.49	239.76
759.82	240.48
760.15	240.31
760.47	240.07
760.80	239.43
761.13	239.31
761.45	238.71
761.78	238.17
762.11	238.07
762.43	237.52
762.76	237.14
763.08	236.93
763.41	236.81
763.74	236.76
764.06	236.50
764.39	236.40
764.71	235.83
765.04	235.24
765.37	234.90
765.69	234.40
766.02	234.17
766.34	233.76
766.67	232.52
767.00	232.50
767.32	233.24
767.65	234.10
767.97	233.64
768.30	233.64
768.62	233.67
768.95	232.98
769.27	232.83
769.60	233.12
769.92	232.50
770.25	231.88
770.57	231.24
770.90	230.98
771.22	230.36
771.55	230.38
771.87	230.45
772.20	230.33
772.52	231.98
772.85	233.95
773.17	233.88
773.50	233.76
773.82	233.31
774.15	232.26
774.47	230.69
774.80	230.45
775.12	230.36
775.45	229.98
775.77	229.88
776.09	229.98
776.42	229.62
776.74	230.05
777.07	229.81
777.39	229.83
777.72	229.50
778.04	229.57
778.36	229.12
778.69	228.95
779.01	228.67
779.33	226.83
779.66	224.57
779.98	224.33
780.31	224.10
780.63	224.83
780.95	225.10
781.28	225.19
781.60	224.79
781.92	224.69
782.25	224.83
782.57	224.71
782.89	224.36
783.22	224.14
783.54	223.62
783.86	223.95
784.19	223.79
784.51	224.45
784.83	224.14
785.16	224.17
