SpectraSuite Data File
++++++++++++++++++++++++++++++++++++
Date: Tue Apr 02 18:37:44 EDT 2013
User: group
Dark Spectrum Present: No
Reference Spectrum Present: No
Number of Sampled Component Spectra: 1
Spectrometers: USB2E7196
Integration Time (usec): 580000 (USB2E7196)
Spectra Averaged: 2 (USB2E7196)
Boxcar Smoothing: 10 (USB2E7196)
Correct for Electrical Dark: No (USB2E7196)
Strobe/Lamp Enabled: No (USB2E7196)
Correct for Detector Non-linearity: No (USB2E7196)
Correct for Stray Light: No (USB2E7196)
Number of Pixels in Processed Spectrum: 2048
>>>>>Begin Processed Spectral Data<<<<<
339.09	0.00
339.48	191.50
339.86	194.50
340.24	199.00
340.63	202.00
341.01	231.00
341.39	203.00
341.78	210.50
342.16	214.00
342.54	208.50
342.93	199.19
343.31	209.02
343.69	209.95
344.07	210.55
344.46	211.07
344.84	211.40
345.22	210.26
345.60	210.62
345.99	210.60
346.37	210.57
346.75	210.52
347.13	210.55
347.52	210.74
347.90	211.64
348.28	211.81
348.66	212.24
349.05	211.60
349.43	211.43
349.81	211.45
350.19	211.62
350.57	211.55
350.96	211.67
351.34	211.76
351.72	211.64
352.10	211.86
352.48	211.79
352.87	211.71
353.25	211.74
353.63	211.50
354.01	211.50
354.39	211.26
354.77	211.38
355.15	211.69
355.54	211.21
355.92	210.40
356.30	210.29
356.68	211.40
357.06	211.48
357.44	211.07
357.82	210.90
358.20	211.67
358.58	211.60
358.97	211.81
359.35	212.14
359.73	212.50
360.11	212.40
360.49	212.60
360.87	212.60
361.25	212.71
361.63	213.57
362.01	213.64
362.39	213.71
362.77	213.55
363.15	213.36
363.53	213.40
363.91	213.50
364.29	213.45
364.67	211.57
365.05	211.55
365.43	212.10
365.81	212.38
366.19	212.45
366.57	213.50
366.95	213.48
367.33	213.24
367.71	213.07
368.09	213.48
368.47	213.40
368.85	213.43
369.23	214.10
369.61	213.29
369.99	213.83
370.37	214.00
370.75	215.36
371.13	214.98
371.51	214.67
371.89	214.90
372.27	215.36
372.65	215.36
373.03	215.38
373.41	214.95
373.78	214.86
374.16	213.88
374.54	213.02
374.92	212.69
375.30	212.81
375.68	212.62
376.06	212.62
376.44	212.52
376.82	212.90
377.19	212.74
377.57	213.14
377.95	212.62
378.33	212.52
378.71	211.05
379.09	211.36
379.47	211.98
379.84	211.79
380.22	211.36
380.60	211.40
380.98	211.45
381.36	211.55
381.73	211.36
382.11	211.79
382.49	211.98
382.87	212.05
383.25	211.76
383.62	214.12
384.00	213.74
384.38	213.88
384.76	214.12
385.13	214.64
385.51	214.38
385.89	214.29
386.27	214.38
386.64	215.02
387.02	214.98
387.40	214.50
387.78	214.69
388.15	214.86
388.53	214.83
388.91	214.88
389.29	214.90
389.66	215.24
390.04	215.05
390.42	215.31
390.79	215.48
391.17	215.71
391.55	213.38
391.92	213.36
392.30	213.64
392.68	213.38
393.05	213.45
393.43	213.50
393.81	213.69
394.18	213.36
394.56	213.24
394.94	213.69
395.31	213.57
395.69	214.21
396.06	214.50
396.44	214.48
396.82	214.62
397.19	215.71
397.57	215.45
397.95	215.86
398.32	215.40
398.70	215.50
399.07	216.00
399.45	216.14
399.82	216.24
400.20	216.02
400.58	215.98
400.95	215.07
401.33	215.52
401.70	216.93
402.08	217.24
402.45	217.36
402.83	217.81
403.20	218.43
403.58	218.33
403.95	218.76
404.33	219.40
404.71	219.45
405.08	220.62
405.46	221.36
405.83	221.64
406.21	222.21
406.58	222.67
406.96	222.60
407.33	223.69
407.70	224.57
408.08	226.69
408.45	227.48
408.83	228.71
409.20	229.17
409.58	229.00
409.95	230.48
410.33	231.43
410.70	231.98
411.08	233.36
411.45	234.60
411.82	235.71
412.20	237.31
412.57	240.07
412.95	239.71
413.32	241.38
413.69	242.86
414.07	244.81
414.44	246.86
414.82	249.81
415.19	252.36
415.56	255.12
415.94	256.74
416.31	259.93
416.68	263.17
417.06	267.10
417.43	270.98
417.81	274.83
418.18	279.29
418.55	283.81
418.93	288.60
419.30	293.29
419.67	298.29
420.04	303.52
420.42	308.48
420.79	316.55
421.16	323.33
421.54	331.64
421.91	338.48
422.28	345.43
422.66	352.64
423.03	361.17
423.40	369.17
423.77	377.67
424.15	386.29
424.52	395.17
424.89	404.88
425.26	413.67
425.64	423.00
426.01	432.43
426.38	442.74
426.75	453.19
427.13	464.48
427.50	475.98
427.87	487.62
428.24	499.50
428.61	510.50
428.99	524.00
429.36	536.43
429.73	550.33
430.10	563.90
430.47	577.83
430.85	591.07
431.22	605.79
431.59	623.19
431.96	638.40
432.33	655.48
432.70	672.21
433.08	692.02
433.45	710.48
433.82	729.00
434.19	749.36
434.56	769.90
434.93	788.69
435.30	807.48
435.68	828.43
436.05	848.95
436.42	868.86
436.79	887.69
437.16	908.88
437.53	930.62
437.90	952.64
438.27	975.29
438.64	997.38
439.01	1018.71
439.38	1035.93
439.75	1053.64
440.13	1073.83
440.50	1093.57
440.87	1108.76
441.24	1125.02
441.61	1142.81
441.98	1156.29
442.35	1171.55
442.72	1187.38
443.09	1203.98
443.46	1213.67
443.83	1220.79
444.20	1226.45
444.57	1234.52
444.94	1238.48
445.31	1242.45
445.68	1249.02
446.05	1249.74
446.42	1248.48
446.79	1247.12
447.16	1244.64
447.53	1243.88
447.90	1237.05
448.27	1228.74
448.64	1218.74
449.01	1210.60
449.37	1197.36
449.74	1184.79
450.11	1170.64
450.48	1153.14
450.85	1134.86
451.22	1119.14
451.59	1104.64
451.96	1091.10
452.33	1072.24
452.70	1055.19
453.07	1035.52
453.43	1012.21
453.80	992.76
454.17	973.79
454.54	954.93
454.91	935.55
455.28	916.26
455.65	897.98
456.02	883.36
456.38	868.07
456.75	849.55
457.12	833.81
457.49	818.19
457.86	801.31
458.23	789.14
458.59	774.86
458.96	761.26
459.33	748.45
459.70	735.86
460.07	725.69
460.43	713.36
460.80	702.52
461.17	693.52
461.54	683.64
461.91	673.64
462.27	663.71
462.64	655.74
463.01	647.17
463.38	639.21
463.74	627.64
464.11	620.31
464.48	613.55
464.85	605.88
465.21	600.43
465.58	594.38
465.95	586.57
466.32	580.67
466.68	574.81
467.05	569.36
467.42	563.67
467.78	557.62
468.15	552.67
468.52	548.29
468.88	542.19
469.25	536.76
469.62	533.24
469.98	528.76
470.35	524.83
470.72	520.07
471.08	515.00
471.45	511.79
471.82	508.10
472.18	504.36
472.55	501.79
472.92	497.26
473.28	493.95
473.65	491.24
474.02	488.05
474.38	485.69
474.75	482.98
475.11	480.12
475.48	477.69
475.85	475.67
476.21	473.26
476.58	471.83
476.94	470.48
477.31	468.45
477.67	466.98
478.04	465.71
478.41	465.33
478.77	466.90
479.14	465.60
479.50	464.81
479.87	464.45
480.23	464.31
480.60	464.33
480.96	464.14
481.33	464.74
481.69	465.00
482.06	465.12
482.42	465.48
482.79	466.17
483.15	466.81
483.52	467.88
483.88	468.45
484.25	469.43
484.61	470.50
484.98	472.00
485.34	474.29
485.71	476.17
486.07	478.05
486.44	477.90
486.80	479.86
487.17	482.62
487.53	485.52
487.90	488.17
488.26	491.93
488.62	495.71
488.99	498.76
489.35	502.17
489.72	505.76
490.08	509.67
490.44	513.67
490.81	517.67
491.17	521.14
491.54	525.95
491.90	531.14
492.26	536.05
492.63	541.19
492.99	545.93
493.36	550.95
493.72	556.76
494.08	562.93
494.45	569.19
494.81	575.05
495.17	581.19
495.54	588.10
495.90	594.21
496.26	600.83
496.63	607.69
496.99	615.07
497.35	622.60
497.72	630.43
498.08	637.95
498.44	645.95
498.80	654.88
499.17	663.36
499.53	671.48
499.89	680.95
500.26	689.43
500.62	698.33
500.98	707.67
501.34	716.67
501.71	725.98
502.07	735.21
502.43	744.14
502.79	753.07
503.16	762.48
503.52	772.26
503.88	781.57
504.24	791.48
504.60	801.12
504.97	811.36
505.33	821.00
505.69	832.24
506.05	842.60
506.41	852.83
506.78	862.36
507.14	872.19
507.50	881.76
507.86	891.95
508.22	901.95
508.59	911.69
508.95	922.43
509.31	933.40
509.67	943.48
510.03	954.00
510.39	964.71
510.75	974.31
511.12	983.93
511.48	994.31
511.84	1004.29
512.20	1014.19
512.56	1024.48
512.92	1034.38
513.28	1043.98
513.64	1053.40
514.00	1062.86
514.37	1073.02
514.73	1083.17
515.09	1092.64
515.45	1102.07
515.81	1111.07
516.17	1119.88
516.53	1127.40
516.89	1134.33
517.25	1143.83
517.61	1152.81
517.97	1160.57
518.33	1168.79
518.69	1177.45
519.05	1185.60
519.41	1193.33
519.77	1202.45
520.13	1209.21
520.49	1216.26
520.85	1223.38
521.21	1231.14
521.57	1238.64
521.93	1244.81
522.29	1251.93
522.65	1257.95
523.01	1264.40
523.37	1270.31
523.73	1277.24
524.09	1283.86
524.45	1290.10
524.81	1295.38
525.17	1300.40
525.53	1306.55
525.89	1312.02
526.25	1317.07
526.61	1320.79
526.97	1325.10
527.33	1329.12
527.68	1335.43
528.04	1340.40
528.40	1344.19
528.76	1348.40
529.12	1352.60
529.48	1358.26
529.84	1360.88
530.20	1365.29
530.56	1369.26
530.91	1374.83
531.27	1378.43
531.63	1382.31
531.99	1385.88
532.35	1388.67
532.71	1392.43
533.07	1396.19
533.42	1401.71
533.78	1404.93
534.14	1409.55
534.50	1412.67
534.86	1416.76
535.21	1418.31
535.57	1421.48
535.93	1425.10
536.29	1429.21
536.65	1432.00
537.00	1433.88
537.36	1436.52
537.72	1438.19
538.08	1439.86
538.44	1440.45
538.79	1442.50
539.15	1444.05
539.51	1446.14
539.87	1448.71
540.22	1450.71
540.58	1452.83
540.94	1453.02
541.29	1454.02
541.65	1454.83
542.01	1456.43
542.37	1456.10
542.72	1456.29
543.08	1455.86
543.44	1454.74
543.79	1452.90
544.15	1452.81
544.51	1453.38
544.87	1454.12
545.22	1455.33
545.58	1455.21
545.94	1454.62
546.29	1454.05
546.65	1454.07
547.01	1453.76
547.36	1452.71
547.72	1452.12
548.07	1450.52
548.43	1448.12
548.79	1447.07
549.14	1445.48
549.50	1444.64
549.86	1442.76
550.21	1441.45
550.57	1441.19
550.92	1440.74
551.28	1440.38
551.64	1438.83
551.99	1437.17
552.35	1435.17
552.70	1432.71
553.06	1431.93
553.41	1430.95
553.77	1430.55
554.13	1428.38
554.48	1427.36
554.84	1426.62
555.19	1424.76
555.55	1424.76
555.90	1424.07
556.26	1422.26
556.61	1420.90
556.97	1419.14
557.32	1417.29
557.68	1416.38
558.03	1414.69
558.39	1412.36
558.74	1410.83
559.10	1409.17
559.45	1408.14
559.81	1406.98
560.16	1405.71
560.52	1403.45
560.87	1401.95
561.23	1399.52
561.58	1399.79
561.94	1397.05
562.29	1395.17
562.64	1393.45
563.00	1389.88
563.35	1388.05
563.71	1387.36
564.06	1385.88
564.42	1383.90
564.77	1383.52
565.12	1381.98
565.48	1382.48
565.83	1382.38
566.19	1381.19
566.54	1379.69
566.89	1377.36
567.25	1376.90
567.60	1377.24
567.96	1377.98
568.31	1377.93
568.66	1377.05
569.02	1373.76
569.37	1371.40
569.72	1368.83
570.08	1366.81
570.43	1365.29
570.78	1363.62
571.14	1361.33
571.49	1359.74
571.84	1357.40
572.20	1355.31
572.55	1353.26
572.90	1348.79
573.26	1346.07
573.61	1342.71
573.96	1340.17
574.31	1337.55
574.67	1333.40
575.02	1328.93
575.37	1323.12
575.72	1318.79
576.08	1314.95
576.43	1311.02
576.78	1308.40
577.13	1305.36
577.49	1301.76
577.84	1298.38
578.19	1294.95
578.54	1291.36
578.90	1287.55
579.25	1284.17
579.60	1279.40
579.95	1274.86
580.30	1271.40
580.66	1267.76
581.01	1263.14
581.36	1259.24
581.71	1254.79
582.06	1251.79
582.42	1248.60
582.77	1244.86
583.12	1241.62
583.47	1237.29
583.82	1234.21
584.17	1230.31
584.53	1228.00
584.88	1224.57
585.23	1221.17
585.58	1216.48
585.93	1211.79
586.28	1207.83
586.63	1203.69
586.98	1201.07
587.34	1197.79
587.69	1192.95
588.04	1188.07
588.39	1184.60
588.74	1180.05
589.09	1175.86
589.44	1170.19
589.79	1164.81
590.14	1161.29
590.49	1155.71
590.84	1151.10
591.19	1146.12
591.54	1141.48
591.89	1135.14
592.25	1131.74
592.60	1126.00
592.95	1121.64
593.30	1118.26
593.65	1112.98
594.00	1108.17
594.35	1108.31
594.70	1103.19
595.05	1099.29
595.40	1094.64
595.75	1089.67
596.10	1085.69
596.45	1081.81
596.80	1078.31
597.15	1074.19
597.50	1069.10
597.85	1065.93
598.19	1061.81
598.54	1057.67
598.89	1053.50
599.24	1049.76
599.59	1043.83
599.94	1039.60
600.29	1036.00
600.64	1031.67
600.99	1028.40
601.34	1024.43
601.69	1014.17
602.04	1009.64
602.39	1004.93
602.74	1001.21
603.08	997.14
603.43	994.17
603.78	989.81
604.13	985.26
604.48	980.26
604.83	976.81
605.18	971.83
605.53	967.50
605.87	963.79
606.22	959.62
606.57	954.55
606.92	950.60
607.27	946.31
607.62	942.24
607.96	937.14
608.31	932.31
608.66	928.57
609.01	925.02
609.36	921.48
609.70	917.48
610.05	912.60
610.40	909.02
610.75	903.31
611.10	898.83
611.44	893.86
611.79	889.64
612.14	885.17
612.49	879.79
612.83	875.43
613.18	870.14
613.53	865.40
613.88	861.02
614.22	856.19
614.57	851.71
614.92	846.40
615.27	842.67
615.61	837.76
615.96	832.57
616.31	827.38
616.65	823.05
617.00	818.90
617.35	814.90
617.70	809.95
618.04	805.05
618.39	800.62
618.74	796.55
619.08	792.55
619.43	787.93
619.78	784.55
620.12	780.62
620.47	777.14
620.82	773.40
621.16	769.31
621.51	766.55
621.85	762.29
622.20	758.55
622.55	753.98
622.89	750.52
623.24	747.36
623.59	743.29
623.93	739.02
624.28	734.76
624.62	733.26
624.97	730.95
625.32	727.45
625.66	723.36
626.01	720.00
626.35	716.93
626.70	713.48
627.04	709.86
627.39	705.74
627.73	702.55
628.08	699.19
628.43	696.10
628.77	692.14
629.12	689.60
629.46	686.57
629.81	683.62
630.15	679.83
630.50	675.90
630.84	673.14
631.19	669.83
631.53	666.79
631.88	660.57
632.22	655.60
632.57	652.93
632.91	649.81
633.26	646.40
633.60	642.19
633.95	638.81
634.29	635.33
634.64	632.60
634.98	628.38
635.32	625.62
635.67	622.38
636.01	618.74
636.36	614.74
636.70	611.40
637.05	607.83
637.39	604.81
637.73	601.93
638.08	599.31
638.42	596.40
638.77	593.24
639.11	590.45
639.45	587.74
639.80	583.88
640.14	581.00
640.49	577.83
640.83	574.71
641.17	571.93
641.52	569.14
641.86	566.07
642.20	564.02
642.55	560.10
642.89	556.88
643.23	554.07
643.58	552.05
643.92	548.36
644.26	545.60
644.61	543.19
644.95	540.21
645.29	536.95
645.64	534.36
645.98	531.21
646.32	528.90
646.66	525.71
647.01	522.98
647.35	520.50
647.69	517.83
648.04	515.55
648.38	512.81
648.72	509.88
649.06	507.05
649.41	503.86
649.75	501.38
650.09	498.98
650.43	496.05
650.78	492.64
651.12	490.24
651.46	487.24
651.80	484.40
652.14	481.69
652.49	479.33
652.83	476.62
653.17	474.00
653.51	471.05
653.85	468.98
654.20	466.48
654.54	463.64
654.88	460.57
655.22	459.19
655.56	456.38
655.90	453.93
656.25	451.67
656.59	449.60
656.93	447.19
657.27	445.55
657.61	442.95
657.95	441.07
658.29	438.86
658.64	437.17
658.98	434.55
659.32	432.33
659.66	429.86
660.00	427.64
660.34	425.74
660.68	424.10
661.02	421.69
661.36	419.93
661.70	417.93
662.05	416.74
662.39	414.10
662.73	413.21
663.07	412.57
663.41	411.05
663.75	409.14
664.09	407.52
664.43	404.88
664.77	403.26
665.11	400.98
665.45	399.71
665.79	398.38
666.13	396.88
666.47	395.17
666.81	393.52
667.15	391.55
667.49	390.21
667.83	388.83
668.17	387.38
668.51	385.71
668.85	384.38
669.19	383.71
669.53	381.76
669.87	379.76
670.21	377.36
670.55	375.50
670.89	374.86
671.23	373.69
671.57	372.31
671.91	371.21
672.25	370.21
672.58	369.52
672.92	367.55
673.26	366.12
673.60	364.93
673.94	363.79
674.28	362.57
674.62	361.55
674.96	359.95
675.30	358.79
675.64	357.67
675.97	356.26
676.31	354.19
676.65	352.86
676.99	352.19
677.33	350.90
677.67	349.71
678.01	347.40
678.34	345.79
678.68	345.26
679.02	343.79
679.36	342.14
679.70	340.05
680.04	338.79
680.37	337.71
680.71	336.50
681.05	335.43
681.39	334.50
681.73	333.00
682.06	331.81
682.40	331.02
682.74	330.00
683.08	330.05
683.42	328.76
683.75	328.33
684.09	326.69
684.43	325.57
684.77	324.45
685.10	323.67
685.44	322.83
685.78	321.48
686.12	320.50
686.45	319.74
686.79	318.31
687.13	317.86
687.46	316.69
687.80	316.07
688.14	314.76
688.48	313.86
688.81	313.26
689.15	312.74
689.49	311.17
689.82	310.48
690.16	308.24
690.50	307.50
690.83	305.86
691.17	304.52
691.51	303.67
691.84	302.98
692.18	301.88
692.52	301.17
692.85	300.48
693.19	300.45
693.52	299.45
693.86	298.76
694.20	297.95
694.53	297.60
694.87	296.40
695.21	295.24
695.54	294.26
695.88	292.69
696.21	291.05
696.55	290.67
696.88	289.76
697.22	289.12
697.56	288.40
697.89	287.83
698.23	287.40
698.56	286.67
698.90	286.10
699.23	285.36
699.57	284.43
699.90	283.26
700.24	281.76
700.58	281.50
700.91	281.38
701.25	282.12
701.58	281.81
701.92	281.88
702.25	281.62
702.59	280.74
702.92	280.45
703.26	280.10
703.59	279.26
703.93	280.12
704.26	279.45
704.60	279.02
704.93	278.21
705.26	277.38
705.60	277.24
705.93	276.00
706.27	276.14
706.60	275.95
706.94	276.38
707.27	275.69
707.61	274.93
707.94	273.90
708.27	271.45
708.61	270.12
708.94	269.02
709.28	268.55
709.61	267.86
709.94	267.33
710.28	266.86
710.61	266.36
710.95	263.90
711.28	265.14
711.61	264.07
711.95	264.19
712.28	263.76
712.61	263.14
712.95	263.74
713.28	263.90
713.61	263.00
713.95	261.64
714.28	261.21
714.61	260.52
714.95	259.98
715.28	259.31
715.61	258.93
715.95	258.81
716.28	258.19
716.61	258.17
716.95	257.17
717.28	256.71
717.61	256.48
717.94	256.29
718.28	254.05
718.61	253.74
718.94	252.83
719.27	252.45
719.61	251.95
719.94	251.31
720.27	249.67
720.60	249.36
720.94	248.95
721.27	248.69
721.60	248.74
721.93	248.50
722.27	249.10
722.60	248.93
722.93	248.07
723.26	247.81
723.59	247.14
723.93	247.29
724.26	247.12
724.59	246.57
724.92	246.24
725.25	246.76
725.59	246.33
725.92	246.40
726.25	246.07
726.58	245.52
726.91	244.79
727.24	244.88
727.57	244.52
727.91	243.95
728.24	243.79
728.57	243.21
728.90	243.14
729.23	241.95
729.56	242.43
729.89	242.24
730.22	241.76
730.55	241.69
730.89	241.55
731.22	241.21
731.55	240.79
731.88	240.57
732.21	239.52
732.54	239.50
732.87	238.88
733.20	238.71
733.53	238.60
733.86	238.64
734.19	238.12
734.52	238.19
734.85	239.57
735.18	239.19
735.51	239.57
735.84	239.33
736.17	239.74
736.50	238.60
736.83	240.67
737.16	240.45
737.49	240.29
737.82	239.95
738.15	239.74
738.48	239.52
738.81	239.31
739.14	239.24
739.47	238.79
739.80	238.81
740.13	238.93
740.46	238.48
740.79	237.95
741.12	237.79
741.45	237.19
741.78	235.83
742.11	236.21
742.44	235.57
742.77	235.76
743.10	235.36
743.43	235.10
743.75	232.83
744.08	235.33
744.41	234.83
744.74	234.31
745.07	233.83
745.40	233.93
745.73	234.50
746.06	234.19
746.39	234.31
746.71	233.79
747.04	233.12
747.37	232.90
747.70	233.07
748.03	232.93
748.36	232.93
748.68	232.69
749.01	231.93
749.34	231.93
749.67	231.64
750.00	231.48
750.33	232.93
750.65	232.79
750.98	230.00
751.31	229.81
751.64	229.90
751.97	230.88
752.29	230.69
752.62	229.57
752.95	229.38
753.28	228.93
753.60	228.95
753.93	229.17
754.26	229.02
754.59	228.33
754.91	227.93
755.24	227.76
755.57	227.50
755.90	227.05
756.22	226.50
756.55	226.12
756.88	225.76
757.20	224.14
757.53	223.50
757.86	223.48
758.19	223.79
758.51	223.67
758.84	222.55
759.17	222.38
759.49	222.43
759.82	223.36
760.15	223.43
760.47	223.07
760.80	222.40
761.13	222.81
761.45	222.55
761.78	222.57
762.11	222.62
762.43	222.50
762.76	222.52
763.08	222.88
763.41	222.76
763.74	222.71
764.06	222.74
764.39	222.60
764.71	222.55
765.04	222.02
765.37	221.86
765.69	221.64
766.02	221.36
766.34	221.12
766.67	220.40
767.00	220.79
767.32	221.88
767.65	223.38
767.97	223.31
768.30	223.62
768.62	223.71
768.95	223.38
769.27	223.24
769.60	223.45
769.92	223.10
770.25	222.79
770.57	222.26
770.90	222.17
771.22	222.24
771.55	222.12
771.87	222.24
772.20	222.07
772.52	224.02
772.85	226.55
773.17	226.67
773.50	226.26
773.82	225.64
774.15	224.55
774.47	223.00
774.80	222.62
775.12	222.62
775.45	222.24
775.77	222.10
776.09	222.24
776.42	222.24
776.74	222.76
777.07	222.52
777.39	222.83
777.72	222.45
778.04	222.60
778.36	222.43
778.69	222.33
779.01	222.38
779.33	220.57
779.66	218.21
779.98	218.00
780.31	218.43
780.63	219.50
780.95	220.00
781.28	220.02
781.60	219.90
781.92	219.60
782.25	219.57
782.57	219.50
782.89	219.19
783.22	219.00
783.54	218.43
783.86	218.81
784.19	218.67
784.51	219.38
784.83	218.95
785.16	218.83
785.48	218.95
785.80	219.10
786.12	219.19
786.45	219.17
786.77	219.19
787.09	218.62
787.42	217.62
787.74	217.48
788.06	217.50
