SpectraSuite Data File
++++++++++++++++++++++++++++++++++++
Date: Tue Apr 02 18:40:30 EDT 2013
User: group
Dark Spectrum Present: No
Reference Spectrum Present: No
Number of Sampled Component Spectra: 1
Spectrometers: USB2E7196
Integration Time (usec): 580000 (USB2E7196)
Spectra Averaged: 2 (USB2E7196)
Boxcar Smoothing: 10 (USB2E7196)
Correct for Electrical Dark: No (USB2E7196)
Strobe/Lamp Enabled: No (USB2E7196)
Correct for Detector Non-linearity: No (USB2E7196)
Correct for Stray Light: No (USB2E7196)
Number of Pixels in Processed Spectrum: 2048
>>>>>Begin Processed Spectral Data<<<<<
339.09	0.00
339.48	192.00
339.86	191.00
340.24	196.50
340.63	199.00
341.01	228.00
341.39	203.50
341.78	209.50
342.16	210.50
342.54	205.50
342.93	198.26
343.31	208.00
343.69	208.57
344.07	209.21
344.46	210.19
344.84	210.76
345.22	209.69
345.60	210.10
345.99	210.24
346.37	210.14
346.75	210.19
347.13	210.19
347.52	209.86
347.90	210.60
348.28	210.43
348.66	210.98
349.05	210.21
349.43	210.74
349.81	210.95
350.19	210.95
350.57	211.21
350.96	211.21
351.34	211.69
351.72	212.07
352.10	212.31
352.48	211.90
352.87	211.86
353.25	212.17
353.63	212.24
354.01	212.29
354.39	212.29
354.77	212.29
355.15	213.26
355.54	213.31
355.92	212.67
356.30	212.86
356.68	213.95
357.06	214.17
357.44	213.64
357.82	213.50
358.20	214.57
358.58	214.48
358.97	214.64
359.35	214.83
359.73	215.29
360.11	215.48
360.49	215.57
360.87	215.50
361.25	215.71
361.63	216.29
362.01	216.10
362.39	216.24
362.77	216.55
363.15	216.02
363.53	216.31
363.91	216.50
364.29	216.55
364.67	214.45
365.05	214.38
365.43	214.79
365.81	215.02
366.19	215.19
366.57	216.02
366.95	215.88
367.33	215.50
367.71	215.26
368.09	215.62
368.47	215.79
368.85	215.79
369.23	215.98
369.61	215.07
369.99	216.02
370.37	216.50
370.75	217.55
371.13	217.26
371.51	216.88
371.89	217.12
372.27	217.19
372.65	217.38
373.03	217.60
373.41	217.40
373.78	217.52
374.16	216.36
374.54	215.69
374.92	215.50
375.30	215.45
375.68	215.00
376.06	214.93
376.44	214.69
376.82	214.81
377.19	214.67
377.57	214.83
377.95	213.95
378.33	213.62
378.71	212.33
379.09	212.50
379.47	212.67
379.84	212.33
380.22	212.10
380.60	211.71
380.98	211.71
381.36	211.64
381.73	211.29
382.11	211.88
382.49	211.93
382.87	211.79
383.25	211.93
383.62	214.43
384.00	213.95
384.38	213.90
384.76	214.40
385.13	215.21
385.51	215.19
385.89	215.19
386.27	215.17
386.64	215.60
387.02	215.57
387.40	215.36
387.78	215.60
388.15	215.79
388.53	215.90
388.91	216.02
389.29	216.00
389.66	216.31
390.04	215.88
390.42	216.17
390.79	216.50
391.17	216.38
391.55	214.05
391.92	214.07
392.30	214.55
392.68	213.95
393.05	213.83
393.43	213.83
393.81	213.95
394.18	213.62
394.56	213.67
394.94	214.14
395.31	214.21
395.69	214.86
396.06	215.10
396.44	215.14
396.82	214.83
397.19	215.90
397.57	215.71
397.95	216.10
398.32	215.67
398.70	215.86
399.07	216.29
399.45	216.26
399.82	216.26
400.20	216.12
400.58	216.36
400.95	215.69
401.33	216.21
401.70	217.69
402.08	218.12
402.45	218.24
402.83	218.62
403.20	218.95
403.58	218.95
403.95	219.45
404.33	220.02
404.71	220.43
405.08	221.52
405.46	221.60
405.83	221.79
406.21	222.07
406.58	222.48
406.96	222.86
407.33	223.67
407.70	224.33
408.08	226.40
408.45	227.31
408.83	228.24
409.20	228.74
409.58	228.02
409.95	229.14
410.33	230.00
410.70	230.48
411.08	231.74
411.45	232.74
411.82	233.45
412.20	235.07
412.57	237.62
412.95	237.33
413.32	239.43
413.69	241.17
414.07	243.14
414.44	244.93
414.82	247.05
415.19	249.57
415.56	252.19
415.94	253.55
416.31	256.62
416.68	259.31
417.06	262.60
417.43	266.64
417.81	270.31
418.18	274.02
418.55	277.98
418.93	282.12
419.30	286.33
419.67	291.10
420.04	295.60
420.42	299.86
420.79	306.90
421.16	312.26
421.54	319.40
421.91	325.83
422.28	332.48
422.66	339.50
423.03	347.81
423.40	355.14
423.77	362.74
424.15	369.74
424.52	378.38
424.89	387.55
425.26	395.98
425.64	403.76
426.01	412.67
426.38	421.71
426.75	431.43
427.13	441.48
427.50	451.93
427.87	462.76
428.24	473.57
428.61	483.12
428.99	495.43
429.36	506.45
429.73	518.36
430.10	530.38
430.47	543.12
430.85	554.10
431.22	567.17
431.59	583.36
431.96	596.98
432.33	612.33
432.70	626.76
433.08	643.26
433.45	660.21
433.82	676.19
434.19	694.36
434.56	712.12
434.93	728.10
435.30	744.98
435.68	763.24
436.05	781.40
436.42	799.12
436.79	816.31
437.16	834.07
437.53	853.02
437.90	872.26
438.27	890.88
438.64	909.95
439.01	927.81
439.38	941.67
439.75	957.62
440.13	975.21
440.50	992.14
440.87	1006.36
441.24	1020.05
441.61	1036.19
441.98	1047.81
442.35	1060.48
442.72	1075.02
443.09	1089.57
443.46	1097.67
443.83	1103.45
444.20	1108.67
444.57	1114.31
444.94	1117.79
445.31	1121.36
445.68	1126.69
446.05	1128.02
446.42	1126.79
446.79	1126.12
447.16	1124.21
447.53	1123.17
447.90	1116.05
448.27	1109.07
448.64	1098.98
449.01	1092.55
449.37	1080.19
449.74	1068.74
450.11	1056.74
450.48	1040.86
450.85	1023.36
451.22	1009.81
451.59	997.17
451.96	985.12
452.33	968.81
452.70	954.21
453.07	936.60
453.43	916.57
453.80	899.05
454.17	882.14
454.54	865.64
454.91	848.55
455.28	831.50
455.65	815.43
456.02	803.26
456.38	790.19
456.75	773.43
457.12	759.55
457.49	745.43
457.86	730.38
458.23	719.93
458.59	707.48
458.96	694.93
459.33	683.43
459.70	671.71
460.07	663.05
460.43	652.74
460.80	643.12
461.17	635.12
461.54	626.69
461.91	618.55
462.27	609.50
462.64	601.93
463.01	593.67
463.38	586.64
463.74	575.29
464.11	568.38
464.48	562.29
464.85	555.74
465.21	551.00
465.58	545.57
465.95	538.55
466.32	533.33
466.68	527.79
467.05	522.38
467.42	517.50
467.78	511.76
468.15	506.62
468.52	503.07
468.88	497.07
469.25	491.55
469.62	487.90
469.98	483.98
470.35	480.26
470.72	476.90
471.08	472.36
471.45	469.26
471.82	466.31
472.18	462.79
472.55	459.98
472.92	456.36
473.28	453.45
473.65	450.48
474.02	447.62
474.38	445.90
474.75	443.86
475.11	440.90
475.48	439.43
475.85	437.57
476.21	435.12
476.58	434.12
476.94	433.33
477.31	431.83
477.67	430.74
478.04	430.02
478.41	429.50
478.77	430.48
479.14	429.21
479.50	428.64
479.87	428.00
480.23	427.36
480.60	426.98
480.96	427.14
481.33	427.83
481.69	427.81
482.06	427.98
482.42	428.26
482.79	429.02
483.15	429.19
483.52	430.24
483.88	430.60
484.25	431.02
484.61	431.55
484.98	432.26
485.34	434.00
485.71	435.10
486.07	435.98
486.44	435.52
486.80	437.19
487.17	438.86
487.53	441.43
487.90	444.12
488.26	447.43
488.62	450.17
488.99	452.02
489.35	454.88
489.72	457.67
490.08	460.55
490.44	463.74
490.81	467.31
491.17	470.26
491.54	474.33
491.90	477.90
492.26	481.79
492.63	486.19
492.99	489.64
493.36	494.26
493.72	499.26
494.08	504.05
494.45	509.14
494.81	514.21
495.17	519.19
495.54	524.50
495.90	529.60
496.26	534.95
496.63	540.98
496.99	546.98
497.35	552.64
497.72	558.93
498.08	564.90
498.44	570.90
498.80	577.50
499.17	584.07
499.53	591.02
499.89	598.29
500.26	605.12
500.62	612.57
500.98	620.05
501.34	627.69
501.71	635.86
502.07	643.38
502.43	650.60
502.79	657.81
503.16	664.90
503.52	672.55
503.88	679.36
504.24	687.26
504.60	695.21
504.97	703.69
505.33	711.43
505.69	721.02
506.05	729.40
506.41	737.64
506.78	745.83
507.14	753.69
507.50	761.60
507.86	769.86
508.22	778.45
508.59	786.07
508.95	794.21
509.31	803.17
509.67	811.64
510.03	820.24
510.39	828.17
510.75	836.64
511.12	844.50
511.48	853.40
511.84	860.95
512.20	868.81
512.56	877.57
512.92	885.88
513.28	893.24
513.64	900.98
514.00	909.17
514.37	917.12
514.73	925.55
515.09	935.05
515.45	942.50
515.81	949.88
516.17	957.52
516.53	964.17
516.89	970.05
517.25	976.95
517.61	984.26
517.97	991.71
518.33	999.24
518.69	1006.74
519.05	1013.81
519.41	1021.55
519.77	1030.17
520.13	1036.40
520.49	1042.98
520.85	1049.83
521.21	1057.67
521.57	1064.62
521.93	1071.05
522.29	1077.98
522.65	1082.95
523.01	1090.10
523.37	1095.81
523.73	1102.10
524.09	1108.62
524.45	1114.64
524.81	1120.40
525.17	1126.40
525.53	1131.90
525.89	1137.17
526.25	1142.90
526.61	1148.48
526.97	1153.43
527.33	1158.10
527.68	1165.21
528.04	1170.29
528.40	1175.12
528.76	1179.29
529.12	1183.88
529.48	1189.17
529.84	1192.93
530.20	1197.88
530.56	1202.55
530.91	1207.95
531.27	1213.07
531.63	1218.12
531.99	1223.24
532.35	1228.21
532.71	1232.90
533.07	1238.24
533.42	1245.52
533.78	1250.79
534.14	1256.10
534.50	1260.98
534.86	1266.10
535.21	1268.83
535.57	1274.64
535.93	1278.48
536.29	1284.52
536.65	1289.64
537.00	1293.19
537.36	1298.33
537.72	1302.24
538.08	1306.14
538.44	1309.93
538.79	1313.86
539.15	1317.05
539.51	1321.62
539.87	1325.86
540.22	1330.00
540.58	1334.02
540.94	1335.81
541.29	1339.52
541.65	1342.43
542.01	1346.07
542.37	1348.79
542.72	1352.07
543.08	1354.69
543.44	1359.00
543.79	1360.64
544.15	1364.07
544.51	1368.64
544.87	1371.74
545.22	1375.55
545.58	1379.43
545.94	1383.10
546.29	1386.93
546.65	1390.88
547.01	1393.76
547.36	1397.24
547.72	1400.50
548.07	1404.38
548.43	1407.40
548.79	1409.69
549.14	1413.40
549.50	1417.14
549.86	1419.62
550.21	1423.33
550.57	1426.60
550.92	1429.55
551.28	1433.79
551.64	1436.86
551.99	1440.10
552.35	1444.21
552.70	1447.95
553.06	1452.17
553.41	1454.98
553.77	1460.07
554.13	1464.83
554.48	1470.02
554.84	1475.26
555.19	1479.81
555.55	1485.36
555.90	1490.38
556.26	1494.93
556.61	1498.45
556.97	1502.64
557.32	1507.17
557.68	1511.60
558.03	1516.60
558.39	1522.19
558.74	1526.36
559.10	1531.02
559.45	1536.76
559.81	1540.93
560.16	1545.71
560.52	1549.93
560.87	1556.19
561.23	1559.07
561.58	1564.71
561.94	1568.79
562.29	1572.79
562.64	1578.00
563.00	1581.45
563.35	1586.21
563.71	1591.86
564.06	1597.60
564.42	1602.93
564.77	1610.31
565.12	1616.36
565.48	1623.36
565.83	1628.26
566.19	1634.95
566.54	1640.64
566.89	1645.02
567.25	1650.67
567.60	1657.00
567.96	1664.48
568.31	1670.21
568.66	1676.98
569.02	1680.50
569.37	1685.71
569.72	1690.95
570.08	1694.79
570.43	1700.00
570.78	1704.76
571.14	1708.88
571.49	1713.10
571.84	1717.38
572.20	1720.10
572.55	1723.64
572.90	1725.45
573.26	1729.29
573.61	1731.86
573.96	1736.05
574.31	1739.67
574.67	1743.21
575.02	1745.17
575.37	1745.67
575.72	1746.93
576.08	1749.17
576.43	1752.12
576.78	1754.36
577.13	1756.60
577.49	1759.74
577.84	1762.07
578.19	1765.12
578.54	1768.95
578.90	1772.50
579.25	1775.40
579.60	1777.12
579.95	1779.00
580.30	1781.98
580.66	1785.12
581.01	1788.07
581.36	1789.45
581.71	1790.83
582.06	1794.29
582.42	1797.24
582.77	1799.74
583.12	1801.83
583.47	1803.60
583.82	1805.74
584.17	1807.14
584.53	1809.95
584.88	1811.64
585.23	1813.29
585.58	1814.02
585.93	1814.38
586.28	1814.45
586.63	1816.02
586.98	1817.86
587.34	1819.98
587.69	1820.05
588.04	1819.33
588.39	1819.19
588.74	1818.60
589.09	1819.95
589.44	1817.76
589.79	1817.74
590.14	1817.76
590.49	1817.76
590.84	1816.38
591.19	1816.26
591.54	1817.31
591.89	1817.00
592.25	1818.45
592.60	1816.76
592.95	1816.38
593.30	1816.24
593.65	1816.40
594.00	1813.95
594.35	1818.36
594.70	1816.55
595.05	1816.83
595.40	1815.88
595.75	1814.60
596.10	1814.67
596.45	1813.98
596.80	1814.57
597.15	1812.88
597.50	1811.26
597.85	1811.86
598.19	1811.29
598.54	1810.69
598.89	1809.29
599.24	1808.10
599.59	1804.38
599.94	1803.69
600.29	1802.62
600.64	1800.19
600.99	1798.29
601.34	1798.26
601.69	1792.05
602.04	1790.24
602.39	1787.52
602.74	1786.40
603.08	1784.10
603.43	1783.21
603.78	1781.48
604.13	1778.45
604.48	1776.81
604.83	1775.98
605.18	1773.71
605.53	1772.38
605.87	1769.69
606.22	1765.90
606.57	1761.38
606.92	1759.45
607.27	1757.67
607.62	1755.07
607.96	1753.81
608.31	1751.17
608.66	1747.33
609.01	1743.64
609.36	1740.69
609.70	1737.90
610.05	1733.52
610.40	1731.26
610.75	1726.45
611.10	1722.05
611.44	1717.93
611.79	1713.95
612.14	1709.07
612.49	1703.48
612.83	1698.02
613.18	1693.60
613.53	1689.62
613.88	1685.26
614.22	1680.48
614.57	1674.33
614.92	1668.36
615.27	1662.76
615.61	1657.31
615.96	1652.52
616.31	1646.52
616.65	1642.38
617.00	1638.05
617.35	1633.67
617.70	1627.60
618.04	1622.57
618.39	1616.90
618.74	1611.57
619.08	1605.57
619.43	1600.50
619.78	1595.88
620.12	1592.45
620.47	1585.90
620.82	1580.79
621.16	1575.43
621.51	1570.76
621.85	1565.38
622.20	1560.50
622.55	1553.95
622.89	1549.14
623.24	1544.00
623.59	1540.00
623.93	1534.07
624.28	1529.12
624.62	1525.83
624.97	1523.10
625.32	1517.45
625.66	1512.62
626.01	1507.71
626.35	1503.10
626.70	1497.93
627.04	1491.81
627.39	1485.21
627.73	1481.98
628.08	1477.79
628.43	1473.43
628.77	1467.95
629.12	1463.31
629.46	1458.31
629.81	1453.26
630.15	1447.21
630.50	1441.60
630.84	1435.81
631.19	1429.31
631.53	1422.55
631.88	1413.62
632.22	1405.60
632.57	1400.26
632.91	1394.60
633.26	1389.98
633.60	1383.64
633.95	1378.31
634.29	1372.60
634.64	1367.00
634.98	1360.33
635.32	1354.10
635.67	1348.76
636.01	1343.02
636.36	1336.62
636.70	1331.62
637.05	1326.71
637.39	1321.55
637.73	1316.24
638.08	1311.62
638.42	1306.95
638.77	1301.02
639.11	1296.79
639.45	1291.02
639.80	1284.71
640.14	1278.81
640.49	1271.93
640.83	1266.12
641.17	1259.24
641.52	1253.19
641.86	1247.33
642.20	1242.05
642.55	1235.40
642.89	1228.60
643.23	1221.57
643.58	1216.48
643.92	1207.81
644.26	1200.88
644.61	1194.17
644.95	1186.50
645.29	1178.50
645.64	1172.07
645.98	1166.00
646.32	1159.19
646.66	1152.31
647.01	1146.19
647.35	1139.36
647.69	1132.88
648.04	1126.76
648.38	1120.81
648.72	1114.71
649.06	1107.50
649.41	1099.40
649.75	1092.36
650.09	1085.38
650.43	1077.81
650.78	1070.17
651.12	1064.21
651.46	1056.93
651.80	1050.31
652.14	1044.81
652.49	1038.74
652.83	1032.24
653.17	1024.81
653.51	1018.24
653.85	1012.36
654.20	1005.33
654.54	998.33
654.88	991.05
655.22	984.95
655.56	977.76
655.90	971.29
656.25	965.05
656.59	958.95
656.93	953.38
657.27	948.24
657.61	942.55
657.95	937.36
658.29	931.62
658.64	926.50
658.98	919.81
659.32	913.14
659.66	907.19
660.00	900.95
660.34	895.48
660.68	889.76
661.02	883.45
661.36	877.33
661.70	872.48
662.05	867.95
662.39	862.31
662.73	857.76
663.07	853.02
663.41	847.38
663.75	841.98
664.09	836.17
664.43	829.62
664.77	823.95
665.11	817.33
665.45	812.05
665.79	806.93
666.13	801.95
666.47	796.17
666.81	791.12
667.15	785.36
667.49	780.14
667.83	774.79
668.17	769.33
668.51	764.83
668.85	759.40
669.19	754.55
669.53	748.10
669.87	741.83
670.21	736.24
670.55	731.36
670.89	727.00
671.23	722.00
671.57	716.76
671.91	712.29
672.25	707.86
672.58	703.43
672.92	698.12
673.26	693.26
673.60	689.07
673.94	684.10
674.28	679.45
674.62	675.21
674.96	670.95
675.30	667.21
675.64	662.36
675.97	658.17
676.31	652.57
676.65	648.64
676.99	645.02
677.33	640.31
677.67	636.17
678.01	631.05
678.34	626.40
678.68	623.07
679.02	618.60
679.36	614.33
679.70	609.62
680.04	605.07
680.37	600.98
680.71	596.64
681.05	592.24
681.39	588.02
681.73	583.57
682.06	579.10
682.40	574.62
682.74	571.10
683.08	567.38
683.42	563.45
683.75	560.00
684.09	555.79
684.43	551.45
684.77	547.05
685.10	543.31
685.44	539.40
685.78	534.81
686.12	531.19
686.45	527.14
686.79	523.05
687.13	519.95
687.46	516.10
687.80	513.24
688.14	509.57
688.48	506.64
688.81	503.31
689.15	500.29
689.49	497.36
689.82	494.26
690.16	489.86
690.50	486.71
690.83	483.36
691.17	479.38
691.51	476.76
691.84	473.95
692.18	470.38
692.52	467.38
692.85	465.05
693.19	462.33
693.52	459.43
693.86	457.02
694.20	453.43
694.53	450.64
694.87	446.69
695.21	443.79
695.54	440.40
695.88	437.12
696.21	433.17
696.55	429.71
696.88	426.36
697.22	423.52
697.56	421.19
697.89	417.76
698.23	415.62
698.56	412.93
698.90	410.50
699.23	408.31
699.57	405.90
699.90	402.40
700.24	399.60
700.58	397.26
700.91	394.93
701.25	394.24
701.58	392.67
701.92	391.07
702.25	388.62
702.59	386.31
702.92	384.17
703.26	382.60
703.59	380.57
703.93	380.60
704.26	379.05
704.60	377.07
704.93	375.29
705.26	373.10
705.60	371.26
705.93	368.69
706.27	367.17
706.60	365.62
706.94	365.02
707.27	363.00
707.61	361.10
707.94	358.93
708.27	355.29
708.61	352.79
708.94	350.90
709.28	349.38
709.61	347.33
709.94	345.74
710.28	344.14
710.61	342.50
710.95	338.62
711.28	338.29
711.61	336.36
711.95	335.26
712.28	333.76
712.61	332.14
712.95	332.12
713.28	331.24
713.61	329.21
713.95	326.79
714.28	325.52
714.61	323.88
714.95	322.45
715.28	321.24
715.61	319.88
715.95	318.62
716.28	316.93
716.61	316.33
716.95	314.74
717.28	313.24
717.61	311.64
717.94	310.48
718.28	307.57
718.61	306.14
718.94	304.43
719.27	302.95
719.61	301.71
719.94	299.83
720.27	297.55
720.60	296.29
720.94	295.40
721.27	294.40
721.60	293.67
721.93	292.55
722.27	292.29
722.60	291.55
722.93	290.45
723.26	289.90
723.59	288.48
723.93	287.57
724.26	287.07
724.59	286.38
724.92	285.98
725.25	285.62
725.59	284.88
725.92	284.57
726.25	284.05
726.58	283.26
726.91	282.07
727.24	281.57
727.57	281.12
727.91	280.02
728.24	279.55
728.57	278.55
728.90	278.33
729.23	276.90
729.56	277.00
729.89	275.90
730.22	274.98
730.55	274.19
730.89	273.93
731.22	273.10
731.55	272.36
731.88	271.29
732.21	270.64
732.54	269.95
732.87	269.14
733.20	268.64
733.53	268.02
733.86	267.76
734.19	266.86
734.52	266.43
734.85	267.48
735.18	266.43
735.51	266.90
735.84	266.14
736.17	266.43
736.50	264.74
736.83	266.64
737.16	266.38
737.49	266.21
737.82	265.33
738.15	264.90
738.48	264.52
738.81	264.05
739.14	262.88
739.47	262.24
739.80	261.50
740.13	261.10
740.46	260.38
740.79	259.69
741.12	259.10
741.45	258.48
741.78	256.62
742.11	256.50
742.44	255.12
742.77	254.90
743.10	253.83
743.43	253.40
743.75	250.98
744.08	253.10
744.41	252.24
744.74	251.74
745.07	250.86
745.40	250.43
745.73	250.67
746.06	250.60
746.39	250.40
746.71	250.02
747.04	249.26
747.37	248.64
747.70	248.52
748.03	248.43
748.36	248.24
748.68	247.90
749.01	247.12
749.34	246.98
749.67	246.55
750.00	246.55
750.33	247.88
750.65	247.71
750.98	244.62
751.31	244.29
751.64	244.29
751.97	245.10
752.29	244.86
752.62	243.83
752.95	243.33
753.28	243.05
753.60	242.43
753.93	242.48
754.26	242.40
754.59	241.57
754.91	240.93
755.24	240.36
755.57	240.21
755.90	239.86
756.22	239.21
756.55	238.40
756.88	237.52
757.20	235.98
757.53	235.12
757.86	234.93
758.19	235.00
758.51	234.69
758.84	233.36
759.17	232.93
759.49	232.93
759.82	233.57
760.15	233.40
760.47	233.38
760.80	232.60
761.13	232.83
761.45	232.45
761.78	232.21
762.11	232.07
762.43	231.67
762.76	231.50
763.08	231.60
763.41	231.62
763.74	231.57
764.06	231.12
764.39	231.00
764.71	230.83
765.04	230.48
765.37	229.81
765.69	229.52
766.02	229.19
766.34	228.69
766.67	227.67
767.00	227.67
767.32	228.38
767.65	229.40
767.97	228.90
768.30	228.76
768.62	228.67
768.95	228.36
769.27	228.24
769.60	228.26
769.92	227.74
770.25	227.24
770.57	226.79
770.90	226.67
771.22	226.29
771.55	226.12
771.87	226.14
772.20	226.02
772.52	227.74
772.85	230.17
773.17	230.19
773.50	230.21
773.82	229.74
774.15	228.83
774.47	227.55
774.80	227.29
775.12	227.31
775.45	227.26
775.77	227.05
776.09	226.95
776.42	226.88
776.74	227.62
777.07	227.40
777.39	227.48
777.72	227.07
778.04	227.21
778.36	226.81
778.69	226.62
779.01	226.74
779.33	224.74
779.66	222.26
779.98	221.81
780.31	221.90
780.63	222.83
780.95	223.10
781.28	223.19
781.60	222.93
781.92	222.95
782.25	222.83
782.57	223.07
782.89	222.90
783.22	222.55
783.54	221.90
783.86	222.14
784.19	221.88
784.51	222.40
784.83	222.17
785.16	221.93
785.48	221.79
