SpectraSuite Data File
++++++++++++++++++++++++++++++++++++
Date: Tue Apr 02 18:44:19 EDT 2013
User: group
Dark Spectrum Present: No
Reference Spectrum Present: No
Number of Sampled Component Spectra: 1
Spectrometers: USB2E7196
Integration Time (usec): 580000 (USB2E7196)
Spectra Averaged: 2 (USB2E7196)
Boxcar Smoothing: 10 (USB2E7196)
Correct for Electrical Dark: No (USB2E7196)
Strobe/Lamp Enabled: No (USB2E7196)
Correct for Detector Non-linearity: No (USB2E7196)
Correct for Stray Light: No (USB2E7196)
Number of Pixels in Processed Spectrum: 2048
>>>>>Begin Processed Spectral Data<<<<<
339.09	0.00
339.48	194.00
339.86	194.50
340.24	196.50
340.63	198.00
341.01	231.50
341.39	202.00
341.78	207.00
342.16	206.00
342.54	205.00
342.93	197.29
343.31	206.76
343.69	207.19
344.07	207.69
344.46	208.40
344.84	209.07
345.22	207.88
345.60	208.29
345.99	208.52
346.37	208.55
346.75	208.67
347.13	208.67
347.52	208.86
347.90	209.48
348.28	209.55
348.66	210.10
349.05	209.64
349.43	209.98
349.81	210.24
350.19	210.17
350.57	210.19
350.96	210.33
351.34	210.71
351.72	211.10
352.10	211.24
352.48	211.12
352.87	210.95
353.25	211.10
353.63	210.93
354.01	210.90
354.39	211.14
354.77	211.31
355.15	211.98
355.54	211.62
355.92	210.90
356.30	211.05
356.68	212.33
357.06	212.33
357.44	212.10
357.82	212.10
358.20	213.17
358.58	213.12
358.97	213.24
359.35	213.67
359.73	213.98
360.11	213.95
360.49	214.10
360.87	214.14
361.25	214.31
361.63	215.29
362.01	215.38
362.39	215.14
362.77	215.38
363.15	215.33
363.53	215.62
363.91	215.71
364.29	215.64
364.67	214.05
365.05	214.38
365.43	214.83
365.81	215.19
366.19	215.19
366.57	215.90
366.95	215.95
367.33	215.69
367.71	215.55
368.09	215.98
368.47	216.05
368.85	216.07
369.23	216.57
369.61	215.57
369.99	216.36
370.37	216.88
370.75	217.98
371.13	217.62
371.51	217.48
371.89	217.79
372.27	217.86
372.65	218.07
373.03	218.12
373.41	217.74
373.78	217.60
374.16	216.67
374.54	216.21
374.92	216.14
375.30	216.26
375.68	216.02
376.06	216.12
376.44	215.90
376.82	216.07
377.19	215.88
377.57	216.10
377.95	215.40
378.33	215.21
378.71	213.81
379.09	214.26
379.47	214.69
379.84	214.38
380.22	214.45
380.60	213.98
380.98	213.95
381.36	214.00
381.73	213.57
382.11	213.90
382.49	213.86
382.87	213.67
383.25	213.81
383.62	216.21
384.00	216.02
384.38	216.26
384.76	216.57
385.13	217.40
385.51	217.45
385.89	216.90
386.27	217.07
386.64	217.29
387.02	216.81
387.40	216.50
387.78	216.81
388.15	216.98
388.53	216.93
388.91	216.71
389.29	216.36
389.66	216.60
390.04	216.24
390.42	216.95
390.79	217.17
391.17	217.05
391.55	214.64
391.92	214.52
392.30	214.62
392.68	214.14
393.05	214.05
393.43	214.17
393.81	214.79
394.18	214.31
394.56	214.60
394.94	215.19
395.31	214.74
395.69	215.26
396.06	215.24
396.44	215.52
396.82	215.50
397.19	216.67
397.57	216.55
397.95	216.93
398.32	216.21
398.70	216.19
399.07	216.60
399.45	216.69
399.82	216.55
400.20	216.17
400.58	216.24
400.95	215.29
401.33	215.43
401.70	216.79
402.08	216.95
402.45	216.67
402.83	217.05
403.20	217.45
403.58	217.33
403.95	217.95
404.33	218.26
404.71	218.45
405.08	219.79
405.46	220.00
405.83	220.29
406.21	220.45
406.58	221.02
406.96	221.24
407.33	221.81
407.70	222.71
408.08	225.17
408.45	226.19
408.83	227.31
409.20	227.57
409.58	227.05
409.95	228.33
410.33	229.67
410.70	229.83
411.08	231.29
411.45	232.31
411.82	233.12
412.20	234.48
412.57	236.86
412.95	236.48
413.32	238.48
413.69	239.93
414.07	241.76
414.44	243.50
414.82	245.33
415.19	247.74
415.56	249.83
415.94	251.00
416.31	253.76
416.68	256.71
417.06	260.24
417.43	263.52
417.81	266.62
418.18	270.21
418.55	274.14
418.93	278.12
419.30	282.00
419.67	286.50
420.04	291.14
420.42	295.40
420.79	302.60
421.16	308.07
421.54	315.10
421.91	321.19
422.28	327.33
422.66	334.29
423.03	342.10
423.40	349.21
423.77	356.64
424.15	363.95
424.52	371.10
424.89	379.71
425.26	387.55
425.64	395.29
426.01	403.24
426.38	412.07
426.75	421.43
427.13	430.52
427.50	439.45
427.87	449.43
428.24	459.24
428.61	467.38
428.99	478.45
429.36	488.88
429.73	500.29
430.10	511.83
430.47	522.98
430.85	533.52
431.22	545.76
431.59	560.36
431.96	572.50
432.33	586.45
432.70	599.86
433.08	615.83
433.45	631.14
433.82	646.62
434.19	663.55
434.56	680.07
434.93	696.43
435.30	713.07
435.68	730.21
436.05	747.45
436.42	764.31
436.79	780.38
437.16	796.81
437.53	814.38
437.90	831.45
438.27	849.31
438.64	867.21
439.01	884.98
439.38	898.33
439.75	913.67
440.13	930.83
440.50	946.50
440.87	959.52
441.24	972.50
441.61	987.36
441.98	998.24
442.35	1009.71
442.72	1022.36
443.09	1035.19
443.46	1043.10
443.83	1048.52
444.20	1053.60
444.57	1059.19
444.94	1063.05
445.31	1066.93
445.68	1073.05
446.05	1074.33
446.42	1072.90
446.79	1070.95
447.16	1069.26
447.53	1068.40
447.90	1062.00
448.27	1055.55
448.64	1046.90
449.01	1041.24
449.37	1030.14
449.74	1019.02
450.11	1008.31
450.48	993.38
450.85	978.07
451.22	965.60
451.59	953.62
451.96	942.02
452.33	927.02
452.70	913.19
453.07	895.90
453.43	876.45
453.80	860.62
454.17	845.26
454.54	829.95
454.91	813.71
455.28	797.36
455.65	782.43
456.02	771.21
456.38	758.36
456.75	743.07
457.12	729.43
457.49	716.45
457.86	701.95
458.23	692.52
458.59	680.50
458.96	668.67
459.33	657.98
459.70	647.17
460.07	638.38
460.43	628.26
460.80	619.69
461.17	612.36
461.54	603.76
461.91	595.88
462.27	587.52
462.64	581.00
463.01	573.69
463.38	567.50
463.74	557.02
464.11	550.14
464.48	544.00
464.85	537.50
465.21	533.14
465.58	528.55
465.95	521.43
466.32	516.40
466.68	511.00
467.05	506.02
467.42	501.10
467.78	495.64
468.15	490.74
468.52	487.02
468.88	481.33
469.25	476.69
469.62	473.31
469.98	469.79
470.35	465.76
470.72	461.64
471.08	456.86
471.45	453.81
471.82	451.50
472.18	448.05
472.55	445.76
472.92	442.24
473.28	439.02
473.65	436.33
474.02	433.98
474.38	431.83
474.75	430.02
475.11	427.55
475.48	426.26
475.85	424.62
476.21	422.48
476.58	421.48
476.94	420.26
477.31	418.57
477.67	417.05
478.04	416.38
478.41	415.67
478.77	416.98
479.14	415.60
479.50	414.71
479.87	414.88
480.23	414.79
480.60	414.33
480.96	414.17
481.33	415.21
481.69	415.07
482.06	415.26
482.42	415.67
482.79	416.55
483.15	416.38
483.52	417.79
483.88	418.38
484.25	419.10
484.61	419.74
484.98	420.62
485.34	422.60
485.71	423.81
486.07	425.40
486.44	424.86
486.80	426.52
487.17	428.33
487.53	430.17
487.90	432.21
488.26	435.43
488.62	438.43
488.99	440.07
489.35	443.10
489.72	445.69
490.08	448.05
490.44	450.67
490.81	454.26
491.17	456.86
491.54	460.48
491.90	463.86
492.26	467.71
492.63	472.10
492.99	475.36
493.36	479.50
493.72	484.45
494.08	488.74
494.45	493.88
494.81	498.52
495.17	503.00
495.54	508.19
495.90	512.50
496.26	517.17
496.63	522.69
496.99	527.33
497.35	532.76
497.72	538.79
498.08	544.62
498.44	550.83
498.80	557.67
499.17	564.14
499.53	570.33
499.89	577.02
500.26	583.10
500.62	589.88
500.98	597.10
501.34	603.71
501.71	611.24
502.07	618.05
502.43	625.38
502.79	632.45
503.16	639.52
503.52	646.88
503.88	653.86
504.24	661.48
504.60	669.81
504.97	677.71
505.33	685.00
505.69	693.67
506.05	700.88
506.41	707.81
506.78	715.29
507.14	722.64
507.50	730.88
507.86	738.57
508.22	746.79
508.59	753.67
508.95	761.26
509.31	770.38
509.67	778.38
510.03	785.67
510.39	793.40
510.75	801.36
511.12	809.05
511.48	817.60
511.84	825.17
512.20	832.52
512.56	840.17
512.92	848.24
513.28	855.29
513.64	863.02
514.00	870.12
514.37	877.36
514.73	885.24
515.09	891.83
515.45	899.00
515.81	905.50
516.17	912.43
516.53	919.05
516.89	924.12
517.25	930.67
517.61	937.83
517.97	943.90
518.33	950.10
518.69	956.62
519.05	962.33
519.41	968.17
519.77	975.50
520.13	982.21
520.49	987.69
520.85	993.43
521.21	999.86
521.57	1006.88
521.93	1011.76
522.29	1017.50
522.65	1022.57
523.01	1028.24
523.37	1033.52
523.73	1039.02
524.09	1044.38
524.45	1049.40
524.81	1053.86
525.17	1058.50
525.53	1063.52
525.89	1067.52
526.25	1072.43
526.61	1076.93
526.97	1081.86
527.33	1084.76
527.68	1089.55
528.04	1093.86
528.40	1097.60
528.76	1101.67
529.12	1104.86
529.48	1109.79
529.84	1113.21
530.20	1118.21
530.56	1121.48
530.91	1125.86
531.27	1129.76
531.63	1133.71
531.99	1137.55
532.35	1142.07
532.71	1145.95
533.07	1150.55
533.42	1157.52
533.78	1161.95
534.14	1167.17
534.50	1170.60
534.86	1175.33
535.21	1177.93
535.57	1182.19
535.93	1185.86
536.29	1190.26
536.65	1194.00
537.00	1196.90
537.36	1201.43
537.72	1204.36
538.08	1209.33
538.44	1212.14
538.79	1216.21
539.15	1219.10
539.51	1223.14
539.87	1226.36
540.22	1229.69
540.58	1232.86
540.94	1234.38
541.29	1237.40
541.65	1238.69
542.01	1242.36
542.37	1244.86
542.72	1247.71
543.08	1249.98
543.44	1253.45
543.79	1254.10
544.15	1257.50
544.51	1261.21
544.87	1262.90
545.22	1266.26
545.58	1268.17
545.94	1270.74
546.29	1272.21
546.65	1274.93
547.01	1277.17
547.36	1279.43
547.72	1281.79
548.07	1284.64
548.43	1286.45
548.79	1288.21
549.14	1290.98
549.50	1293.21
549.86	1295.14
550.21	1298.10
550.57	1301.02
550.92	1303.12
551.28	1307.79
551.64	1310.26
551.99	1312.81
552.35	1315.79
552.70	1317.76
553.06	1321.17
553.41	1324.33
553.77	1329.90
554.13	1333.62
554.48	1338.24
554.84	1342.24
555.19	1346.17
555.55	1350.43
555.90	1353.76
556.26	1357.86
556.61	1361.69
556.97	1364.55
557.32	1368.90
557.68	1372.60
558.03	1376.52
558.39	1380.67
558.74	1383.55
559.10	1387.62
559.45	1392.36
559.81	1396.69
560.16	1401.10
560.52	1404.86
560.87	1410.21
561.23	1412.62
561.58	1418.45
561.94	1421.17
562.29	1425.57
562.64	1430.10
563.00	1433.88
563.35	1438.83
563.71	1443.43
564.06	1448.67
564.42	1454.33
564.77	1460.10
565.12	1466.05
565.48	1472.83
565.83	1479.40
566.19	1484.67
566.54	1490.00
566.89	1495.19
567.25	1502.17
567.60	1509.60
567.96	1517.69
568.31	1524.76
568.66	1531.36
569.02	1535.69
569.37	1541.83
569.72	1547.43
570.08	1552.36
570.43	1557.45
570.78	1563.26
571.14	1569.26
571.49	1574.86
571.84	1580.81
572.20	1585.24
572.55	1589.31
572.90	1593.33
573.26	1597.07
573.61	1602.40
573.96	1607.07
574.31	1611.21
574.67	1614.60
575.02	1617.88
575.37	1619.81
575.72	1621.48
576.08	1625.14
576.43	1628.90
576.78	1632.69
577.13	1636.17
577.49	1640.40
577.84	1644.64
578.19	1648.69
578.54	1651.81
578.90	1655.88
579.25	1659.19
579.60	1662.57
579.95	1666.07
580.30	1669.29
580.66	1673.29
581.01	1676.93
581.36	1680.45
581.71	1683.50
582.06	1687.43
582.42	1691.14
582.77	1694.17
583.12	1698.10
583.47	1701.60
583.82	1705.17
584.17	1708.38
584.53	1711.98
584.88	1715.19
585.23	1718.26
585.58	1720.24
585.93	1723.02
586.28	1725.02
586.63	1727.76
586.98	1731.36
587.34	1735.38
587.69	1738.21
588.04	1741.29
588.39	1743.79
588.74	1745.10
589.09	1748.00
589.44	1748.69
589.79	1750.02
590.14	1752.86
590.49	1753.76
590.84	1753.98
591.19	1755.40
591.54	1756.88
591.89	1757.62
592.25	1761.64
592.60	1762.45
592.95	1763.86
593.30	1765.98
593.65	1767.79
594.00	1768.29
594.35	1774.57
594.70	1774.62
595.05	1774.74
595.40	1774.38
595.75	1774.50
596.10	1776.74
596.45	1777.79
596.80	1780.43
597.15	1781.19
597.50	1781.05
597.85	1783.05
598.19	1784.57
598.54	1784.10
598.89	1783.98
599.24	1785.14
599.59	1782.55
599.94	1783.79
600.29	1784.43
600.64	1784.33
600.99	1783.00
601.34	1784.21
601.69	1778.45
602.04	1778.07
602.39	1778.55
602.74	1779.74
603.08	1779.76
603.43	1780.10
603.78	1779.19
604.13	1777.50
604.48	1777.00
604.83	1776.67
605.18	1775.81
605.53	1774.79
605.87	1773.88
606.22	1773.40
606.57	1771.86
606.92	1771.14
607.27	1769.93
607.62	1768.98
607.96	1767.62
608.31	1767.60
608.66	1765.40
609.01	1764.05
609.36	1762.45
609.70	1759.86
610.05	1757.12
610.40	1755.67
610.75	1752.71
611.10	1751.52
611.44	1748.38
611.79	1746.02
612.14	1743.86
612.49	1740.62
612.83	1738.98
613.18	1737.05
613.53	1734.74
613.88	1731.52
614.22	1727.98
614.57	1723.79
614.92	1719.95
615.27	1716.67
615.61	1712.76
615.96	1709.48
616.31	1706.07
616.65	1704.12
617.00	1701.76
617.35	1698.26
617.70	1694.90
618.04	1691.50
618.39	1686.86
618.74	1684.83
619.08	1681.24
619.43	1677.50
619.78	1674.69
620.12	1671.05
620.47	1667.26
620.82	1662.62
621.16	1659.36
621.51	1656.67
621.85	1652.98
622.20	1649.98
622.55	1646.21
622.89	1642.98
623.24	1640.36
623.59	1636.81
623.93	1631.93
624.28	1628.10
624.62	1626.29
624.97	1622.86
625.32	1619.21
625.66	1615.10
626.01	1610.48
626.35	1606.90
626.70	1602.83
627.04	1598.45
627.39	1594.00
627.73	1590.55
628.08	1587.98
628.43	1584.38
628.77	1580.38
629.12	1577.14
629.46	1573.24
629.81	1569.36
630.15	1564.67
630.50	1559.31
630.84	1554.48
631.19	1549.10
631.53	1543.17
631.88	1535.81
632.22	1529.17
632.57	1524.74
632.91	1519.76
633.26	1515.43
633.60	1509.57
633.95	1504.17
634.29	1498.71
634.64	1494.74
634.98	1489.26
635.32	1484.33
635.67	1480.19
636.01	1475.21
636.36	1468.98
636.70	1464.21
637.05	1458.93
637.39	1455.48
637.73	1450.31
638.08	1446.83
638.42	1443.26
638.77	1440.21
639.11	1436.05
639.45	1432.05
639.80	1426.12
640.14	1422.40
640.49	1417.38
640.83	1412.50
641.17	1408.71
641.52	1404.21
641.86	1398.45
642.20	1395.21
642.55	1389.07
642.89	1383.07
643.23	1377.07
643.58	1373.31
643.92	1367.05
644.26	1360.88
644.61	1355.00
644.95	1350.67
645.29	1344.17
645.64	1338.88
645.98	1333.05
646.32	1327.21
646.66	1320.88
647.01	1314.69
647.35	1309.31
647.69	1303.67
648.04	1298.71
648.38	1291.93
648.72	1286.05
649.06	1280.38
649.41	1273.24
649.75	1267.05
650.09	1260.88
650.43	1255.14
650.78	1248.57
651.12	1242.57
651.46	1236.48
651.80	1229.57
652.14	1222.40
652.49	1216.29
652.83	1210.02
653.17	1203.19
653.51	1197.60
653.85	1192.12
654.20	1186.36
654.54	1178.26
654.88	1171.67
655.22	1165.17
655.56	1158.45
655.90	1151.79
656.25	1144.88
656.59	1138.57
656.93	1132.45
657.27	1127.17
657.61	1120.67
657.95	1114.45
658.29	1108.14
658.64	1102.38
658.98	1095.88
659.32	1089.17
659.66	1082.48
660.00	1075.64
660.34	1069.19
660.68	1061.90
661.02	1055.05
661.36	1048.21
661.70	1042.98
662.05	1036.76
662.39	1030.57
662.73	1025.38
663.07	1020.19
663.41	1014.14
663.75	1008.07
664.09	1002.52
664.43	995.17
664.77	989.40
665.11	983.10
665.45	976.79
665.79	970.90
666.13	964.69
666.47	959.43
666.81	953.21
667.15	946.93
667.49	941.76
667.83	937.62
668.17	932.02
668.51	927.19
668.85	921.50
669.19	916.79
669.53	910.62
669.87	904.88
670.21	899.05
670.55	892.93
670.89	888.74
671.23	882.88
671.57	878.02
671.91	872.43
672.25	867.12
672.58	862.81
672.92	857.14
673.26	852.00
673.60	846.81
673.94	841.43
674.28	837.10
674.62	831.45
674.96	825.48
675.30	820.74
675.64	815.64
675.97	810.88
676.31	805.19
676.65	800.50
676.99	796.26
677.33	791.05
677.67	787.21
678.01	780.52
678.34	775.83
678.68	771.07
679.02	765.86
679.36	760.95
679.70	755.48
680.04	750.83
680.37	746.24
680.71	740.90
681.05	737.12
681.39	731.55
681.73	727.17
682.06	722.26
682.40	717.67
682.74	713.02
683.08	708.60
683.42	703.43
683.75	698.83
684.09	693.19
684.43	688.43
684.77	683.07
685.10	678.81
685.44	674.19
685.78	669.60
686.12	664.90
686.45	660.19
686.79	655.21
687.13	650.86
687.46	646.12
687.80	642.24
688.14	637.62
688.48	633.83
688.81	629.60
689.15	625.83
689.49	620.93
689.82	616.14
690.16	611.31
690.50	607.07
690.83	602.50
691.17	597.86
691.51	593.76
691.84	590.24
692.18	585.86
692.52	581.86
692.85	577.57
693.19	574.79
693.52	571.24
693.86	567.31
694.20	563.05
694.53	559.79
694.87	555.52
695.21	551.33
695.54	547.17
695.88	542.76
696.21	537.90
696.55	534.52
696.88	531.38
697.22	527.88
697.56	524.38
697.89	520.86
698.23	518.14
698.56	514.48
698.90	510.48
699.23	506.79
699.57	502.86
699.90	499.48
700.24	495.45
700.58	491.74
700.91	489.07
701.25	487.81
701.58	484.57
701.92	481.83
702.25	478.55
702.59	475.31
702.92	472.19
703.26	469.57
703.59	466.26
703.93	464.55
704.26	461.62
704.60	458.55
704.93	455.64
705.26	452.31
705.60	449.79
705.93	446.43
706.27	444.55
706.60	442.26
706.94	440.36
707.27	437.38
707.61	434.98
707.94	432.12
708.27	427.55
708.61	424.36
708.94	421.62
709.28	419.40
709.61	416.74
709.94	414.52
710.28	412.00
710.61	409.88
710.95	405.86
711.28	404.83
711.61	402.79
711.95	400.95
712.28	398.79
712.61	396.19
712.95	395.48
713.28	393.33
713.61	391.21
713.95	388.05
714.28	386.00
714.61	383.69
714.95	381.38
715.28	379.33
715.61	377.40
715.95	375.48
716.28	372.93
716.61	371.38
716.95	369.17
717.28	367.17
717.61	365.19
717.94	363.17
718.28	359.62
718.61	358.10
718.94	355.79
719.27	353.43
719.61	352.07
719.94	349.74
720.27	347.31
720.60	345.38
720.94	343.69
721.27	342.21
721.60	340.88
721.93	339.17
722.27	338.48
722.60	337.17
722.93	335.45
723.26	334.26
723.59	332.48
723.93	331.43
724.26	330.17
724.59	328.90
724.92	327.76
725.25	327.26
725.59	325.55
725.92	324.57
726.25	323.60
726.58	322.26
726.91	320.79
727.24	319.79
727.57	318.64
727.91	317.29
728.24	316.19
728.57	314.60
728.90	313.88
729.23	311.76
729.56	311.62
729.89	310.74
730.22	309.48
730.55	308.19
730.89	306.88
731.22	305.95
731.55	304.55
731.88	303.52
732.21	301.93
732.54	300.64
732.87	299.60
733.20	298.83
733.53	297.64
733.86	296.67
734.19	295.29
734.52	294.50
734.85	294.76
735.18	293.67
735.51	293.52
735.84	292.67
736.17	292.31
736.50	289.93
736.83	291.26
737.16	290.31
737.49	289.67
737.82	288.88
738.15	288.17
738.48	287.33
738.81	286.24
739.14	285.12
739.47	284.21
739.80	283.24
740.13	282.60
740.46	281.50
740.79	280.50
741.12	279.86
741.45	279.12
741.78	277.50
742.11	277.21
742.44	275.88
742.77	274.98
743.10	274.21
743.43	273.71
743.75	270.62
744.08	272.62
744.41	271.90
744.74	270.93
745.07	269.69
745.40	269.38
745.73	269.69
746.06	269.10
746.39	268.86
746.71	268.17
747.04	267.48
747.37	266.95
747.70	266.95
748.03	266.55
748.36	265.74
748.68	265.17
749.01	264.10
749.34	263.62
749.67	263.31
750.00	263.02
750.33	263.74
750.65	263.52
750.98	260.52
751.31	260.02
751.64	259.71
751.97	260.45
752.29	259.76
752.62	258.19
752.95	257.64
753.28	256.90
753.60	256.33
753.93	256.24
754.26	256.05
754.59	254.79
754.91	254.07
755.24	253.48
755.57	252.81
755.90	252.14
756.22	251.52
756.55	250.81
756.88	249.90
757.20	248.26
757.53	247.17
757.86	246.83
758.19	246.55
758.51	246.05
758.84	244.43
759.17	243.86
759.49	243.55
759.82	244.21
760.15	244.05
760.47	243.69
760.80	242.38
761.13	242.26
761.45	241.81
761.78	241.52
762.11	241.52
762.43	241.02
762.76	240.74
763.08	240.48
763.41	240.36
763.74	239.95
764.06	239.71
764.39	239.67
764.71	239.17
765.04	238.31
765.37	237.86
765.69	237.40
766.02	237.17
766.34	236.98
766.67	236.02
767.00	235.90
767.32	236.64
767.65	237.93
767.97	237.10
768.30	237.14
768.62	236.60
768.95	236.02
769.27	235.81
769.60	235.90
769.92	235.26
770.25	234.43
770.57	233.74
770.90	233.38
771.22	232.81
771.55	232.62
771.87	232.62
772.20	232.45
772.52	234.31
772.85	236.33
773.17	236.29
773.50	235.60
773.82	235.29
774.15	233.98
774.47	232.31
774.80	232.19
775.12	231.79
775.45	231.71
775.77	231.31
776.09	231.26
776.42	230.98
776.74	231.76
777.07	231.57
777.39	231.60
777.72	231.12
778.04	231.10
778.36	230.93
778.69	230.90
779.01	230.74
779.33	228.64
779.66	226.36
779.98	225.95
780.31	225.95
780.63	226.74
780.95	227.45
781.28	227.40
781.60	226.86
781.92	227.00
782.25	226.79
782.57	226.88
782.89	226.60
783.22	226.12
783.54	225.45
783.86	225.48
784.19	225.26
784.51	226.10
784.83	225.71
785.16	225.43
