SpectraSuite Data File
++++++++++++++++++++++++++++++++++++
Date: Tue Apr 02 18:45:36 EDT 2013
User: group
Dark Spectrum Present: No
Reference Spectrum Present: No
Number of Sampled Component Spectra: 1
Spectrometers: USB2E7196
Integration Time (usec): 580000 (USB2E7196)
Spectra Averaged: 2 (USB2E7196)
Boxcar Smoothing: 10 (USB2E7196)
Correct for Electrical Dark: No (USB2E7196)
Strobe/Lamp Enabled: No (USB2E7196)
Correct for Detector Non-linearity: No (USB2E7196)
Correct for Stray Light: No (USB2E7196)
Number of Pixels in Processed Spectrum: 2048
>>>>>Begin Processed Spectral Data<<<<<
339.09	0.00
339.48	195.50
339.86	193.50
340.24	199.50
340.63	196.50
341.01	229.00
341.39	200.00
341.78	202.50
342.16	213.50
342.54	204.50
342.93	196.29
343.31	205.95
343.69	206.45
344.07	206.98
344.46	207.31
344.84	207.95
345.22	206.81
345.60	207.31
345.99	207.52
346.37	207.24
346.75	207.36
347.13	207.36
347.52	207.48
347.90	208.29
348.28	208.48
348.66	209.05
349.05	208.60
349.43	209.12
349.81	209.17
350.19	209.31
350.57	209.48
350.96	209.71
351.34	210.12
351.72	210.10
352.10	210.29
352.48	210.21
352.87	210.14
353.25	210.29
353.63	210.45
354.01	210.64
354.39	211.07
354.77	210.95
355.15	211.69
355.54	211.71
355.92	211.10
356.30	211.24
356.68	212.48
357.06	212.60
357.44	212.29
357.82	212.38
358.20	213.10
358.58	213.21
358.97	213.29
359.35	213.64
359.73	214.24
360.11	214.31
360.49	214.76
360.87	214.71
361.25	215.02
361.63	215.38
362.01	215.48
362.39	215.21
362.77	215.64
363.15	215.40
363.53	215.36
363.91	215.43
364.29	215.43
364.67	213.71
365.05	213.81
365.43	214.26
365.81	214.57
366.19	214.88
366.57	215.79
366.95	215.86
367.33	215.52
367.71	215.52
368.09	216.19
368.47	216.19
368.85	216.36
369.23	216.90
369.61	216.40
369.99	217.00
370.37	217.33
370.75	218.33
371.13	218.14
371.51	217.79
371.89	218.19
372.27	218.48
372.65	218.74
373.03	218.90
373.41	218.79
373.78	218.81
374.16	218.00
374.54	217.33
374.92	217.17
375.30	217.21
375.68	216.62
376.06	216.29
376.44	215.98
376.82	216.33
377.19	216.12
377.57	216.02
377.95	215.50
378.33	215.19
378.71	213.98
379.09	214.36
379.47	214.71
379.84	214.36
380.22	214.02
380.60	213.67
380.98	213.38
381.36	213.40
381.73	213.12
382.11	213.40
382.49	213.31
382.87	213.14
383.25	213.29
383.62	215.86
384.00	215.26
384.38	215.62
384.76	215.95
385.13	216.64
385.51	216.62
385.89	216.55
386.27	216.86
386.64	217.38
387.02	216.93
387.40	216.81
387.78	217.24
388.15	217.38
388.53	217.29
388.91	217.45
389.29	217.12
389.66	217.55
390.04	217.02
390.42	217.43
390.79	217.79
391.17	217.57
391.55	215.43
391.92	215.52
392.30	215.33
392.68	214.52
393.05	214.31
393.43	214.43
393.81	214.31
394.18	214.12
394.56	213.98
394.94	214.21
395.31	213.98
395.69	214.19
396.06	214.31
396.44	214.48
396.82	214.29
397.19	215.38
397.57	214.98
397.95	215.71
398.32	215.14
398.70	215.12
399.07	215.50
399.45	215.26
399.82	215.48
400.20	215.40
400.58	215.67
400.95	214.74
401.33	214.98
401.70	216.50
402.08	216.38
402.45	216.26
402.83	216.95
403.20	217.26
403.58	217.36
403.95	217.88
404.33	218.33
404.71	218.83
405.08	220.05
405.46	220.26
405.83	220.48
406.21	220.81
406.58	221.12
406.96	221.50
407.33	222.24
407.70	222.86
408.08	224.93
408.45	225.64
408.83	226.79
409.20	227.43
409.58	227.14
409.95	228.26
410.33	229.19
410.70	229.52
411.08	231.02
411.45	231.86
411.82	232.71
412.20	234.17
412.57	236.29
412.95	235.88
413.32	237.86
413.69	238.93
414.07	240.52
414.44	242.52
414.82	244.38
415.19	246.60
415.56	248.71
415.94	250.07
416.31	252.79
416.68	255.71
417.06	258.88
417.43	261.93
417.81	265.36
418.18	269.05
418.55	272.95
418.93	276.38
419.30	280.69
419.67	284.76
420.04	289.02
420.42	293.31
420.79	300.10
421.16	305.62
421.54	312.95
421.91	319.10
422.28	324.76
422.66	331.40
423.03	339.14
423.40	346.05
423.77	353.10
424.15	359.88
424.52	367.62
424.89	376.52
425.26	384.67
425.64	392.26
426.01	400.64
426.38	409.29
426.75	418.50
427.13	427.74
427.50	437.64
427.87	447.62
428.24	457.57
428.61	466.36
428.99	477.36
429.36	487.69
429.73	498.74
430.10	510.43
430.47	522.10
430.85	532.50
431.22	545.14
431.59	559.71
431.96	572.88
432.33	586.38
432.70	599.48
433.08	615.43
433.45	630.76
433.82	645.60
434.19	662.43
434.56	679.93
434.93	695.57
435.30	710.93
435.68	728.36
436.05	745.36
436.42	762.26
436.79	777.93
437.16	794.95
437.53	813.14
437.90	830.79
438.27	848.31
438.64	866.57
439.01	883.57
439.38	897.79
439.75	911.81
440.13	928.64
440.50	944.19
440.87	956.29
441.24	969.26
441.61	984.21
441.98	994.12
442.35	1005.26
442.72	1018.14
443.09	1031.76
443.46	1039.45
443.83	1044.48
444.20	1049.60
444.57	1055.52
444.94	1058.29
445.31	1061.38
445.68	1067.26
446.05	1069.05
446.42	1068.07
446.79	1066.71
447.16	1064.45
447.53	1063.90
447.90	1057.60
448.27	1051.14
448.64	1042.86
449.01	1036.31
449.37	1025.33
449.74	1015.12
450.11	1004.43
450.48	989.57
450.85	974.21
451.22	961.69
451.59	950.40
451.96	938.31
452.33	922.79
452.70	908.69
453.07	891.62
453.43	871.86
453.80	855.57
454.17	839.29
454.54	824.07
454.91	808.02
455.28	792.00
455.65	777.36
456.02	766.14
456.38	753.74
456.75	738.26
457.12	724.93
457.49	712.52
457.86	698.05
458.23	688.57
458.59	676.67
458.96	664.69
459.33	653.90
459.70	643.38
460.07	635.26
460.43	625.76
460.80	617.64
461.17	610.64
461.54	602.29
461.91	594.57
462.27	586.00
462.64	578.98
463.01	572.00
463.38	565.14
463.74	554.31
464.11	547.67
464.48	542.71
464.85	535.83
465.21	531.24
465.58	526.10
465.95	519.07
466.32	514.38
466.68	509.29
467.05	504.17
467.42	499.64
467.78	494.33
468.15	489.81
468.52	486.14
468.88	480.64
469.25	475.83
469.62	472.43
469.98	468.81
470.35	465.69
470.72	462.12
471.08	457.38
471.45	454.62
471.82	452.12
472.18	448.48
472.55	446.40
472.92	442.69
473.28	440.29
473.65	437.79
474.02	434.55
474.38	432.36
474.75	430.26
475.11	427.83
475.48	426.19
475.85	424.29
476.21	422.33
476.58	421.12
476.94	419.79
477.31	418.57
477.67	417.36
478.04	416.21
478.41	415.40
478.77	417.02
479.14	416.07
479.50	415.48
479.87	415.57
480.23	415.12
480.60	414.79
480.96	414.50
481.33	415.26
481.69	415.74
482.06	415.93
482.42	416.17
482.79	416.38
483.15	416.62
483.52	417.45
483.88	417.57
484.25	418.10
484.61	419.14
484.98	419.95
485.34	422.02
485.71	423.48
486.07	424.81
486.44	424.55
486.80	425.98
487.17	427.14
487.53	429.19
487.90	431.67
488.26	434.62
488.62	437.12
488.99	438.50
489.35	441.31
489.72	444.17
490.08	446.71
490.44	449.40
490.81	452.69
491.17	455.45
491.54	459.17
491.90	462.93
492.26	466.81
492.63	470.60
492.99	473.79
493.36	477.45
493.72	481.88
494.08	486.38
494.45	491.36
494.81	496.40
495.17	500.64
495.54	505.86
495.90	510.24
496.26	515.05
496.63	521.05
496.99	526.29
497.35	531.98
497.72	538.62
498.08	544.76
498.44	551.17
498.80	558.07
499.17	564.26
499.53	570.40
499.89	577.07
500.26	583.45
500.62	590.40
500.98	597.76
501.34	604.45
501.71	611.86
502.07	618.76
502.43	625.26
502.79	632.36
503.16	639.33
503.52	646.83
503.88	654.14
504.24	661.07
504.60	668.48
504.97	675.81
505.33	682.83
505.69	691.38
506.05	698.79
506.41	706.60
506.78	714.24
507.14	721.69
507.50	729.10
507.86	737.17
508.22	745.14
508.59	752.14
508.95	760.10
509.31	768.93
509.67	777.00
510.03	784.98
510.39	792.69
510.75	800.12
511.12	807.69
511.48	815.57
511.84	822.88
512.20	830.79
512.56	838.64
512.92	846.43
513.28	853.45
513.64	860.55
514.00	867.57
514.37	875.21
514.73	882.67
515.09	890.38
515.45	897.17
515.81	903.12
516.17	910.55
516.53	916.43
516.89	921.74
517.25	928.07
517.61	935.07
517.97	941.83
518.33	948.50
518.69	955.17
519.05	961.55
519.41	968.81
519.77	975.55
520.13	981.31
520.49	986.71
520.85	992.48
521.21	998.88
521.57	1005.36
521.93	1009.48
522.29	1015.02
522.65	1019.17
523.01	1025.02
523.37	1030.45
523.73	1035.21
524.09	1041.12
524.45	1046.29
524.81	1050.81
525.17	1055.26
525.53	1059.19
525.89	1063.88
526.25	1068.31
526.61	1072.48
526.97	1075.95
527.33	1080.05
527.68	1086.57
528.04	1091.05
528.40	1094.76
528.76	1098.10
529.12	1101.38
529.48	1107.02
529.84	1110.90
530.20	1116.02
530.56	1119.71
530.91	1124.05
531.27	1128.21
531.63	1132.48
531.99	1136.24
532.35	1140.26
532.71	1143.95
533.07	1149.29
533.42	1155.33
533.78	1159.60
534.14	1163.90
534.50	1168.00
534.86	1172.26
535.21	1173.60
535.57	1177.33
535.93	1180.67
536.29	1186.17
536.65	1190.48
537.00	1194.33
537.36	1198.24
537.72	1200.83
538.08	1204.60
538.44	1208.31
538.79	1211.83
539.15	1214.10
539.51	1217.14
539.87	1220.83
540.22	1224.83
540.58	1227.24
540.94	1228.86
541.29	1231.43
541.65	1233.43
542.01	1237.33
542.37	1239.48
542.72	1242.45
543.08	1245.07
543.44	1248.45
543.79	1248.38
544.15	1250.83
544.51	1253.90
544.87	1256.62
545.22	1259.55
545.58	1262.14
545.94	1264.69
546.29	1267.79
546.65	1270.76
547.01	1272.76
547.36	1275.50
547.72	1277.17
548.07	1279.67
548.43	1281.74
548.79	1283.93
549.14	1286.26
549.50	1288.21
549.86	1290.26
550.21	1292.83
550.57	1296.43
550.92	1298.48
551.28	1302.95
551.64	1306.02
551.99	1308.31
552.35	1310.12
552.70	1312.83
553.06	1316.90
553.41	1319.86
553.77	1324.19
554.13	1328.12
554.48	1333.40
554.84	1337.60
555.19	1342.14
555.55	1347.55
555.90	1351.29
556.26	1355.76
556.61	1360.60
556.97	1364.33
557.32	1367.93
557.68	1371.33
558.03	1374.40
558.39	1378.19
558.74	1381.86
559.10	1385.07
559.45	1389.26
559.81	1394.88
560.16	1398.57
560.52	1401.00
560.87	1406.29
561.23	1408.57
561.58	1413.76
561.94	1416.45
562.29	1420.21
562.64	1424.67
563.00	1427.38
563.35	1431.93
563.71	1436.88
564.06	1441.33
564.42	1446.55
564.77	1452.95
565.12	1459.69
565.48	1467.17
565.83	1473.64
566.19	1479.07
566.54	1484.07
566.89	1488.62
567.25	1493.95
567.60	1501.79
567.96	1510.50
568.31	1515.45
568.66	1521.98
569.02	1526.14
569.37	1531.52
569.72	1537.19
570.08	1542.07
570.43	1547.62
570.78	1553.98
571.14	1559.83
571.49	1565.10
571.84	1570.26
572.20	1574.31
572.55	1578.69
572.90	1581.21
573.26	1586.19
573.61	1589.67
573.96	1594.62
574.31	1599.88
574.67	1604.24
575.02	1607.29
575.37	1608.67
575.72	1611.83
576.08	1615.52
576.43	1619.36
576.78	1624.00
577.13	1627.36
577.49	1630.90
577.84	1635.07
578.19	1638.24
578.54	1641.86
578.90	1645.79
579.25	1649.21
579.60	1652.62
579.95	1655.26
580.30	1659.29
580.66	1662.90
581.01	1667.88
581.36	1670.64
581.71	1674.31
582.06	1678.21
582.42	1682.33
582.77	1685.74
583.12	1689.95
583.47	1693.52
583.82	1697.45
584.17	1700.50
584.53	1704.62
584.88	1708.45
585.23	1711.86
585.58	1715.00
585.93	1716.79
586.28	1720.14
586.63	1722.88
586.98	1726.57
587.34	1731.57
587.69	1733.60
588.04	1735.90
588.39	1738.14
588.74	1741.43
589.09	1743.14
589.44	1744.07
589.79	1744.88
590.14	1746.67
590.49	1747.95
590.84	1749.52
591.19	1751.50
591.54	1753.36
591.89	1753.69
592.25	1756.88
592.60	1757.71
592.95	1758.21
593.30	1759.98
593.65	1761.21
594.00	1762.38
594.35	1768.69
594.70	1767.76
595.05	1769.38
595.40	1770.12
595.75	1771.93
596.10	1772.86
596.45	1774.93
596.80	1776.19
597.15	1778.31
597.50	1779.93
597.85	1782.02
598.19	1782.52
598.54	1783.00
598.89	1783.81
599.24	1785.67
599.59	1784.12
599.94	1784.57
600.29	1784.86
600.64	1784.74
600.99	1785.07
601.34	1785.69
601.69	1780.38
602.04	1780.21
602.39	1780.52
602.74	1780.10
603.08	1778.31
603.43	1779.50
603.78	1777.76
604.13	1777.64
604.48	1776.31
604.83	1776.40
605.18	1774.79
605.53	1774.24
605.87	1773.64
606.22	1772.29
606.57	1770.45
606.92	1770.12
607.27	1769.57
607.62	1769.48
607.96	1769.62
608.31	1769.60
608.66	1768.26
609.01	1766.62
609.36	1767.02
609.70	1765.48
610.05	1763.64
610.40	1763.31
610.75	1760.21
611.10	1759.17
611.44	1757.29
611.79	1755.50
612.14	1752.48
612.49	1750.00
612.83	1747.98
613.18	1745.05
613.53	1742.00
613.88	1739.38
614.22	1735.57
614.57	1730.95
614.92	1726.93
615.27	1723.19
615.61	1718.24
615.96	1714.31
616.31	1711.33
616.65	1707.33
617.00	1704.64
617.35	1701.90
617.70	1698.76
618.04	1694.81
618.39	1691.26
618.74	1688.02
619.08	1683.48
619.43	1679.79
619.78	1677.10
620.12	1672.71
620.47	1668.76
620.82	1664.81
621.16	1660.36
621.51	1658.36
621.85	1655.67
622.20	1652.31
622.55	1648.17
622.89	1644.21
623.24	1641.83
623.59	1638.21
623.93	1634.55
624.28	1629.81
624.62	1628.48
624.97	1624.86
625.32	1621.67
625.66	1617.95
626.01	1613.50
626.35	1610.76
626.70	1606.64
627.04	1602.40
627.39	1598.79
627.73	1595.67
628.08	1593.31
628.43	1589.48
628.77	1584.86
629.12	1581.31
629.46	1577.95
629.81	1574.31
630.15	1569.86
630.50	1564.14
630.84	1558.74
631.19	1553.95
631.53	1549.26
631.88	1541.17
632.22	1534.45
632.57	1530.60
632.91	1525.05
633.26	1519.93
633.60	1514.81
633.95	1510.29
634.29	1505.02
634.64	1501.05
634.98	1496.21
635.32	1491.93
635.67	1488.07
636.01	1483.69
636.36	1478.71
636.70	1474.00
637.05	1468.93
637.39	1465.60
637.73	1461.93
638.08	1458.81
638.42	1454.57
638.77	1450.71
639.11	1446.52
639.45	1442.71
639.80	1436.33
640.14	1431.79
640.49	1427.31
640.83	1422.38
641.17	1417.95
641.52	1413.55
641.86	1408.43
642.20	1403.83
642.55	1397.76
642.89	1392.26
643.23	1386.67
643.58	1382.12
643.92	1376.17
644.26	1371.31
644.61	1365.88
644.95	1359.69
645.29	1353.98
645.64	1348.74
645.98	1343.21
646.32	1338.79
646.66	1333.02
647.01	1327.79
647.35	1322.69
647.69	1317.05
648.04	1311.79
648.38	1306.43
648.72	1300.60
649.06	1295.07
649.41	1288.43
649.75	1282.10
650.09	1275.86
650.43	1268.83
650.78	1261.64
651.12	1255.29
651.46	1249.02
651.80	1242.29
652.14	1236.83
652.49	1230.74
652.83	1223.95
653.17	1217.26
653.51	1210.71
653.85	1205.62
654.20	1200.40
654.54	1193.19
654.88	1187.19
655.22	1182.17
655.56	1175.12
655.90	1168.86
656.25	1162.31
656.59	1156.05
656.93	1150.14
657.27	1144.81
657.61	1139.24
657.95	1134.29
658.29	1129.24
658.64	1123.12
658.98	1116.60
659.32	1109.90
659.66	1103.50
660.00	1097.29
660.34	1091.43
660.68	1085.36
661.02	1078.31
661.36	1071.38
661.70	1066.00
662.05	1059.76
662.39	1053.26
662.73	1048.12
663.07	1042.95
663.41	1036.79
663.75	1031.43
664.09	1025.79
664.43	1019.95
664.77	1013.95
665.11	1006.98
665.45	1000.83
665.79	995.12
666.13	989.43
666.47	984.14
666.81	978.69
667.15	972.60
667.49	967.07
667.83	961.76
668.17	956.17
668.51	950.86
668.85	945.57
669.19	941.38
669.53	935.52
669.87	929.76
670.21	923.40
670.55	917.31
670.89	912.83
671.23	907.50
671.57	901.83
671.91	897.00
672.25	892.52
672.58	887.38
672.92	881.60
673.26	876.60
673.60	871.02
673.94	865.64
674.28	861.69
674.62	857.21
674.96	851.40
675.30	846.81
675.64	841.43
675.97	836.45
676.31	830.19
676.65	824.60
676.99	820.48
677.33	815.24
677.67	810.86
678.01	804.48
678.34	799.81
678.68	795.88
679.02	790.33
679.36	784.79
679.70	778.98
680.04	774.14
680.37	769.48
680.71	764.69
681.05	759.74
681.39	754.26
681.73	748.88
682.06	744.33
682.40	739.76
682.74	735.36
683.08	731.19
683.42	726.29
683.75	721.98
684.09	716.26
684.43	711.45
684.77	706.33
685.10	701.67
685.44	697.10
685.78	692.02
686.12	687.62
686.45	683.45
686.79	678.83
687.13	674.60
687.46	669.76
687.80	665.50
688.14	660.86
688.48	656.62
688.81	652.07
689.15	648.05
689.49	643.21
689.82	638.98
690.16	633.50
690.50	629.19
690.83	624.74
691.17	619.81
691.51	616.02
691.84	612.21
692.18	608.33
692.52	604.12
692.85	600.10
693.19	596.88
693.52	592.19
693.86	588.14
694.20	584.24
694.53	580.10
694.87	575.79
695.21	571.57
695.54	567.21
695.88	562.43
696.21	557.67
696.55	553.40
696.88	549.57
697.22	545.69
697.56	542.38
697.89	538.71
698.23	535.43
698.56	531.45
698.90	527.93
699.23	524.05
699.57	520.29
699.90	516.10
700.24	511.81
700.58	508.33
700.91	505.57
701.25	503.76
701.58	500.83
701.92	498.07
702.25	495.31
702.59	491.60
702.92	489.10
703.26	486.10
703.59	483.36
703.93	481.69
704.26	479.12
704.60	476.00
704.93	472.45
705.26	469.07
705.60	466.60
705.93	463.12
706.27	460.86
706.60	458.10
706.94	456.26
707.27	453.00
707.61	451.14
707.94	447.90
708.27	443.19
708.61	440.26
708.94	437.33
709.28	434.40
709.61	431.81
709.94	429.02
710.28	426.50
710.61	423.57
710.95	419.19
711.28	417.76
711.61	415.36
711.95	413.29
712.28	411.31
712.61	408.45
712.95	407.26
713.28	405.14
713.61	402.36
713.95	399.48
714.28	397.93
714.61	395.10
714.95	393.02
715.28	390.83
715.61	388.14
715.95	386.29
716.28	384.07
716.61	382.50
716.95	380.14
717.28	378.12
717.61	375.90
717.94	373.67
718.28	370.40
718.61	367.93
718.94	365.76
719.27	363.50
719.61	362.02
719.94	359.50
720.27	356.81
720.60	354.76
720.94	352.21
721.27	350.10
721.60	348.43
721.93	346.64
722.27	345.74
722.60	344.76
722.93	342.62
723.26	341.05
723.59	338.93
723.93	337.62
724.26	336.14
724.59	334.69
724.92	333.60
725.25	332.64
725.59	331.48
725.92	330.10
726.25	328.69
726.58	327.31
726.91	325.93
727.24	324.93
727.57	323.71
727.91	322.52
728.24	321.60
728.57	320.00
728.90	319.26
729.23	317.43
729.56	317.05
729.89	315.76
730.22	314.26
730.55	313.26
730.89	312.31
731.22	311.00
731.55	310.02
731.88	309.02
732.21	307.74
732.54	306.33
732.87	305.62
733.20	304.71
733.53	303.62
733.86	302.55
734.19	301.12
734.52	300.52
734.85	301.14
735.18	299.81
735.51	299.90
735.84	298.50
736.17	298.12
736.50	296.33
736.83	297.69
737.16	297.05
737.49	296.33
737.82	294.81
738.15	294.40
738.48	293.62
738.81	292.69
739.14	291.40
739.47	290.69
739.80	289.38
740.13	288.64
740.46	287.38
740.79	286.52
741.12	285.79
741.45	284.90
741.78	283.02
742.11	282.86
742.44	281.24
742.77	281.07
743.10	279.93
743.43	278.76
743.75	275.83
744.08	277.57
744.41	276.43
744.74	275.93
745.07	274.45
745.40	274.02
745.73	274.12
746.06	273.36
746.39	272.74
746.71	272.02
747.04	271.10
747.37	270.64
747.70	269.93
748.03	269.38
748.36	268.86
748.68	268.07
749.01	266.76
749.34	266.50
749.67	265.79
750.00	265.38
750.33	266.48
750.65	266.38
750.98	263.40
751.31	263.05
751.64	262.64
751.97	263.71
752.29	262.93
752.62	261.33
752.95	260.88
753.28	259.98
753.60	259.31
753.93	259.38
754.26	258.93
754.59	258.05
754.91	257.10
755.24	256.45
755.57	255.79
755.90	255.07
756.22	254.29
756.55	253.33
756.88	252.33
757.20	250.52
757.53	249.24
757.86	248.52
758.19	248.17
758.51	247.69
758.84	245.74
759.17	245.26
759.49	244.90
759.82	245.40
760.15	245.40
760.47	244.88
760.80	243.79
761.13	243.69
761.45	243.26
761.78	243.00
762.11	242.60
762.43	241.95
762.76	241.55
763.08	241.24
763.41	240.86
763.74	240.45
764.06	239.93
764.39	239.81
764.71	239.62
765.04	239.07
765.37	238.45
765.69	238.14
766.02	237.62
766.34	237.29
766.67	236.19
767.00	236.19
767.32	236.98
767.65	238.14
767.97	237.71
768.30	237.45
768.62	237.43
768.95	236.90
769.27	236.88
769.60	237.10
769.92	236.64
770.25	236.12
770.57	235.88
770.90	235.45
771.22	234.93
771.55	234.90
771.87	234.69
772.20	234.36
772.52	235.83
772.85	238.29
773.17	238.14
773.50	237.95
773.82	237.19
774.15	236.07
774.47	234.52
774.80	234.05
775.12	234.10
775.45	233.64
775.77	233.64
776.09	233.60
776.42	233.33
776.74	233.64
777.07	233.55
777.39	233.31
777.72	232.86
778.04	233.05
778.36	232.38
778.69	232.21
779.01	232.50
779.33	230.40
779.66	227.69
779.98	227.24
780.31	227.07
780.63	227.60
780.95	227.95
781.28	227.83
781.60	227.60
781.92	227.52
782.25	227.33
782.57	227.19
782.89	226.67
783.22	226.33
783.54	225.88
783.86	225.88
784.19	225.81
784.51	226.45
784.83	225.88
