SpectraSuite Data File
++++++++++++++++++++++++++++++++++++
Date: Tue Apr 02 18:45:04 EDT 2013
User: group
Dark Spectrum Present: No
Reference Spectrum Present: No
Number of Sampled Component Spectra: 1
Spectrometers: USB2E7196
Integration Time (usec): 580000 (USB2E7196)
Spectra Averaged: 2 (USB2E7196)
Boxcar Smoothing: 10 (USB2E7196)
Correct for Electrical Dark: No (USB2E7196)
Strobe/Lamp Enabled: No (USB2E7196)
Correct for Detector Non-linearity: No (USB2E7196)
Correct for Stray Light: No (USB2E7196)
Number of Pixels in Processed Spectrum: 2048
>>>>>Begin Processed Spectral Data<<<<<
339.09	0.00
339.48	193.50
339.86	194.50
340.24	197.00
340.63	202.50
341.01	230.50
341.39	201.50
341.78	205.00
342.16	212.50
342.54	204.00
342.93	197.55
343.31	207.12
343.69	207.48
344.07	207.83
344.46	208.57
344.84	208.95
345.22	207.79
345.60	208.21
345.99	208.69
346.37	208.57
346.75	208.57
347.13	208.95
347.52	208.95
347.90	209.55
348.28	209.38
348.66	209.69
349.05	209.21
349.43	209.33
349.81	209.45
350.19	209.33
350.57	209.67
350.96	209.81
351.34	210.07
351.72	210.45
352.10	210.74
352.48	210.69
352.87	210.52
353.25	210.48
353.63	210.57
354.01	210.29
354.39	210.24
354.77	210.48
355.15	211.02
355.54	210.86
355.92	210.36
356.30	210.64
356.68	211.67
357.06	212.00
357.44	211.79
357.82	211.71
358.20	212.79
358.58	212.79
358.97	213.00
359.35	213.52
359.73	213.83
360.11	213.88
360.49	213.95
360.87	214.07
361.25	214.57
361.63	215.14
362.01	215.26
362.39	215.36
362.77	215.40
363.15	214.86
363.53	215.17
363.91	215.33
364.29	215.29
364.67	213.48
365.05	213.40
365.43	213.93
365.81	214.38
366.19	214.55
366.57	215.19
366.95	215.26
367.33	215.17
367.71	215.10
368.09	215.43
368.47	215.31
368.85	215.24
369.23	215.64
369.61	215.05
369.99	215.83
370.37	216.14
370.75	217.29
371.13	217.24
371.51	216.79
371.89	216.88
372.27	217.07
372.65	217.57
373.03	217.67
373.41	217.38
373.78	217.26
374.16	216.45
374.54	215.76
374.92	215.43
375.30	215.31
375.68	214.93
376.06	215.17
376.44	215.17
376.82	215.33
377.19	215.10
377.57	215.02
377.95	214.10
378.33	213.83
378.71	212.62
379.09	213.07
379.47	213.36
379.84	213.33
380.22	213.26
380.60	212.69
380.98	212.64
381.36	212.60
381.73	212.05
382.11	212.31
382.49	212.60
382.87	212.57
383.25	212.45
383.62	215.10
384.00	214.71
384.38	214.62
384.76	214.93
385.13	215.74
385.51	215.90
385.89	215.76
386.27	215.90
386.64	216.45
387.02	216.12
387.40	216.02
387.78	216.17
388.15	216.29
388.53	216.33
388.91	216.36
389.29	216.14
389.66	216.76
390.04	216.31
390.42	216.43
390.79	216.33
391.17	216.43
391.55	214.10
391.92	214.12
392.30	214.33
392.68	213.93
393.05	213.67
393.43	213.45
393.81	213.79
394.18	213.43
394.56	213.26
394.94	213.76
395.31	213.52
395.69	214.12
396.06	214.31
396.44	214.67
396.82	214.33
397.19	215.67
397.57	215.19
397.95	215.43
398.32	215.02
398.70	215.33
399.07	215.69
399.45	215.40
399.82	215.17
400.20	215.21
400.58	215.33
400.95	214.52
401.33	215.07
401.70	216.52
402.08	216.90
402.45	217.00
402.83	217.21
403.20	217.57
403.58	217.33
403.95	217.90
404.33	218.21
404.71	218.74
405.08	219.76
405.46	220.36
405.83	220.90
406.21	221.19
406.58	221.43
406.96	221.60
407.33	222.52
407.70	223.38
408.08	225.26
408.45	226.19
408.83	227.24
409.20	227.60
409.58	226.93
409.95	227.90
410.33	228.98
410.70	229.33
411.08	230.48
411.45	231.57
411.82	232.43
412.20	233.76
412.57	236.14
412.95	235.71
413.32	237.40
413.69	238.86
414.07	240.62
414.44	242.86
414.82	244.86
415.19	247.17
415.56	249.43
415.94	250.74
416.31	253.38
416.68	256.19
417.06	259.33
417.43	262.90
417.81	266.21
418.18	269.81
418.55	273.60
418.93	277.62
419.30	281.76
419.67	285.74
420.04	290.17
420.42	294.26
420.79	301.67
421.16	307.38
421.54	314.26
421.91	320.98
422.28	327.02
422.66	333.55
423.03	341.52
423.40	348.33
423.77	355.36
424.15	362.60
424.52	370.12
424.89	378.55
425.26	386.19
425.64	393.64
426.01	401.29
426.38	410.10
426.75	419.40
427.13	428.57
427.50	438.57
427.87	448.40
428.24	458.52
428.61	466.74
428.99	477.76
429.36	488.10
429.73	498.71
430.10	509.69
430.47	521.45
430.85	532.00
431.22	544.45
431.59	559.48
431.96	572.21
432.33	585.74
432.70	599.60
433.08	615.88
433.45	631.48
433.82	646.64
434.19	663.74
434.56	681.21
434.93	696.98
435.30	712.76
435.68	730.67
436.05	747.52
436.42	764.33
436.79	779.83
437.16	797.17
437.53	814.74
437.90	832.74
438.27	849.71
438.64	867.19
439.01	884.55
439.38	897.79
439.75	912.76
440.13	929.95
440.50	945.19
440.87	957.69
441.24	971.00
441.61	986.17
441.98	997.17
442.35	1007.95
442.72	1021.17
443.09	1034.17
443.46	1041.43
443.83	1046.71
444.20	1052.14
444.57	1057.67
444.94	1060.36
445.31	1064.33
445.68	1070.19
446.05	1072.52
446.42	1071.62
446.79	1070.12
447.16	1068.29
447.53	1067.21
447.90	1061.17
448.27	1054.98
448.64	1046.33
449.01	1040.07
449.37	1028.79
449.74	1017.14
450.11	1006.36
450.48	991.12
450.85	975.81
451.22	963.48
451.59	951.88
451.96	940.00
452.33	925.33
452.70	910.98
453.07	893.55
453.43	873.21
453.80	856.79
454.17	841.10
454.54	825.69
454.91	810.05
455.28	793.52
455.65	778.55
456.02	767.38
456.38	754.93
456.75	739.83
457.12	726.98
457.49	714.67
457.86	700.50
458.23	690.74
458.59	678.71
458.96	666.62
459.33	655.48
459.70	644.98
460.07	636.38
460.43	627.12
460.80	618.95
461.17	612.57
461.54	604.00
461.91	595.60
462.27	587.43
462.64	580.52
463.01	573.50
463.38	567.17
463.74	556.33
464.11	549.88
464.48	543.62
464.85	537.02
465.21	532.52
465.58	527.48
465.95	520.36
466.32	515.95
466.68	510.76
467.05	505.95
467.42	500.50
467.78	495.55
468.15	490.81
468.52	486.60
468.88	480.83
469.25	476.33
469.62	473.50
469.98	469.64
470.35	466.12
470.72	462.45
471.08	457.48
471.45	454.79
471.82	452.12
472.18	448.69
472.55	446.31
472.92	442.74
473.28	439.90
473.65	437.48
474.02	434.29
474.38	432.43
474.75	430.60
475.11	428.38
475.48	426.57
475.85	425.07
476.21	423.33
476.58	422.21
476.94	421.29
477.31	420.14
477.67	418.81
478.04	417.83
478.41	417.07
478.77	418.76
479.14	417.74
479.50	416.95
479.87	416.40
480.23	415.88
480.60	415.76
480.96	415.76
481.33	416.45
481.69	416.60
482.06	416.69
482.42	417.24
482.79	417.74
483.15	417.93
483.52	418.64
483.88	419.55
484.25	419.79
484.61	420.40
484.98	420.74
485.34	422.83
485.71	424.17
486.07	425.62
486.44	424.88
486.80	426.19
487.17	427.52
487.53	430.36
487.90	432.67
488.26	435.33
488.62	437.67
488.99	439.90
489.35	442.50
489.72	444.95
490.08	447.21
490.44	450.10
490.81	453.48
491.17	456.55
491.54	459.76
491.90	463.81
492.26	467.48
492.63	470.93
492.99	474.12
493.36	478.05
493.72	482.02
494.08	486.21
494.45	491.00
494.81	496.07
495.17	500.21
495.54	505.60
495.90	510.40
496.26	515.52
496.63	520.36
496.99	525.98
497.35	531.90
497.72	538.26
498.08	544.02
498.44	550.10
498.80	556.40
499.17	562.64
499.53	568.62
499.89	575.36
500.26	582.10
500.62	588.64
500.98	595.57
501.34	602.60
501.71	610.45
502.07	617.57
502.43	624.02
502.79	631.31
503.16	637.86
503.52	645.17
503.88	652.02
504.24	659.93
504.60	667.60
504.97	675.05
505.33	681.93
505.69	690.60
506.05	697.93
506.41	705.36
506.78	713.02
507.14	720.60
507.50	728.21
507.86	736.17
508.22	744.40
508.59	751.43
508.95	759.62
509.31	768.43
509.67	776.10
510.03	784.05
510.39	791.74
510.75	799.81
511.12	807.10
511.48	815.05
511.84	822.21
512.20	829.29
512.56	836.90
512.92	844.60
513.28	852.02
513.64	859.55
514.00	866.76
514.37	874.36
514.73	882.07
515.09	889.79
515.45	896.38
515.81	903.17
516.17	910.74
516.53	916.64
516.89	921.64
517.25	927.86
517.61	935.50
517.97	941.76
518.33	948.02
518.69	954.17
519.05	961.43
519.41	967.86
519.77	975.55
520.13	981.60
520.49	987.33
520.85	992.48
521.21	998.95
521.57	1005.05
521.93	1009.98
522.29	1015.26
522.65	1019.31
523.01	1025.76
523.37	1030.55
523.73	1035.95
524.09	1040.90
524.45	1046.05
524.81	1051.40
525.17	1055.43
525.53	1059.74
525.89	1063.71
526.25	1069.55
526.61	1072.83
526.97	1077.14
527.33	1080.45
527.68	1086.55
528.04	1090.55
528.40	1094.14
528.76	1097.55
529.12	1101.48
529.48	1106.93
529.84	1110.81
530.20	1115.88
530.56	1119.24
530.91	1124.50
531.27	1128.14
531.63	1133.29
531.99	1137.36
532.35	1140.69
532.71	1144.33
533.07	1149.40
533.42	1156.40
533.78	1159.69
534.14	1164.12
534.50	1167.76
534.86	1172.19
535.21	1174.26
535.57	1179.48
535.93	1183.76
536.29	1188.88
536.65	1192.71
537.00	1195.50
537.36	1199.57
537.72	1203.10
538.08	1207.50
538.44	1210.12
538.79	1213.69
539.15	1215.76
539.51	1219.26
539.87	1222.79
540.22	1226.36
540.58	1229.67
540.94	1230.10
541.29	1233.31
541.65	1235.64
542.01	1240.10
542.37	1242.98
542.72	1245.38
543.08	1246.26
543.44	1249.36
543.79	1250.19
544.15	1253.69
544.51	1256.60
544.87	1259.33
545.22	1262.29
545.58	1264.57
545.94	1267.33
546.29	1269.40
546.65	1272.57
547.01	1274.33
547.36	1277.67
547.72	1279.93
548.07	1282.07
548.43	1284.83
548.79	1286.55
549.14	1289.02
549.50	1290.93
549.86	1292.52
550.21	1295.60
550.57	1300.07
550.92	1302.38
551.28	1306.76
551.64	1309.45
551.99	1312.21
552.35	1314.64
552.70	1317.17
553.06	1320.48
553.41	1323.45
553.77	1328.21
554.13	1331.86
554.48	1336.83
554.84	1341.10
555.19	1344.90
555.55	1349.24
555.90	1353.26
556.26	1357.12
556.61	1361.05
556.97	1364.26
557.32	1368.07
557.68	1372.38
558.03	1375.50
558.39	1379.36
558.74	1382.83
559.10	1385.95
559.45	1389.74
559.81	1394.60
560.16	1398.64
560.52	1402.81
560.87	1407.24
561.23	1409.90
561.58	1415.48
561.94	1419.07
562.29	1422.31
562.64	1427.45
563.00	1431.45
563.35	1435.76
563.71	1440.86
564.06	1446.36
564.42	1451.55
564.77	1457.36
565.12	1463.02
565.48	1469.76
565.83	1475.88
566.19	1481.21
566.54	1486.45
566.89	1491.60
567.25	1497.19
567.60	1504.67
567.96	1512.00
568.31	1519.12
568.66	1526.86
569.02	1531.36
569.37	1536.26
569.72	1542.57
570.08	1547.79
570.43	1552.33
570.78	1558.26
571.14	1564.36
571.49	1569.14
571.84	1574.21
572.20	1578.67
572.55	1583.12
572.90	1586.88
573.26	1591.38
573.61	1595.26
573.96	1600.48
574.31	1605.52
574.67	1610.07
575.02	1612.60
575.37	1614.10
575.72	1616.17
576.08	1619.38
576.43	1623.31
576.78	1627.07
577.13	1630.64
577.49	1634.60
577.84	1639.67
578.19	1643.19
578.54	1646.60
578.90	1650.69
579.25	1655.00
579.60	1658.69
579.95	1661.71
580.30	1665.17
580.66	1669.10
581.01	1673.71
581.36	1677.38
581.71	1680.43
582.06	1683.86
582.42	1687.88
582.77	1691.36
583.12	1695.36
583.47	1698.57
583.82	1701.90
584.17	1706.76
584.53	1710.26
584.88	1712.60
585.23	1716.57
585.58	1719.45
585.93	1721.90
586.28	1725.02
586.63	1727.60
586.98	1730.79
587.34	1734.24
587.69	1737.12
588.04	1739.48
588.39	1741.98
588.74	1743.64
589.09	1746.69
589.44	1748.21
589.79	1750.52
590.14	1752.86
590.49	1754.57
590.84	1755.24
591.19	1757.07
591.54	1757.76
591.89	1758.57
592.25	1762.10
592.60	1761.62
592.95	1762.88
593.30	1766.02
593.65	1766.76
594.00	1767.36
594.35	1774.29
594.70	1774.07
595.05	1774.95
595.40	1775.64
595.75	1775.26
596.10	1776.64
596.45	1777.86
596.80	1778.40
597.15	1778.81
597.50	1778.83
597.85	1780.12
598.19	1781.05
598.54	1780.55
598.89	1781.62
599.24	1782.48
599.59	1781.26
599.94	1782.19
600.29	1782.69
600.64	1781.21
600.99	1781.50
601.34	1782.86
601.69	1776.45
602.04	1776.55
602.39	1776.90
602.74	1777.64
603.08	1777.33
603.43	1777.52
603.78	1776.24
604.13	1776.26
604.48	1775.33
604.83	1776.19
605.18	1776.00
605.53	1775.24
605.87	1775.50
606.22	1773.95
606.57	1772.57
606.92	1771.29
607.27	1770.86
607.62	1769.88
607.96	1769.38
608.31	1769.50
608.66	1767.62
609.01	1766.57
609.36	1765.43
609.70	1762.86
610.05	1759.48
610.40	1759.02
610.75	1756.12
611.10	1754.43
611.44	1751.67
611.79	1749.05
612.14	1746.48
612.49	1742.07
612.83	1740.19
613.18	1736.19
613.53	1732.64
613.88	1728.93
614.22	1726.14
614.57	1721.60
614.92	1717.45
615.27	1713.26
615.61	1708.48
615.96	1704.86
616.31	1701.50
616.65	1699.93
617.00	1697.33
617.35	1695.21
617.70	1691.74
618.04	1688.52
618.39	1684.86
618.74	1681.79
619.08	1678.26
619.43	1675.12
619.78	1671.83
620.12	1668.43
620.47	1665.64
620.82	1661.79
621.16	1658.45
621.51	1655.71
621.85	1651.71
622.20	1648.76
622.55	1644.52
622.89	1640.55
623.24	1637.43
623.59	1632.60
623.93	1627.57
624.28	1623.60
624.62	1621.31
624.97	1618.26
625.32	1614.24
625.66	1610.07
626.01	1605.45
626.35	1602.52
626.70	1597.52
627.04	1594.76
627.39	1589.98
627.73	1587.31
628.08	1584.74
628.43	1581.57
628.77	1577.12
629.12	1573.83
629.46	1570.07
629.81	1567.40
630.15	1563.43
630.50	1558.74
630.84	1555.10
631.19	1549.48
631.53	1545.02
631.88	1537.02
632.22	1530.43
632.57	1526.38
632.91	1521.95
633.26	1518.07
633.60	1513.10
633.95	1508.24
634.29	1502.64
634.64	1498.52
634.98	1492.62
635.32	1489.31
635.67	1484.83
636.01	1480.45
636.36	1476.02
636.70	1471.98
637.05	1466.71
637.39	1462.38
637.73	1457.95
638.08	1454.90
638.42	1450.98
638.77	1446.21
639.11	1442.57
639.45	1438.17
639.80	1432.55
640.14	1428.21
640.49	1423.19
640.83	1417.26
641.17	1412.67
641.52	1408.05
641.86	1402.81
642.20	1399.05
642.55	1392.05
642.89	1386.83
643.23	1380.69
643.58	1375.83
643.92	1369.38
644.26	1364.67
644.61	1358.71
644.95	1352.48
645.29	1345.17
645.64	1340.33
645.98	1334.29
646.32	1329.95
646.66	1323.79
647.01	1317.79
647.35	1312.21
647.69	1306.74
648.04	1301.86
648.38	1296.26
648.72	1290.79
649.06	1284.83
649.41	1278.29
649.75	1272.74
650.09	1266.36
650.43	1260.31
650.78	1254.55
651.12	1248.90
651.46	1241.81
651.80	1235.98
652.14	1230.10
652.49	1225.05
652.83	1218.36
653.17	1212.62
653.51	1205.45
653.85	1200.74
654.20	1195.21
654.54	1187.88
654.88	1181.24
655.22	1175.31
655.56	1169.57
655.90	1163.40
656.25	1157.07
656.59	1150.81
656.93	1144.67
657.27	1139.67
657.61	1134.29
657.95	1127.67
658.29	1121.38
658.64	1115.98
658.98	1110.07
659.32	1103.93
659.66	1096.79
660.00	1090.40
660.34	1084.17
660.68	1078.02
661.02	1070.76
661.36	1065.29
661.70	1059.60
662.05	1053.76
662.39	1047.45
662.73	1041.38
663.07	1035.67
663.41	1029.88
663.75	1023.81
664.09	1018.26
664.43	1010.86
664.77	1004.33
665.11	997.86
665.45	991.67
665.79	985.64
666.13	979.10
666.47	973.21
666.81	968.07
667.15	962.26
667.49	957.10
667.83	952.52
668.17	947.48
668.51	941.50
668.85	936.19
669.19	931.31
669.53	925.83
669.87	919.79
670.21	913.64
670.55	907.62
670.89	903.36
671.23	897.60
671.57	892.52
671.91	887.21
672.25	882.26
672.58	878.10
672.92	872.48
673.26	867.74
673.60	862.83
673.94	857.48
674.28	852.62
674.62	847.19
674.96	841.38
675.30	836.74
675.64	831.52
675.97	826.24
676.31	819.95
676.65	814.55
676.99	810.33
677.33	805.05
677.67	800.62
678.01	794.29
678.34	789.86
678.68	785.71
679.02	780.38
679.36	775.33
679.70	769.45
680.04	764.24
680.37	759.07
680.71	754.21
681.05	749.93
681.39	745.31
681.73	739.98
682.06	735.10
682.40	729.48
682.74	725.24
683.08	721.29
683.42	716.90
683.75	712.24
684.09	707.10
684.43	702.57
684.77	697.62
685.10	693.05
685.44	687.83
685.78	682.52
686.12	678.19
686.45	673.40
686.79	668.50
687.13	664.69
687.46	659.95
687.80	655.33
688.14	650.26
688.48	646.07
688.81	641.90
689.15	637.93
689.49	633.45
689.82	628.95
690.16	623.50
690.50	619.21
690.83	614.93
691.17	610.33
691.51	606.14
691.84	601.79
692.18	597.45
692.52	593.57
692.85	590.07
693.19	587.00
693.52	582.88
693.86	578.79
694.20	574.60
694.53	570.79
694.87	566.71
695.21	563.07
695.54	558.67
695.88	554.29
696.21	549.12
696.55	545.76
696.88	541.31
697.22	538.17
697.56	534.60
697.89	530.90
698.23	527.38
698.56	523.36
698.90	520.26
699.23	516.50
699.57	512.69
699.90	508.33
700.24	503.93
700.58	500.52
700.91	498.10
701.25	496.07
701.58	493.55
701.92	490.98
702.25	487.55
702.59	483.98
702.92	481.10
703.26	478.29
703.59	474.98
703.93	474.02
704.26	471.12
704.60	468.19
704.93	464.76
705.26	461.57
705.60	459.12
705.93	455.90
706.27	453.64
706.60	450.90
706.94	449.33
707.27	446.60
707.61	444.17
707.94	440.86
708.27	436.69
708.61	433.29
708.94	430.31
709.28	427.62
709.61	425.07
709.94	423.00
710.28	420.60
710.61	417.95
710.95	413.43
711.28	412.48
711.61	410.07
711.95	408.43
712.28	406.00
712.61	403.19
712.95	402.02
713.28	400.50
713.61	398.07
713.95	394.79
714.28	392.74
714.61	390.40
714.95	388.57
715.28	386.21
715.61	383.88
715.95	381.79
716.28	379.36
716.61	377.81
716.95	375.17
717.28	373.43
717.61	371.62
717.94	369.95
718.28	366.12
718.61	364.12
718.94	361.76
719.27	360.14
719.61	358.81
719.94	356.38
720.27	353.31
720.60	351.31
720.94	349.86
721.27	348.12
721.60	346.88
721.93	345.02
722.27	344.24
722.60	343.21
722.93	341.26
723.26	339.98
723.59	338.21
723.93	336.93
724.26	335.36
724.59	333.55
724.92	332.17
725.25	331.55
725.59	330.33
725.92	329.33
726.25	328.02
726.58	326.71
726.91	325.19
727.24	324.38
727.57	323.31
727.91	321.71
728.24	320.64
728.57	318.95
728.90	318.02
729.23	315.98
729.56	315.50
729.89	314.33
730.22	313.05
730.55	311.79
730.89	310.86
731.22	309.64
731.55	308.88
731.88	307.69
732.21	305.98
732.54	304.48
732.87	303.45
733.20	302.40
733.53	301.60
733.86	300.98
734.19	299.67
734.52	298.88
734.85	299.62
735.18	298.29
735.51	298.07
735.84	297.17
736.17	296.74
736.50	294.88
736.83	296.33
737.16	295.48
737.49	294.69
737.82	293.60
738.15	293.02
738.48	291.81
738.81	290.98
739.14	290.02
739.47	289.24
739.80	288.17
740.13	287.29
740.46	285.90
740.79	284.60
741.12	283.88
741.45	282.90
741.78	280.76
742.11	280.55
742.44	279.10
742.77	278.67
743.10	277.57
743.43	276.60
743.75	273.79
744.08	275.74
744.41	274.88
744.74	274.38
745.07	273.17
745.40	272.95
745.73	273.14
746.06	272.48
746.39	272.17
746.71	271.36
747.04	270.43
747.37	269.90
747.70	269.38
748.03	268.79
748.36	268.40
748.68	267.83
749.01	266.74
749.34	266.52
749.67	265.79
750.00	265.48
750.33	266.50
750.65	266.07
750.98	263.10
751.31	262.43
751.64	261.76
751.97	262.43
752.29	261.83
752.62	260.29
752.95	259.69
753.28	259.02
753.60	258.24
753.93	258.43
754.26	257.74
754.59	257.07
754.91	256.33
755.24	255.36
755.57	254.62
755.90	253.93
756.22	253.12
756.55	252.05
756.88	251.02
757.20	248.93
757.53	247.98
757.86	247.24
758.19	246.90
758.51	246.62
758.84	244.83
759.17	244.14
759.49	243.98
759.82	244.60
760.15	244.26
760.47	244.12
760.80	242.98
761.13	243.05
761.45	242.19
761.78	241.74
762.11	241.36
762.43	240.67
762.76	240.21
763.08	239.95
763.41	239.57
763.74	239.71
764.06	239.69
764.39	239.24
764.71	238.93
765.04	238.50
765.37	238.00
765.69	237.64
766.02	237.19
766.34	236.64
766.67	235.36
767.00	235.26
767.32	236.26
767.65	237.14
767.97	236.69
768.30	236.64
768.62	236.40
768.95	236.19
769.27	236.26
769.60	236.24
769.92	235.57
770.25	235.21
770.57	234.38
770.90	233.86
771.22	233.26
771.55	233.12
771.87	233.02
772.20	232.62
772.52	234.48
772.85	236.81
773.17	236.57
773.50	236.45
773.82	235.88
774.15	234.48
774.47	233.02
774.80	232.74
775.12	232.57
775.45	232.29
775.77	231.86
776.09	231.69
776.42	231.60
776.74	232.07
777.07	231.64
777.39	231.52
777.72	231.43
778.04	231.83
778.36	231.38
778.69	231.33
779.01	231.02
779.33	228.81
779.66	226.10
779.98	225.74
780.31	225.48
780.63	226.17
780.95	226.26
781.28	226.10
781.60	225.48
781.92	225.38
782.25	225.17
782.57	225.33
782.89	225.05
783.22	224.83
783.54	224.45
783.86	224.83
784.19	224.57
784.51	224.98
784.83	224.69
785.16	224.57
