SpectraSuite Data File
++++++++++++++++++++++++++++++++++++
Date: Tue Apr 02 18:42:39 EDT 2013
User: group
Dark Spectrum Present: No
Reference Spectrum Present: No
Number of Sampled Component Spectra: 1
Spectrometers: USB2E7196
Integration Time (usec): 580000 (USB2E7196)
Spectra Averaged: 2 (USB2E7196)
Boxcar Smoothing: 10 (USB2E7196)
Correct for Electrical Dark: No (USB2E7196)
Strobe/Lamp Enabled: No (USB2E7196)
Correct for Detector Non-linearity: No (USB2E7196)
Correct for Stray Light: No (USB2E7196)
Number of Pixels in Processed Spectrum: 2048
>>>>>Begin Processed Spectral Data<<<<<
339.09	0.00
339.48	193.50
339.86	198.00
340.24	196.50
340.63	195.50
341.01	227.50
341.39	199.00
341.78	205.00
342.16	212.00
342.54	204.00
342.93	197.57
343.31	207.24
343.69	207.76
344.07	208.19
344.46	208.93
344.84	209.60
345.22	208.67
345.60	209.29
345.99	209.76
346.37	209.67
346.75	209.90
347.13	209.98
347.52	209.71
347.90	210.45
348.28	210.69
348.66	211.38
349.05	210.74
349.43	211.24
349.81	211.45
350.19	211.40
350.57	211.57
350.96	211.33
351.34	211.83
351.72	212.02
352.10	212.00
352.48	211.90
352.87	211.83
353.25	211.93
353.63	211.93
354.01	211.60
354.39	211.86
354.77	211.71
355.15	212.29
355.54	212.24
355.92	211.95
356.30	212.00
356.68	213.12
357.06	213.12
357.44	212.76
357.82	212.62
358.20	213.50
358.58	213.57
358.97	213.95
359.35	214.33
359.73	214.83
360.11	214.86
360.49	214.95
360.87	215.24
361.25	215.48
361.63	216.12
362.01	216.26
362.39	216.12
362.77	216.60
363.15	216.31
363.53	216.43
363.91	216.40
364.29	216.24
364.67	214.31
365.05	214.48
365.43	214.76
365.81	214.98
366.19	215.21
366.57	216.00
366.95	216.07
367.33	215.52
367.71	215.26
368.09	215.93
368.47	215.81
368.85	215.86
369.23	216.19
369.61	215.43
369.99	216.17
370.37	216.29
370.75	217.12
371.13	216.90
371.51	216.52
371.89	216.52
372.27	216.98
372.65	217.21
373.03	217.26
373.41	217.10
373.78	217.19
374.16	216.10
374.54	215.48
374.92	215.19
375.30	215.33
375.68	215.02
376.06	214.86
376.44	214.69
376.82	214.55
377.19	214.36
377.57	214.36
377.95	213.67
378.33	213.50
378.71	212.19
379.09	212.52
379.47	212.69
379.84	212.67
380.22	212.24
380.60	211.86
380.98	211.71
381.36	211.71
381.73	211.29
382.11	211.79
382.49	211.74
382.87	211.60
383.25	211.62
383.62	214.14
384.00	213.86
384.38	214.12
384.76	214.55
385.13	215.52
385.51	215.29
385.89	214.93
386.27	215.17
386.64	215.62
387.02	215.17
387.40	215.26
387.78	215.38
388.15	215.81
388.53	215.69
388.91	215.81
389.29	215.40
389.66	215.81
390.04	215.40
390.42	215.74
390.79	215.93
391.17	215.74
391.55	213.36
391.92	213.21
392.30	213.29
392.68	212.95
393.05	212.50
393.43	212.83
393.81	213.24
394.18	212.79
394.56	212.71
394.94	213.45
395.31	213.36
395.69	213.83
396.06	213.98
396.44	214.21
396.82	214.07
397.19	215.33
397.57	214.98
397.95	215.48
398.32	214.79
398.70	214.95
399.07	215.69
399.45	215.57
399.82	215.48
400.20	215.57
400.58	215.33
400.95	214.64
401.33	215.19
401.70	216.81
402.08	217.00
402.45	217.12
402.83	217.36
403.20	217.40
403.58	217.21
403.95	217.40
404.33	217.90
404.71	218.24
405.08	219.36
405.46	219.79
405.83	220.12
406.21	220.74
406.58	221.24
406.96	221.17
407.33	221.88
407.70	222.79
408.08	224.81
408.45	225.88
408.83	227.00
409.20	227.05
409.58	226.50
409.95	227.81
410.33	228.83
410.70	229.24
411.08	230.40
411.45	231.95
411.82	232.74
412.20	234.21
412.57	236.62
412.95	236.12
413.32	237.86
413.69	239.21
414.07	240.98
414.44	242.86
414.82	244.98
415.19	247.33
415.56	249.79
415.94	250.98
416.31	253.81
416.68	256.48
417.06	260.02
417.43	263.48
417.81	267.26
418.18	270.86
418.55	274.67
418.93	278.62
419.30	282.33
419.67	287.19
420.04	291.43
420.42	295.45
420.79	302.74
421.16	308.19
421.54	314.95
421.91	321.45
422.28	327.26
422.66	333.90
423.03	341.86
423.40	348.48
423.77	355.76
424.15	362.90
424.52	370.86
424.89	379.33
425.26	386.88
425.64	393.81
426.01	402.00
426.38	411.19
426.75	421.21
427.13	430.60
427.50	440.55
427.87	450.86
428.24	461.00
428.61	469.88
428.99	481.88
429.36	492.60
429.73	503.48
430.10	515.33
430.47	527.05
430.85	537.50
431.22	550.21
431.59	564.88
431.96	577.71
432.33	591.88
432.70	605.43
433.08	621.90
433.45	637.52
433.82	652.71
434.19	669.79
434.56	686.69
434.93	702.69
435.30	717.90
435.68	735.38
436.05	753.24
436.42	769.74
436.79	785.07
437.16	802.19
437.53	820.52
437.90	838.48
438.27	856.36
438.64	874.60
439.01	891.79
439.38	905.52
439.75	920.31
440.13	937.19
440.50	953.48
440.87	965.93
441.24	979.26
441.61	994.57
441.98	1004.60
442.35	1015.88
442.72	1028.71
443.09	1042.79
443.46	1050.76
443.83	1055.57
444.20	1060.88
444.57	1066.88
444.94	1070.31
445.31	1073.83
445.68	1079.17
446.05	1080.17
446.42	1078.98
446.79	1077.95
447.16	1076.40
447.53	1075.29
447.90	1068.48
448.27	1061.95
448.64	1053.60
449.01	1047.86
449.37	1036.60
449.74	1025.81
450.11	1014.88
450.48	999.83
450.85	983.62
451.22	970.52
451.59	959.07
451.96	947.76
452.33	932.21
452.70	918.12
453.07	900.90
453.43	881.81
453.80	865.95
454.17	849.93
454.54	834.17
454.91	817.62
455.28	801.55
455.65	786.57
456.02	774.83
456.38	762.14
456.75	746.00
457.12	732.48
457.49	720.14
457.86	705.60
458.23	695.81
458.59	684.26
458.96	672.43
459.33	661.17
459.70	650.21
460.07	641.64
460.43	631.52
460.80	622.69
461.17	615.12
461.54	606.31
461.91	598.95
462.27	590.93
462.64	584.31
463.01	576.98
463.38	570.38
463.74	559.64
464.11	552.95
464.48	547.57
464.85	541.52
465.21	537.19
465.58	532.45
465.95	525.60
466.32	520.40
466.68	514.86
467.05	509.76
467.42	504.93
467.78	499.74
468.15	494.79
468.52	491.10
468.88	484.88
469.25	480.12
469.62	476.64
469.98	472.52
470.35	468.60
470.72	464.95
471.08	460.40
471.45	457.79
471.82	455.17
472.18	451.19
472.55	448.29
472.92	444.33
473.28	441.05
473.65	438.48
474.02	435.81
474.38	434.02
474.75	432.10
475.11	429.52
475.48	428.05
475.85	426.60
476.21	424.74
476.58	423.83
476.94	422.79
477.31	421.36
477.67	420.19
478.04	419.07
478.41	417.93
478.77	419.21
479.14	417.71
479.50	416.79
479.87	416.60
480.23	416.50
480.60	416.38
480.96	416.05
481.33	416.57
481.69	416.60
482.06	417.05
482.42	417.48
482.79	417.67
483.15	417.74
483.52	418.67
483.88	419.26
484.25	419.90
484.61	420.88
484.98	421.45
485.34	423.31
485.71	424.67
486.07	426.21
486.44	426.17
486.80	427.93
487.17	429.31
487.53	431.79
487.90	433.93
488.26	436.33
488.62	439.21
488.99	441.17
489.35	443.67
489.72	445.79
490.08	448.31
490.44	451.29
490.81	454.55
491.17	457.26
491.54	460.64
491.90	464.74
492.26	468.31
492.63	471.64
492.99	474.74
493.36	478.81
493.72	483.07
494.08	487.40
494.45	492.31
494.81	497.64
495.17	502.05
495.54	507.48
495.90	511.95
496.26	517.36
496.63	522.93
496.99	528.57
497.35	534.24
497.72	540.24
498.08	545.74
498.44	551.86
498.80	558.36
499.17	564.14
499.53	570.17
499.89	577.10
500.26	584.02
500.62	591.00
500.98	598.36
501.34	605.50
501.71	612.81
502.07	619.71
502.43	626.62
502.79	633.67
503.16	640.33
503.52	647.64
503.88	654.55
504.24	661.55
504.60	668.81
504.97	676.86
505.33	684.29
505.69	692.69
506.05	700.43
506.41	707.90
506.78	715.93
507.14	723.45
507.50	730.88
507.86	738.71
508.22	746.86
508.59	754.24
508.95	762.19
509.31	770.45
509.67	778.12
510.03	785.60
510.39	793.33
510.75	801.50
511.12	809.36
511.48	816.71
511.84	824.76
512.20	832.43
512.56	839.88
512.92	847.43
513.28	854.86
513.64	862.17
514.00	869.95
514.37	877.26
514.73	884.74
515.09	892.74
515.45	899.83
515.81	906.07
516.17	913.10
516.53	919.62
516.89	925.45
517.25	932.38
517.61	939.81
517.97	946.69
518.33	952.88
518.69	959.60
519.05	966.69
519.41	972.98
519.77	980.93
520.13	986.50
520.49	992.29
520.85	998.12
521.21	1004.62
521.57	1009.98
521.93	1015.50
522.29	1021.43
522.65	1026.05
523.01	1031.64
523.37	1036.90
523.73	1041.98
524.09	1047.10
524.45	1052.50
524.81	1057.33
525.17	1061.93
525.53	1066.36
525.89	1070.88
526.25	1076.45
526.61	1080.14
526.97	1084.76
527.33	1088.36
527.68	1095.10
528.04	1099.69
528.40	1103.90
528.76	1107.33
529.12	1111.55
529.48	1116.79
529.84	1120.69
530.20	1124.90
530.56	1129.12
530.91	1134.31
531.27	1138.38
531.63	1143.17
531.99	1147.38
532.35	1151.74
532.71	1155.40
533.07	1160.57
533.42	1166.86
533.78	1170.60
534.14	1175.79
534.50	1179.31
534.86	1183.57
535.21	1186.29
535.57	1190.81
535.93	1195.21
536.29	1200.79
536.65	1205.79
537.00	1208.29
537.36	1212.33
537.72	1216.45
538.08	1220.50
538.44	1223.05
538.79	1226.62
539.15	1230.14
539.51	1233.93
539.87	1237.12
540.22	1241.00
540.58	1243.40
540.94	1245.07
541.29	1248.38
541.65	1250.52
542.01	1254.83
542.37	1257.50
542.72	1259.05
543.08	1260.79
543.44	1264.29
543.79	1265.38
544.15	1267.69
544.51	1271.98
544.87	1275.21
545.22	1278.29
545.58	1281.10
545.94	1283.64
546.29	1287.17
546.65	1289.95
547.01	1292.48
547.36	1295.62
547.72	1298.10
548.07	1301.55
548.43	1303.76
548.79	1305.48
549.14	1308.79
549.50	1310.88
549.86	1312.83
550.21	1316.36
550.57	1320.38
550.92	1321.52
551.28	1325.24
551.64	1328.14
551.99	1330.79
552.35	1332.71
552.70	1335.48
553.06	1339.21
553.41	1342.93
553.77	1347.36
554.13	1350.64
554.48	1354.48
554.84	1358.38
555.19	1362.38
555.55	1366.93
555.90	1371.24
556.26	1375.98
556.61	1379.17
556.97	1381.67
557.32	1386.05
557.68	1390.55
558.03	1394.17
558.39	1398.98
558.74	1402.67
559.10	1406.57
559.45	1410.29
559.81	1415.07
560.16	1418.95
560.52	1422.69
560.87	1427.17
561.23	1430.40
561.58	1435.81
561.94	1439.29
562.29	1443.19
562.64	1448.24
563.00	1451.98
563.35	1456.05
563.71	1460.19
564.06	1465.95
564.42	1472.76
564.77	1478.40
565.12	1483.93
565.48	1491.43
565.83	1497.57
566.19	1503.57
566.54	1509.02
566.89	1514.98
567.25	1521.69
567.60	1528.95
567.96	1536.55
568.31	1543.62
568.66	1549.57
569.02	1553.95
569.37	1560.48
569.72	1566.24
570.08	1570.86
570.43	1575.45
570.78	1582.12
571.14	1588.14
571.49	1593.81
571.84	1599.21
572.20	1603.83
572.55	1609.07
572.90	1612.12
573.26	1616.55
573.61	1620.90
573.96	1625.67
574.31	1629.33
574.67	1632.52
575.02	1635.64
575.37	1637.05
575.72	1640.10
576.08	1644.90
576.43	1648.60
576.78	1652.10
577.13	1656.10
577.49	1660.05
577.84	1665.43
578.19	1667.81
578.54	1671.52
578.90	1675.00
579.25	1678.17
579.60	1680.88
579.95	1683.19
580.30	1686.98
580.66	1690.48
581.01	1693.07
581.36	1696.64
581.71	1700.21
582.06	1704.60
582.42	1707.71
582.77	1711.33
583.12	1714.29
583.47	1716.33
583.82	1719.67
584.17	1722.67
584.53	1725.95
584.88	1728.62
585.23	1730.40
585.58	1732.98
585.93	1734.79
586.28	1737.29
586.63	1739.90
586.98	1743.38
587.34	1747.21
587.69	1749.36
588.04	1751.62
588.39	1754.17
588.74	1755.07
589.09	1757.64
589.44	1757.29
589.79	1759.55
590.14	1762.26
590.49	1763.83
590.84	1764.67
591.19	1766.74
591.54	1767.69
591.89	1768.79
592.25	1771.83
592.60	1772.33
592.95	1774.55
593.30	1776.90
593.65	1777.17
594.00	1777.36
594.35	1783.74
594.70	1782.90
595.05	1783.86
595.40	1783.40
595.75	1784.12
596.10	1785.88
596.45	1786.05
596.80	1787.88
597.15	1788.14
597.50	1786.62
597.85	1787.60
598.19	1788.17
598.54	1787.19
598.89	1787.95
599.24	1788.17
599.59	1786.69
599.94	1786.55
600.29	1786.07
600.64	1785.88
600.99	1785.43
601.34	1786.55
601.69	1780.93
602.04	1780.60
602.39	1779.40
602.74	1780.21
603.08	1780.17
603.43	1780.02
603.78	1779.36
604.13	1779.12
604.48	1777.64
604.83	1777.38
605.18	1775.83
605.53	1775.10
605.87	1774.38
606.22	1772.90
606.57	1771.40
606.92	1769.74
607.27	1769.50
607.62	1768.88
607.96	1768.29
608.31	1768.64
608.66	1766.17
609.01	1764.17
609.36	1763.10
609.70	1761.48
610.05	1758.71
610.40	1756.43
610.75	1754.00
611.10	1753.19
611.44	1750.36
611.79	1748.29
612.14	1746.71
612.49	1744.12
612.83	1741.38
613.18	1738.60
613.53	1734.95
613.88	1731.57
614.22	1728.48
614.57	1724.48
614.92	1719.93
615.27	1715.17
615.61	1709.71
615.96	1706.12
616.31	1701.83
616.65	1698.81
617.00	1695.50
617.35	1692.31
617.70	1688.52
618.04	1684.21
618.39	1678.57
618.74	1675.02
619.08	1671.00
619.43	1666.67
619.78	1663.00
620.12	1659.40
620.47	1655.62
620.82	1651.24
621.16	1646.93
621.51	1643.67
621.85	1639.93
622.20	1635.60
622.55	1630.48
622.89	1627.95
623.24	1624.12
623.59	1620.50
623.93	1615.95
624.28	1611.50
624.62	1608.74
624.97	1605.55
625.32	1600.71
625.66	1596.98
626.01	1592.07
626.35	1587.98
626.70	1583.45
627.04	1579.81
627.39	1575.17
627.73	1571.29
628.08	1568.00
628.43	1563.93
628.77	1559.38
629.12	1555.45
629.46	1552.31
629.81	1548.14
630.15	1542.26
630.50	1537.05
630.84	1532.07
631.19	1527.52
631.53	1522.05
631.88	1514.81
632.22	1507.81
632.57	1503.50
632.91	1497.45
633.26	1492.76
633.60	1487.55
633.95	1483.12
634.29	1477.64
634.64	1472.76
634.98	1467.45
635.32	1463.36
635.67	1459.36
636.01	1455.21
636.36	1449.45
636.70	1444.29
637.05	1439.76
637.39	1435.33
637.73	1430.98
638.08	1426.93
638.42	1421.40
638.77	1417.74
639.11	1412.98
639.45	1408.26
639.80	1402.95
640.14	1398.21
640.49	1391.95
640.83	1386.90
641.17	1381.33
641.52	1375.17
641.86	1369.60
642.20	1365.12
642.55	1358.00
642.89	1350.81
643.23	1343.95
643.58	1339.45
643.92	1332.50
644.26	1326.21
644.61	1319.88
644.95	1313.69
645.29	1306.67
645.64	1301.14
645.98	1293.88
646.32	1288.02
646.66	1282.31
647.01	1275.86
647.35	1270.93
647.69	1265.52
648.04	1260.29
648.38	1253.90
648.72	1247.98
649.06	1241.26
649.41	1233.55
649.75	1227.02
650.09	1220.62
650.43	1213.98
650.78	1206.50
651.12	1200.21
651.46	1194.19
651.80	1187.98
652.14	1181.00
652.49	1175.52
652.83	1168.38
653.17	1162.05
653.51	1154.79
653.85	1148.71
654.20	1142.79
654.54	1134.74
654.88	1127.74
655.22	1120.95
655.56	1114.52
655.90	1108.00
656.25	1101.67
656.59	1096.05
656.93	1090.52
657.27	1085.79
657.61	1078.76
657.95	1072.74
658.29	1066.29
658.64	1060.40
658.98	1053.43
659.32	1047.07
659.66	1039.69
660.00	1033.69
660.34	1027.26
660.68	1021.33
661.02	1014.02
661.36	1006.62
661.70	1000.60
662.05	995.10
662.39	988.83
662.73	982.93
663.07	977.81
663.41	972.17
663.75	965.12
664.09	959.29
664.43	952.21
664.77	947.52
665.11	941.02
665.45	935.52
665.79	929.17
666.13	923.69
666.47	918.00
666.81	912.76
667.15	906.24
667.49	901.45
667.83	896.50
668.17	890.79
668.51	886.07
668.85	881.00
669.19	876.07
669.53	869.62
669.87	863.19
670.21	857.02
670.55	850.29
670.89	845.74
671.23	839.69
671.57	834.88
671.91	828.71
672.25	823.33
672.58	818.31
672.92	813.00
673.26	808.14
673.60	802.71
673.94	797.12
674.28	792.43
674.62	786.74
674.96	781.21
675.30	777.12
675.64	771.76
675.97	766.86
676.31	761.31
676.65	756.52
676.99	752.71
677.33	747.40
677.67	743.71
678.01	738.31
678.34	734.17
678.68	729.67
679.02	725.10
679.36	720.26
679.70	715.43
680.04	710.43
680.37	705.55
680.71	700.79
681.05	696.62
681.39	692.19
681.73	687.76
682.06	683.29
682.40	678.48
682.74	674.67
683.08	670.71
683.42	665.45
683.75	661.14
684.09	655.64
684.43	650.93
684.77	646.19
685.10	641.55
685.44	636.52
685.78	631.07
686.12	626.31
686.45	621.86
686.79	616.88
687.13	612.76
687.46	608.48
687.80	605.33
688.14	600.69
688.48	596.50
688.81	591.76
689.15	588.48
689.49	584.10
689.82	579.17
690.16	573.86
690.50	570.14
690.83	565.69
691.17	561.67
691.51	558.21
691.84	554.02
692.18	550.48
692.52	546.50
692.85	543.26
693.19	540.60
693.52	537.40
693.86	534.12
694.20	530.17
694.53	526.21
694.87	521.76
695.21	518.02
695.54	513.90
695.88	510.21
696.21	505.60
696.55	502.29
696.88	499.00
697.22	496.00
697.56	492.93
697.89	489.55
698.23	486.69
698.56	482.93
698.90	479.74
699.23	475.95
699.57	473.19
699.90	469.76
700.24	465.93
700.58	462.07
700.91	458.71
701.25	457.40
701.58	455.38
701.92	452.93
702.25	450.10
702.59	447.52
702.92	445.05
703.26	442.57
703.59	439.93
703.93	438.90
704.26	436.38
704.60	433.60
704.93	431.07
705.26	428.07
705.60	426.12
705.93	423.43
706.27	421.62
706.60	419.14
706.94	417.36
707.27	414.24
707.61	412.38
707.94	410.05
708.27	406.00
708.61	402.57
708.94	399.93
709.28	397.86
709.61	395.10
709.94	392.83
710.28	390.45
710.61	388.05
710.95	383.98
711.28	382.76
711.61	380.57
711.95	379.12
712.28	376.90
712.61	374.74
712.95	373.76
713.28	372.29
713.61	369.98
713.95	367.38
714.28	366.02
714.61	363.90
714.95	362.02
715.28	359.74
715.61	357.90
715.95	356.19
716.28	354.38
716.61	353.24
716.95	351.10
717.28	349.31
717.61	347.62
717.94	345.98
718.28	343.07
718.61	341.31
718.94	339.00
719.27	337.62
719.61	335.52
719.94	333.52
720.27	331.14
720.60	329.52
720.94	327.95
721.27	326.36
721.60	325.17
721.93	323.69
722.27	323.43
722.60	322.40
722.93	320.67
723.26	319.12
723.59	317.45
723.93	316.79
724.26	315.62
724.59	314.38
724.92	313.57
725.25	313.05
725.59	311.88
725.92	310.93
726.25	309.83
726.58	309.05
726.91	307.60
727.24	306.90
727.57	306.12
727.91	304.74
728.24	304.00
728.57	302.83
728.90	302.10
729.23	300.10
729.56	299.76
729.89	298.74
730.22	297.57
730.55	296.71
730.89	295.64
731.22	294.62
731.55	293.71
731.88	292.95
732.21	291.64
732.54	290.64
732.87	289.69
733.20	288.93
733.53	288.07
733.86	287.60
734.19	286.40
734.52	285.71
734.85	286.26
735.18	285.05
735.51	284.81
735.84	283.98
736.17	284.12
736.50	282.40
736.83	284.38
737.16	283.98
737.49	283.17
737.82	282.05
738.15	281.60
738.48	280.64
738.81	279.50
739.14	278.48
739.47	277.50
739.80	276.90
740.13	276.24
740.46	275.21
740.79	274.02
741.12	273.33
741.45	272.17
741.78	270.55
742.11	270.69
742.44	269.64
742.77	269.40
743.10	268.10
743.43	267.60
743.75	264.74
744.08	266.48
744.41	265.81
744.74	264.98
745.07	263.88
745.40	263.55
745.73	263.83
746.06	263.55
746.39	263.36
746.71	262.57
747.04	261.40
747.37	260.71
747.70	260.57
748.03	259.93
748.36	259.60
748.68	259.14
749.01	257.83
749.34	257.02
749.67	256.33
750.00	256.29
750.33	257.07
750.65	256.57
750.98	253.57
751.31	253.12
751.64	253.07
751.97	254.00
752.29	253.33
752.62	252.17
752.95	251.26
753.28	250.55
753.60	249.90
753.93	250.67
754.26	250.74
754.59	249.83
754.91	249.14
755.24	248.79
755.57	248.00
755.90	247.55
756.22	247.10
756.55	246.45
756.88	245.62
757.20	243.88
757.53	243.00
757.86	242.57
758.19	242.40
758.51	241.90
758.84	240.33
759.17	240.00
759.49	239.50
759.82	240.43
760.15	240.40
760.47	240.00
760.80	238.79
761.13	238.60
761.45	238.14
761.78	238.05
762.11	237.74
762.43	237.45
762.76	237.19
763.08	236.93
763.41	236.81
763.74	236.52
764.06	236.33
764.39	236.36
764.71	236.00
765.04	235.40
765.37	234.95
765.69	234.57
766.02	234.24
766.34	233.90
766.67	232.69
767.00	232.76
767.32	233.76
767.65	234.83
767.97	234.29
768.30	234.17
768.62	233.95
768.95	233.67
769.27	233.33
769.60	233.43
769.92	233.14
770.25	232.48
770.57	232.07
770.90	231.76
771.22	231.33
771.55	231.29
771.87	231.21
772.20	231.24
772.52	232.90
772.85	235.24
773.17	235.12
773.50	234.90
773.82	234.29
774.15	233.19
774.47	231.57
774.80	231.38
775.12	231.21
775.45	230.90
775.77	230.83
776.09	230.74
776.42	230.38
776.74	230.81
777.07	230.50
777.39	230.50
777.72	230.21
778.04	230.31
778.36	230.02
778.69	229.90
779.01	229.71
779.33	227.69
779.66	225.12
779.98	224.86
780.31	224.69
780.63	225.55
780.95	225.67
781.28	225.74
781.60	225.55
781.92	225.55
782.25	225.52
782.57	225.29
782.89	225.02
783.22	224.86
783.54	224.21
783.86	224.60
784.19	224.21
784.51	224.69
784.83	224.17
785.16	224.00
