SpectraSuite Data File
++++++++++++++++++++++++++++++++++++
Date: Tue Apr 02 18:42:59 EDT 2013
User: group
Dark Spectrum Present: No
Reference Spectrum Present: No
Number of Sampled Component Spectra: 1
Spectrometers: USB2E7196
Integration Time (usec): 580000 (USB2E7196)
Spectra Averaged: 2 (USB2E7196)
Boxcar Smoothing: 10 (USB2E7196)
Correct for Electrical Dark: No (USB2E7196)
Strobe/Lamp Enabled: No (USB2E7196)
Correct for Detector Non-linearity: No (USB2E7196)
Correct for Stray Light: No (USB2E7196)
Number of Pixels in Processed Spectrum: 2048
>>>>>Begin Processed Spectral Data<<<<<
339.09	0.00
339.48	195.00
339.86	197.00
340.24	199.00
340.63	199.00
341.01	232.50
341.39	201.00
341.78	206.50
342.16	210.00
342.54	208.00
342.93	198.24
343.31	208.14
343.69	208.79
344.07	209.19
344.46	209.88
344.84	210.69
345.22	209.52
345.60	209.90
345.99	210.10
346.37	210.10
346.75	210.10
347.13	210.10
347.52	210.02
347.90	210.60
348.28	210.64
348.66	211.19
349.05	210.76
349.43	211.05
349.81	211.21
350.19	211.21
350.57	211.57
350.96	211.83
351.34	211.95
351.72	212.14
352.10	212.17
352.48	212.05
352.87	211.64
353.25	211.64
353.63	211.40
354.01	211.50
354.39	211.57
354.77	211.55
355.15	212.33
355.54	212.10
355.92	211.64
356.30	211.74
356.68	212.86
357.06	212.81
357.44	212.74
357.82	212.67
358.20	213.71
358.58	213.76
358.97	213.90
359.35	214.24
359.73	214.74
360.11	214.81
360.49	214.86
360.87	214.93
361.25	215.29
361.63	216.17
362.01	216.17
362.39	216.10
362.77	216.21
363.15	215.98
363.53	216.17
363.91	216.40
364.29	216.26
364.67	214.38
365.05	214.45
365.43	214.55
365.81	214.81
366.19	214.76
366.57	215.17
366.95	215.07
367.33	214.67
367.71	214.36
368.09	214.76
368.47	214.86
368.85	214.88
369.23	215.38
369.61	214.83
369.99	215.71
370.37	216.00
370.75	216.90
371.13	216.31
371.51	216.07
371.89	216.45
372.27	216.64
372.65	216.93
373.03	217.02
373.41	217.12
373.78	217.07
374.16	216.00
374.54	215.52
374.92	215.36
375.30	215.38
375.68	214.95
376.06	214.86
376.44	214.76
376.82	214.86
377.19	214.48
377.57	214.55
377.95	213.55
378.33	213.10
378.71	212.02
379.09	212.40
379.47	212.48
379.84	211.83
380.22	211.62
380.60	211.24
380.98	211.05
381.36	211.12
381.73	210.76
382.11	211.29
382.49	211.60
382.87	211.40
383.25	211.50
383.62	214.14
384.00	214.21
384.38	214.36
384.76	214.79
385.13	215.69
385.51	215.60
385.89	215.36
386.27	215.69
386.64	216.19
387.02	216.29
387.40	216.19
387.78	216.29
388.15	216.31
388.53	216.21
388.91	216.48
389.29	216.21
389.66	216.36
390.04	216.21
390.42	216.48
390.79	216.83
391.17	216.90
391.55	214.55
391.92	214.45
392.30	214.50
392.68	214.05
393.05	213.67
393.43	213.62
393.81	214.07
394.18	213.79
394.56	213.60
394.94	213.93
395.31	213.76
395.69	214.71
396.06	214.88
396.44	215.29
396.82	215.02
397.19	216.05
397.57	216.00
397.95	215.98
398.32	215.50
398.70	215.40
399.07	215.95
399.45	215.93
399.82	215.74
400.20	215.48
400.58	215.57
400.95	214.98
401.33	215.67
401.70	217.33
402.08	217.62
402.45	217.74
402.83	218.31
403.20	218.67
403.58	218.31
403.95	219.05
404.33	219.21
404.71	219.60
405.08	220.93
405.46	221.24
405.83	221.83
406.21	221.86
406.58	222.31
406.96	222.36
407.33	222.93
407.70	224.10
408.08	226.38
408.45	227.40
408.83	228.55
409.20	228.93
409.58	228.24
409.95	229.52
410.33	230.57
410.70	230.79
411.08	231.86
411.45	232.98
411.82	233.60
412.20	235.52
412.57	237.88
412.95	237.26
413.32	239.29
413.69	240.64
414.07	242.48
414.44	244.50
414.82	246.45
415.19	248.93
415.56	250.83
415.94	252.21
416.31	254.95
416.68	257.71
417.06	260.90
417.43	264.29
417.81	267.45
418.18	271.17
418.55	274.88
418.93	278.90
419.30	282.98
419.67	287.69
420.04	291.64
420.42	296.14
420.79	303.19
421.16	308.69
421.54	315.64
421.91	321.88
422.28	328.19
422.66	335.17
423.03	343.05
423.40	349.50
423.77	356.60
424.15	363.36
424.52	370.74
424.89	379.07
425.26	387.24
425.64	395.00
426.01	403.00
426.38	411.76
426.75	421.33
427.13	430.57
427.50	440.07
427.87	450.17
428.24	459.93
428.61	468.60
428.99	480.02
429.36	490.38
429.73	501.69
430.10	513.40
430.47	525.52
430.85	536.43
431.22	549.60
431.59	564.02
431.96	577.02
432.33	590.90
432.70	605.12
433.08	620.86
433.45	636.43
433.82	651.74
434.19	668.95
434.56	686.05
434.93	701.98
435.30	718.00
435.68	735.38
436.05	752.48
436.42	769.71
436.79	785.07
437.16	802.52
437.53	820.43
437.90	837.29
438.27	854.83
438.64	872.24
439.01	889.19
439.38	903.43
439.75	918.10
440.13	935.05
440.50	949.76
440.87	962.29
441.24	975.60
441.61	990.19
441.98	1001.12
442.35	1013.10
442.72	1026.17
443.09	1039.67
443.46	1047.86
443.83	1053.31
444.20	1058.00
444.57	1064.62
444.94	1068.26
445.31	1072.45
445.68	1078.52
446.05	1079.52
446.42	1078.31
446.79	1077.33
447.16	1075.12
447.53	1074.19
447.90	1067.95
448.27	1061.90
448.64	1053.17
449.01	1046.67
449.37	1035.88
449.74	1024.83
450.11	1013.31
450.48	998.67
450.85	982.45
451.22	969.69
451.59	957.71
451.96	946.00
452.33	929.86
452.70	914.93
453.07	896.88
453.43	877.19
453.80	861.02
454.17	845.69
454.54	830.14
454.91	814.29
455.28	797.95
455.65	783.33
456.02	771.90
456.38	759.67
456.75	743.86
457.12	730.67
457.49	717.98
457.86	703.45
458.23	693.74
458.59	681.90
458.96	670.05
459.33	659.19
459.70	648.69
460.07	640.21
460.43	630.67
460.80	622.29
461.17	614.93
461.54	606.33
461.91	598.00
462.27	589.45
462.64	582.12
463.01	575.10
463.38	568.60
463.74	557.76
464.11	551.05
464.48	545.48
464.85	539.05
465.21	534.24
465.58	529.76
465.95	522.60
466.32	518.00
466.68	512.17
467.05	507.14
467.42	501.93
467.78	496.93
468.15	492.24
468.52	488.69
468.88	483.29
469.25	478.45
469.62	475.17
469.98	471.29
470.35	467.62
470.72	464.14
471.08	459.24
471.45	456.83
471.82	454.07
472.18	450.43
472.55	447.90
472.92	444.21
473.28	440.93
473.65	438.07
474.02	434.86
474.38	433.05
474.75	431.05
475.11	428.62
475.48	426.74
475.85	424.81
476.21	422.52
476.58	421.38
476.94	420.10
477.31	418.64
477.67	417.57
478.04	416.90
478.41	415.79
478.77	417.43
479.14	416.05
479.50	415.26
479.87	415.33
480.23	415.00
480.60	414.62
480.96	414.45
481.33	415.60
481.69	416.07
482.06	416.14
482.42	416.74
482.79	417.38
483.15	418.02
483.52	418.88
483.88	419.50
484.25	420.07
484.61	421.02
484.98	421.43
485.34	422.95
485.71	424.26
486.07	426.10
486.44	425.40
486.80	427.33
487.17	428.79
487.53	431.12
487.90	433.29
488.26	436.76
488.62	439.26
488.99	440.69
489.35	443.14
489.72	445.98
490.08	448.48
490.44	451.10
490.81	454.02
491.17	457.17
491.54	461.14
491.90	464.55
492.26	468.19
492.63	472.36
492.99	475.95
493.36	479.69
493.72	483.69
494.08	488.14
494.45	492.79
494.81	498.14
495.17	502.38
495.54	507.67
495.90	511.93
496.26	517.60
496.63	523.00
496.99	528.60
497.35	534.26
497.72	540.19
498.08	545.69
498.44	551.90
498.80	558.14
499.17	563.71
499.53	569.79
499.89	576.71
500.26	583.45
500.62	590.24
500.98	597.55
501.34	604.38
501.71	611.67
502.07	618.76
502.43	625.29
502.79	632.33
503.16	639.31
503.52	646.60
503.88	653.07
504.24	660.79
504.60	668.52
504.97	676.38
505.33	683.67
505.69	693.02
506.05	700.57
506.41	708.62
506.78	716.45
507.14	724.69
507.50	732.40
507.86	740.45
508.22	748.76
508.59	755.90
508.95	763.86
509.31	772.29
509.67	780.07
510.03	787.88
510.39	795.76
510.75	803.29
511.12	810.90
511.48	818.95
511.84	826.21
512.20	834.38
512.56	841.95
512.92	849.74
513.28	856.57
513.64	864.07
514.00	871.40
514.37	878.86
514.73	886.14
515.09	893.55
515.45	900.29
515.81	907.07
516.17	915.05
516.53	920.88
516.89	926.74
517.25	933.02
517.61	941.19
517.97	947.10
518.33	953.33
518.69	959.90
519.05	966.12
519.41	972.79
519.77	979.48
520.13	985.12
520.49	990.24
520.85	996.05
521.21	1002.69
521.57	1008.74
521.93	1014.31
522.29	1019.95
522.65	1024.57
523.01	1029.83
523.37	1034.67
523.73	1039.79
524.09	1046.07
524.45	1051.79
524.81	1057.07
525.17	1060.69
525.53	1065.79
525.89	1070.95
526.25	1076.12
526.61	1080.10
526.97	1083.81
527.33	1087.81
527.68	1094.31
528.04	1099.43
528.40	1103.02
528.76	1106.71
529.12	1110.62
529.48	1115.07
529.84	1118.98
530.20	1123.79
530.56	1128.71
530.91	1133.12
531.27	1137.10
531.63	1141.07
531.99	1143.74
532.35	1147.93
532.71	1151.60
533.07	1156.79
533.42	1162.93
533.78	1167.02
534.14	1172.02
534.50	1176.93
534.86	1181.05
535.21	1183.10
535.57	1187.60
535.93	1192.00
536.29	1196.00
536.65	1199.48
537.00	1203.05
537.36	1206.52
537.72	1209.79
538.08	1213.83
538.44	1217.00
538.79	1220.38
539.15	1223.40
539.51	1227.95
539.87	1231.38
540.22	1235.57
540.58	1238.55
540.94	1239.86
541.29	1243.00
541.65	1245.43
542.01	1249.14
542.37	1251.48
542.72	1254.36
543.08	1256.76
543.44	1259.79
543.79	1262.43
544.15	1265.83
544.51	1269.19
544.87	1272.95
545.22	1276.33
545.58	1278.50
545.94	1280.88
546.29	1283.17
546.65	1286.71
547.01	1288.88
547.36	1291.29
547.72	1293.83
548.07	1296.40
548.43	1299.21
548.79	1300.60
549.14	1302.98
549.50	1304.79
549.86	1307.02
550.21	1309.95
550.57	1313.07
550.92	1315.24
551.28	1318.64
551.64	1321.71
551.99	1325.29
552.35	1326.71
552.70	1329.12
553.06	1332.48
553.41	1336.21
553.77	1341.43
554.13	1344.21
554.48	1348.19
554.84	1353.43
555.19	1356.83
555.55	1361.62
555.90	1365.52
556.26	1370.00
556.61	1374.38
556.97	1378.02
557.32	1381.93
557.68	1386.12
558.03	1389.79
558.39	1394.33
558.74	1397.95
559.10	1401.19
559.45	1405.10
559.81	1410.24
560.16	1415.00
560.52	1419.50
560.87	1424.26
561.23	1426.98
561.58	1432.95
561.94	1437.62
562.29	1441.45
562.64	1446.93
563.00	1450.83
563.35	1455.50
563.71	1460.57
564.06	1466.26
564.42	1471.55
564.77	1478.05
565.12	1483.36
565.48	1490.64
565.83	1496.90
566.19	1502.98
566.54	1508.67
566.89	1514.21
567.25	1521.45
567.60	1528.31
567.96	1535.81
568.31	1542.33
568.66	1548.88
569.02	1552.90
569.37	1558.55
569.72	1564.38
570.08	1568.81
570.43	1573.93
570.78	1579.95
571.14	1585.74
571.49	1590.00
571.84	1595.74
572.20	1599.43
572.55	1605.43
572.90	1608.71
573.26	1612.88
573.61	1617.31
573.96	1623.14
574.31	1627.45
574.67	1631.07
575.02	1634.45
575.37	1636.10
575.72	1639.10
576.08	1643.17
576.43	1647.67
576.78	1650.67
577.13	1653.55
577.49	1657.05
577.84	1661.57
578.19	1664.95
578.54	1668.69
578.90	1673.17
579.25	1676.14
579.60	1680.40
579.95	1682.12
580.30	1685.81
580.66	1689.24
581.01	1692.64
581.36	1694.76
581.71	1697.86
582.06	1701.40
582.42	1705.10
582.77	1709.00
583.12	1712.57
583.47	1715.67
583.82	1718.62
584.17	1722.60
584.53	1725.79
584.88	1728.86
585.23	1731.81
585.58	1733.76
585.93	1735.45
586.28	1737.93
586.63	1740.67
586.98	1743.52
587.34	1747.36
587.69	1749.88
588.04	1751.95
588.39	1754.19
588.74	1756.21
589.09	1757.76
589.44	1758.21
589.79	1759.60
590.14	1761.38
590.49	1762.33
590.84	1763.26
591.19	1764.74
591.54	1766.67
591.89	1767.90
592.25	1771.12
592.60	1771.50
592.95	1772.76
593.30	1775.48
593.65	1777.29
594.00	1777.64
594.35	1783.50
594.70	1782.69
595.05	1783.38
595.40	1784.07
595.75	1784.52
596.10	1785.57
596.45	1787.26
596.80	1788.50
597.15	1789.40
597.50	1789.14
597.85	1791.52
598.19	1791.00
598.54	1790.95
598.89	1790.31
599.24	1790.86
599.59	1789.71
599.94	1790.24
600.29	1790.95
600.64	1790.26
600.99	1789.10
601.34	1789.50
601.69	1784.21
602.04	1783.64
602.39	1783.05
602.74	1782.98
603.08	1783.24
603.43	1783.60
603.78	1782.40
604.13	1783.02
604.48	1781.86
604.83	1781.74
605.18	1779.79
605.53	1780.64
605.87	1779.79
606.22	1778.60
606.57	1776.95
606.92	1775.62
607.27	1774.55
607.62	1773.95
607.96	1773.26
608.31	1773.19
608.66	1772.95
609.01	1771.17
609.36	1771.21
609.70	1769.45
610.05	1768.14
610.40	1765.86
610.75	1762.55
611.10	1760.76
611.44	1757.81
611.79	1755.21
612.14	1752.62
612.49	1750.14
612.83	1746.64
613.18	1744.67
613.53	1741.69
613.88	1738.24
614.22	1735.95
614.57	1731.79
614.92	1727.40
615.27	1723.48
615.61	1719.19
615.96	1714.45
616.31	1711.29
616.65	1709.07
617.00	1706.36
617.35	1702.93
617.70	1699.43
618.04	1696.02
618.39	1692.21
618.74	1688.00
619.08	1684.07
619.43	1680.74
619.78	1676.93
620.12	1672.79
620.47	1669.07
620.82	1665.05
621.16	1661.29
621.51	1657.45
621.85	1653.79
622.20	1649.74
622.55	1644.83
622.89	1640.90
623.24	1637.38
623.59	1632.79
623.93	1626.83
624.28	1621.74
624.62	1619.21
624.97	1615.69
625.32	1611.62
625.66	1607.21
626.01	1602.88
626.35	1599.86
626.70	1595.29
627.04	1591.81
627.39	1588.26
627.73	1584.43
628.08	1580.86
628.43	1577.36
628.77	1572.67
629.12	1568.81
629.46	1564.40
629.81	1560.29
630.15	1555.33
630.50	1550.19
630.84	1545.31
631.19	1541.07
631.53	1536.64
631.88	1528.21
632.22	1521.79
632.57	1517.14
632.91	1511.81
633.26	1507.17
633.60	1501.57
633.95	1496.45
634.29	1490.33
634.64	1486.00
634.98	1479.60
635.32	1475.36
635.67	1470.45
636.01	1465.19
636.36	1459.83
636.70	1455.24
637.05	1449.86
637.39	1444.76
637.73	1440.48
638.08	1436.33
638.42	1431.19
638.77	1426.62
639.11	1423.00
639.45	1418.17
639.80	1412.64
640.14	1407.48
640.49	1401.88
640.83	1396.14
641.17	1390.57
641.52	1385.17
641.86	1379.02
642.20	1374.50
642.55	1367.95
642.89	1361.57
643.23	1356.00
643.58	1350.71
643.92	1344.05
644.26	1338.38
644.61	1333.48
644.95	1326.95
645.29	1319.40
645.64	1314.33
645.98	1308.24
646.32	1302.17
646.66	1295.81
647.01	1289.67
647.35	1283.76
647.69	1277.95
648.04	1272.52
648.38	1266.67
648.72	1260.64
649.06	1253.93
649.41	1247.67
649.75	1241.29
650.09	1234.86
650.43	1228.21
650.78	1221.69
651.12	1215.76
651.46	1209.48
651.80	1202.45
652.14	1196.43
652.49	1191.40
652.83	1183.55
653.17	1176.07
653.51	1168.74
653.85	1162.48
654.20	1156.45
654.54	1149.45
654.88	1142.14
655.22	1135.69
655.56	1129.29
655.90	1122.93
656.25	1117.19
656.59	1110.71
656.93	1104.60
657.27	1099.38
657.61	1092.40
657.95	1086.12
658.29	1080.12
658.64	1074.79
658.98	1068.00
659.32	1060.88
659.66	1054.69
660.00	1048.81
660.34	1042.98
660.68	1037.12
661.02	1030.21
661.36	1023.88
661.70	1017.90
662.05	1011.95
662.39	1005.67
662.73	999.67
663.07	994.79
663.41	988.05
663.75	981.33
664.09	975.19
664.43	968.12
664.77	962.38
665.11	956.50
665.45	949.88
665.79	943.45
666.13	937.31
666.47	931.55
666.81	925.43
667.15	919.29
667.49	913.64
667.83	908.62
668.17	903.93
668.51	898.38
668.85	893.07
669.19	889.00
669.53	882.43
669.87	876.62
670.21	870.00
670.55	864.43
670.89	859.86
671.23	853.86
671.57	848.76
671.91	843.69
672.25	837.93
672.58	833.40
672.92	827.64
673.26	822.83
673.60	817.79
673.94	811.98
674.28	806.86
674.62	802.14
674.96	796.76
675.30	791.19
675.64	785.88
675.97	780.52
676.31	774.21
676.65	769.64
676.99	765.19
677.33	759.88
677.67	755.45
678.01	749.67
678.34	745.38
678.68	741.14
679.02	736.40
679.36	731.19
679.70	725.69
680.04	720.64
680.37	715.62
680.71	710.55
681.05	706.55
681.39	702.24
681.73	697.07
682.06	692.10
682.40	687.83
682.74	683.43
683.08	679.71
683.42	675.31
683.75	671.21
684.09	665.76
684.43	660.98
684.77	656.14
685.10	651.90
685.44	646.98
685.78	641.98
686.12	637.38
686.45	632.69
686.79	628.36
687.13	625.05
687.46	620.67
687.80	617.00
688.14	612.12
688.48	607.90
688.81	603.57
689.15	600.10
689.49	595.45
689.82	590.71
690.16	585.64
690.50	581.64
690.83	577.21
691.17	573.31
691.51	569.36
691.84	565.48
692.18	561.45
692.52	557.69
692.85	554.19
693.19	550.86
693.52	547.52
693.86	543.50
694.20	539.50
694.53	535.95
694.87	532.14
695.21	528.43
695.54	524.36
695.88	520.29
696.21	515.43
696.55	512.00
696.88	508.76
697.22	505.29
697.56	501.45
697.89	497.29
698.23	494.02
698.56	490.79
698.90	487.48
699.23	483.52
699.57	480.40
699.90	476.60
700.24	472.98
700.58	469.21
700.91	466.74
701.25	465.02
701.58	462.52
701.92	460.19
702.25	457.48
702.59	454.48
702.92	451.45
703.26	449.31
703.59	446.67
703.93	445.83
704.26	443.45
704.60	440.95
704.93	438.60
705.26	435.79
705.60	433.69
705.93	430.50
706.27	428.86
706.60	426.38
706.94	424.98
707.27	421.88
707.61	420.02
707.94	417.50
708.27	413.48
708.61	410.07
708.94	406.95
709.28	404.52
709.61	402.29
709.94	400.31
710.28	397.86
710.61	395.55
710.95	391.14
711.28	390.36
711.61	388.00
711.95	386.40
712.28	383.83
712.61	381.07
712.95	380.07
713.28	378.83
713.61	376.48
713.95	373.57
714.28	371.95
714.61	370.00
714.95	367.81
715.28	365.38
715.61	363.38
715.95	361.86
716.28	359.90
716.61	358.67
716.95	356.79
717.28	354.90
717.61	352.76
717.94	351.24
718.28	347.83
718.61	346.26
718.94	344.43
719.27	342.60
719.61	341.17
719.94	338.95
720.27	336.29
720.60	334.76
720.94	333.17
721.27	332.05
721.60	330.50
721.93	329.05
722.27	328.71
722.60	327.90
722.93	326.26
723.26	324.90
723.59	322.71
723.93	321.86
724.26	320.50
724.59	319.40
724.92	318.14
725.25	317.45
725.59	316.05
725.92	314.71
726.25	313.83
726.58	312.69
726.91	311.33
727.24	310.26
727.57	309.14
727.91	307.64
728.24	305.98
728.57	304.57
728.90	303.90
729.23	301.93
729.56	301.67
729.89	300.43
730.22	299.19
730.55	298.10
730.89	296.90
731.22	296.10
731.55	294.74
731.88	293.71
732.21	292.43
732.54	291.24
732.87	290.38
733.20	289.71
733.53	288.74
733.86	288.14
734.19	286.90
734.52	286.24
734.85	287.00
735.18	286.14
735.51	286.10
735.84	285.12
736.17	284.74
736.50	282.93
736.83	284.48
737.16	284.00
737.49	283.60
737.82	282.76
738.15	282.26
738.48	281.57
738.81	280.60
739.14	279.67
739.47	279.10
739.80	278.24
740.13	277.38
740.46	276.48
740.79	275.62
741.12	275.00
741.45	274.12
741.78	272.05
742.11	272.00
742.44	270.95
742.77	270.60
743.10	269.62
743.43	268.93
743.75	266.24
744.08	267.74
744.41	266.67
744.74	265.86
745.07	264.81
745.40	264.43
745.73	264.74
746.06	264.14
746.39	263.64
746.71	262.79
747.04	262.12
747.37	261.45
747.70	261.26
748.03	260.74
748.36	260.45
748.68	260.05
749.01	258.81
749.34	258.10
749.67	257.24
750.00	257.07
750.33	258.00
750.65	257.83
750.98	255.21
751.31	254.74
751.64	254.29
751.97	255.19
752.29	254.74
752.62	253.43
752.95	252.93
753.28	252.36
753.60	252.02
753.93	252.07
754.26	251.83
754.59	250.52
754.91	249.71
755.24	249.05
755.57	248.60
755.90	248.10
756.22	247.62
756.55	246.98
756.88	246.26
757.20	244.55
757.53	243.31
757.86	242.74
758.19	242.74
758.51	242.29
758.84	240.69
759.17	240.36
759.49	240.05
759.82	240.67
760.15	240.50
760.47	240.07
760.80	239.31
761.13	239.19
761.45	239.00
761.78	238.93
762.11	238.60
762.43	238.07
762.76	237.81
763.08	237.86
763.41	237.79
763.74	237.71
764.06	237.50
764.39	237.43
764.71	237.38
765.04	236.74
765.37	236.24
765.69	235.88
766.02	235.57
766.34	235.14
766.67	233.98
767.00	234.14
767.32	235.10
767.65	236.07
767.97	235.40
768.30	235.31
768.62	234.88
768.95	234.50
769.27	234.21
769.60	234.45
769.92	233.71
770.25	232.95
770.57	232.14
770.90	231.76
771.22	231.40
771.55	231.14
771.87	231.31
772.20	231.14
772.52	232.60
772.85	234.62
773.17	234.64
773.50	234.71
773.82	234.12
774.15	232.98
774.47	231.24
774.80	231.10
775.12	230.71
775.45	230.60
775.77	230.57
776.09	230.69
776.42	230.10
776.74	230.83
777.07	230.81
777.39	231.02
777.72	230.79
778.04	230.88
778.36	230.40
778.69	230.19
779.01	230.40
779.33	228.52
779.66	226.19
779.98	225.74
780.31	225.43
780.63	226.12
780.95	226.29
781.28	226.31
781.60	225.90
781.92	226.00
782.25	226.10
782.57	225.95
782.89	225.64
783.22	225.62
783.54	225.00
783.86	225.00
784.19	224.52
784.51	225.17
784.83	224.74
785.16	224.71
