SpectraSuite Data File
++++++++++++++++++++++++++++++++++++
Date: Tue Apr 02 18:46:55 EDT 2013
User: group
Dark Spectrum Present: No
Reference Spectrum Present: No
Number of Sampled Component Spectra: 1
Spectrometers: USB2E7196
Integration Time (usec): 580000 (USB2E7196)
Spectra Averaged: 2 (USB2E7196)
Boxcar Smoothing: 10 (USB2E7196)
Correct for Electrical Dark: No (USB2E7196)
Strobe/Lamp Enabled: No (USB2E7196)
Correct for Detector Non-linearity: No (USB2E7196)
Correct for Stray Light: No (USB2E7196)
Number of Pixels in Processed Spectrum: 2048
>>>>>Begin Processed Spectral Data<<<<<
339.09	0.00
339.48	191.00
339.86	190.00
340.24	196.00
340.63	195.00
341.01	232.00
341.39	198.00
341.78	200.50
342.16	209.00
342.54	202.50
342.93	196.07
343.31	205.83
343.69	206.55
344.07	207.36
344.46	208.02
344.84	208.55
345.22	207.26
345.60	207.93
345.99	208.38
346.37	208.50
346.75	208.69
347.13	208.69
347.52	209.10
347.90	209.62
348.28	209.48
348.66	209.81
349.05	209.26
349.43	209.57
349.81	209.81
350.19	209.90
350.57	210.07
350.96	210.48
351.34	211.00
351.72	211.29
352.10	211.36
352.48	211.31
352.87	211.38
353.25	211.43
353.63	211.26
354.01	211.17
354.39	211.00
354.77	211.29
355.15	211.95
355.54	211.71
355.92	211.12
356.30	211.36
356.68	212.52
357.06	212.95
357.44	212.69
357.82	212.60
358.20	213.67
358.58	213.76
358.97	214.02
359.35	214.17
359.73	214.40
360.11	214.48
360.49	214.83
360.87	215.17
361.25	215.57
361.63	216.45
362.01	216.88
362.39	217.05
362.77	217.21
363.15	217.05
363.53	217.19
363.91	217.38
364.29	217.17
364.67	215.55
365.05	215.86
365.43	216.21
365.81	216.50
366.19	216.52
366.57	217.26
366.95	217.19
367.33	216.88
367.71	216.98
368.09	217.55
368.47	217.36
368.85	217.17
369.23	217.83
369.61	217.02
369.99	217.40
370.37	217.71
370.75	218.67
371.13	218.40
371.51	218.07
371.89	218.21
372.27	218.45
372.65	218.38
373.03	218.45
373.41	218.05
373.78	217.93
374.16	217.12
374.54	216.57
374.92	216.36
375.30	216.31
375.68	215.98
376.06	215.90
376.44	215.79
376.82	216.05
377.19	215.64
377.57	215.55
377.95	215.21
378.33	214.86
378.71	213.55
379.09	213.90
379.47	214.29
379.84	214.10
380.22	214.10
380.60	213.86
380.98	213.38
381.36	213.43
381.73	213.12
382.11	213.57
382.49	213.55
382.87	213.02
383.25	213.24
383.62	215.52
384.00	215.05
384.38	215.05
384.76	215.29
385.13	215.90
385.51	216.05
385.89	215.48
386.27	215.90
386.64	216.19
387.02	215.90
387.40	215.69
387.78	215.98
388.15	215.93
388.53	215.93
388.91	216.24
389.29	216.07
389.66	216.45
390.04	215.95
390.42	216.31
390.79	216.86
391.17	216.64
391.55	214.26
391.92	214.19
392.30	214.60
392.68	214.17
393.05	213.93
393.43	213.95
393.81	214.14
394.18	213.64
394.56	213.67
394.94	214.12
395.31	213.93
395.69	214.31
396.06	214.48
396.44	214.57
396.82	214.17
397.19	215.21
397.57	215.00
397.95	215.29
398.32	214.55
398.70	214.50
399.07	215.05
399.45	215.07
399.82	215.24
400.20	215.07
400.58	215.19
400.95	214.50
401.33	215.02
401.70	216.40
402.08	216.69
402.45	216.71
402.83	217.14
403.20	217.45
403.58	217.50
403.95	217.79
404.33	218.45
404.71	218.67
405.08	219.93
405.46	220.24
405.83	220.50
406.21	221.00
406.58	221.52
406.96	221.60
407.33	222.38
407.70	223.00
408.08	225.10
408.45	225.83
408.83	226.95
409.20	227.10
409.58	226.48
409.95	227.74
410.33	228.69
410.70	228.81
411.08	229.90
411.45	230.86
411.82	231.64
412.20	233.12
412.57	235.67
412.95	235.29
413.32	237.12
413.69	238.57
414.07	240.33
414.44	242.17
414.82	244.00
415.19	246.12
415.56	248.36
415.94	249.36
416.31	251.95
416.68	254.52
417.06	257.88
417.43	261.67
417.81	265.10
418.18	268.62
418.55	272.48
418.93	276.69
419.30	280.74
419.67	285.14
420.04	289.31
420.42	293.38
420.79	300.12
421.16	305.57
421.54	312.74
421.91	319.07
422.28	325.19
422.66	331.76
423.03	339.52
423.40	346.14
423.77	353.24
424.15	360.57
424.52	368.21
424.89	376.36
425.26	384.02
425.64	391.48
426.01	399.88
426.38	408.74
426.75	418.12
427.13	427.17
427.50	437.07
427.87	446.98
428.24	456.90
428.61	464.93
428.99	475.95
429.36	485.90
429.73	496.83
430.10	508.29
430.47	520.48
430.85	531.17
431.22	543.98
431.59	559.26
431.96	572.00
432.33	585.86
432.70	600.07
433.08	615.88
433.45	630.52
433.82	645.48
434.19	662.71
434.56	678.60
434.93	694.38
435.30	710.19
435.68	728.05
436.05	744.52
436.42	762.10
436.79	777.95
437.16	795.19
437.53	813.00
437.90	830.83
438.27	848.33
438.64	866.81
439.01	884.26
439.38	897.52
439.75	911.88
440.13	929.17
440.50	944.33
440.87	957.26
441.24	971.00
441.61	985.26
441.98	995.36
442.35	1007.60
442.72	1020.69
443.09	1033.90
443.46	1041.02
443.83	1046.38
444.20	1051.71
444.57	1057.74
444.94	1061.21
445.31	1064.83
445.68	1070.45
446.05	1071.69
446.42	1069.57
446.79	1068.17
447.16	1066.12
447.53	1065.64
447.90	1058.31
448.27	1052.60
448.64	1043.88
449.01	1037.69
449.37	1027.19
449.74	1016.67
450.11	1005.55
450.48	990.60
450.85	975.19
451.22	962.90
451.59	951.95
451.96	940.10
452.33	924.60
452.70	910.55
453.07	893.50
453.43	873.36
453.80	857.45
454.17	842.36
454.54	826.60
454.91	810.67
455.28	794.50
455.65	780.38
456.02	769.12
456.38	756.62
456.75	741.40
457.12	727.71
457.49	715.40
457.86	701.33
458.23	691.67
458.59	679.83
458.96	667.81
459.33	657.24
459.70	646.64
460.07	638.50
460.43	628.98
460.80	620.62
461.17	613.79
461.54	604.88
461.91	596.86
462.27	588.71
462.64	581.69
463.01	574.12
463.38	567.69
463.74	556.38
464.11	549.55
464.48	543.38
464.85	537.50
465.21	532.52
465.58	527.81
465.95	521.17
466.32	516.19
466.68	511.05
467.05	505.64
467.42	500.40
467.78	494.79
468.15	489.88
468.52	485.86
468.88	480.74
469.25	476.10
469.62	472.86
469.98	468.98
470.35	465.21
470.72	461.86
471.08	456.98
471.45	454.26
471.82	451.93
472.18	449.05
472.55	447.02
472.92	443.52
473.28	440.83
473.65	437.81
474.02	435.00
474.38	432.88
474.75	430.93
475.11	428.86
475.48	427.60
475.85	425.81
476.21	423.81
476.58	422.19
476.94	421.05
477.31	419.21
477.67	418.26
478.04	417.95
478.41	417.19
478.77	418.69
479.14	417.38
479.50	416.62
479.87	415.88
480.23	415.21
480.60	415.26
480.96	415.02
481.33	416.05
481.69	416.19
482.06	416.48
482.42	417.02
482.79	417.45
483.15	417.88
483.52	418.48
483.88	418.93
484.25	419.64
484.61	420.93
484.98	421.86
485.34	423.71
485.71	424.74
486.07	425.86
486.44	425.76
486.80	427.48
487.17	429.12
487.53	431.81
487.90	433.90
488.26	436.76
488.62	439.10
488.99	440.86
489.35	443.71
489.72	446.40
490.08	449.12
490.44	451.38
490.81	454.50
491.17	457.26
491.54	461.24
491.90	464.69
492.26	467.98
492.63	471.79
492.99	474.90
493.36	478.98
493.72	483.55
494.08	487.43
494.45	492.43
494.81	497.07
495.17	500.95
495.54	505.88
495.90	510.07
496.26	515.05
496.63	520.88
496.99	525.74
497.35	531.57
497.72	537.33
498.08	543.48
498.44	549.29
498.80	556.02
499.17	562.02
499.53	568.69
499.89	575.90
500.26	582.76
500.62	589.69
500.98	597.00
501.34	604.14
501.71	612.69
502.07	619.29
502.43	626.74
502.79	633.93
503.16	640.98
503.52	648.29
503.88	655.10
504.24	662.74
504.60	670.52
504.97	678.07
505.33	685.36
505.69	694.00
506.05	701.83
506.41	709.43
506.78	716.93
507.14	724.36
507.50	732.02
507.86	739.19
508.22	747.40
508.59	754.45
508.95	762.07
509.31	770.50
509.67	778.43
510.03	785.69
510.39	793.79
510.75	801.50
511.12	809.00
511.48	817.57
511.84	824.71
512.20	832.38
512.56	840.10
512.92	847.57
513.28	855.07
513.64	862.55
514.00	869.71
514.37	877.17
514.73	884.86
515.09	892.12
515.45	900.10
515.81	906.57
516.17	913.40
516.53	919.67
516.89	924.21
517.25	930.88
517.61	937.81
517.97	944.26
518.33	951.24
518.69	958.19
519.05	963.90
519.41	970.05
519.77	978.19
520.13	983.95
520.49	989.67
520.85	994.83
521.21	1000.79
521.57	1006.69
521.93	1011.62
522.29	1017.02
522.65	1022.17
523.01	1027.26
523.37	1032.26
523.73	1037.83
524.09	1043.17
524.45	1047.98
524.81	1052.88
525.17	1057.48
525.53	1062.40
525.89	1066.76
526.25	1071.60
526.61	1076.10
526.97	1080.07
527.33	1083.29
527.68	1089.10
528.04	1094.45
528.40	1099.19
528.76	1102.52
529.12	1106.86
529.48	1111.93
529.84	1116.21
530.20	1120.17
530.56	1124.36
530.91	1128.60
531.27	1132.79
531.63	1137.36
531.99	1141.40
532.35	1145.07
532.71	1149.76
533.07	1153.79
533.42	1160.38
533.78	1164.33
534.14	1169.17
534.50	1173.00
534.86	1177.07
535.21	1179.14
535.57	1183.12
535.93	1186.05
536.29	1192.14
536.65	1196.05
537.00	1199.40
537.36	1202.93
537.72	1206.33
538.08	1210.43
538.44	1213.74
538.79	1217.02
539.15	1219.43
539.51	1223.45
539.87	1226.60
540.22	1229.31
540.58	1232.38
540.94	1233.36
541.29	1236.17
541.65	1238.33
542.01	1241.95
542.37	1243.76
542.72	1246.26
543.08	1247.79
543.44	1250.95
543.79	1251.36
544.15	1254.31
544.51	1257.40
544.87	1260.02
545.22	1262.83
545.58	1265.57
545.94	1268.36
546.29	1270.81
546.65	1273.76
547.01	1276.57
547.36	1279.93
547.72	1282.31
548.07	1285.00
548.43	1287.24
548.79	1289.57
549.14	1292.19
549.50	1294.98
549.86	1297.19
550.21	1300.55
550.57	1304.38
550.92	1306.83
551.28	1310.67
551.64	1313.52
551.99	1316.17
552.35	1318.17
552.70	1320.83
553.06	1323.24
553.41	1326.19
553.77	1330.52
554.13	1333.67
554.48	1337.55
554.84	1341.40
555.19	1345.43
555.55	1350.64
555.90	1354.14
556.26	1357.45
556.61	1361.21
556.97	1364.52
557.32	1368.69
557.68	1372.17
558.03	1375.26
558.39	1379.36
558.74	1382.81
559.10	1386.62
559.45	1390.83
559.81	1395.69
560.16	1399.67
560.52	1403.45
560.87	1408.33
561.23	1410.64
561.58	1416.12
561.94	1419.50
562.29	1423.05
562.64	1427.12
563.00	1429.71
563.35	1434.93
563.71	1440.00
564.06	1444.76
564.42	1449.52
564.77	1454.95
565.12	1461.38
565.48	1469.45
565.83	1475.26
566.19	1480.74
566.54	1485.76
566.89	1491.29
567.25	1497.36
567.60	1504.86
567.96	1511.95
568.31	1518.10
568.66	1525.50
569.02	1530.07
569.37	1535.67
569.72	1541.36
570.08	1546.69
570.43	1552.50
570.78	1557.98
571.14	1563.55
571.49	1568.00
571.84	1573.88
572.20	1578.76
572.55	1582.62
572.90	1584.00
573.26	1588.00
573.61	1592.76
573.96	1597.24
574.31	1601.24
574.67	1604.60
575.02	1607.83
575.37	1610.90
575.72	1613.26
576.08	1616.62
576.43	1620.38
576.78	1623.74
577.13	1627.33
577.49	1631.33
577.84	1635.10
578.19	1638.12
578.54	1641.31
578.90	1646.12
579.25	1649.57
579.60	1652.98
579.95	1656.55
580.30	1662.02
580.66	1665.83
581.01	1668.71
581.36	1671.29
581.71	1675.00
582.06	1680.07
582.42	1684.05
582.77	1686.69
583.12	1690.74
583.47	1694.10
583.82	1697.71
584.17	1700.95
584.53	1705.24
584.88	1708.79
585.23	1712.69
585.58	1715.38
585.93	1718.64
586.28	1721.57
586.63	1724.29
586.98	1727.60
587.34	1731.33
587.69	1733.48
588.04	1736.95
588.39	1740.90
588.74	1743.12
589.09	1745.95
589.44	1746.40
589.79	1747.12
590.14	1749.10
590.49	1750.57
590.84	1751.93
591.19	1755.10
591.54	1757.45
591.89	1758.55
592.25	1761.38
592.60	1761.83
592.95	1764.38
593.30	1766.50
593.65	1767.98
594.00	1768.90
594.35	1776.17
594.70	1776.50
595.05	1777.55
595.40	1777.86
595.75	1777.64
596.10	1779.83
596.45	1780.88
596.80	1782.31
597.15	1784.52
597.50	1785.86
597.85	1787.88
598.19	1788.98
598.54	1788.45
598.89	1789.14
599.24	1789.38
599.59	1789.07
599.94	1790.12
600.29	1790.52
600.64	1790.33
600.99	1790.14
601.34	1791.00
601.69	1785.12
602.04	1783.60
602.39	1782.95
602.74	1783.52
603.08	1783.74
603.43	1784.57
603.78	1784.26
604.13	1784.36
604.48	1783.02
604.83	1783.67
605.18	1783.69
605.53	1783.76
605.87	1783.10
606.22	1783.12
606.57	1783.10
606.92	1781.07
607.27	1780.14
607.62	1779.86
607.96	1778.64
608.31	1778.38
608.66	1778.00
609.01	1776.00
609.36	1777.40
609.70	1777.07
610.05	1775.33
610.40	1773.40
610.75	1770.76
611.10	1769.02
611.44	1766.55
611.79	1765.36
612.14	1762.07
612.49	1757.90
612.83	1754.95
613.18	1753.07
613.53	1749.55
613.88	1746.21
614.22	1743.88
614.57	1740.90
614.92	1736.98
615.27	1734.48
615.61	1730.62
615.96	1726.55
616.31	1724.24
616.65	1721.21
617.00	1718.00
617.35	1713.95
617.70	1710.88
618.04	1706.90
618.39	1703.31
618.74	1699.76
619.08	1696.14
619.43	1693.12
619.78	1691.12
620.12	1688.17
620.47	1683.81
620.82	1679.83
621.16	1675.95
621.51	1673.00
621.85	1668.52
622.20	1664.98
622.55	1660.52
622.89	1656.98
623.24	1654.00
623.59	1650.24
623.93	1646.10
624.28	1641.26
624.62	1639.88
624.97	1636.67
625.32	1633.52
625.66	1629.52
626.01	1625.24
626.35	1621.88
626.70	1618.19
627.04	1614.29
627.39	1609.74
627.73	1606.43
628.08	1603.36
628.43	1600.17
628.77	1596.14
629.12	1593.14
629.46	1589.57
629.81	1586.10
630.15	1581.67
630.50	1577.52
630.84	1573.21
631.19	1567.98
631.53	1563.79
631.88	1556.88
632.22	1551.60
632.57	1547.64
632.91	1541.67
633.26	1538.36
633.60	1532.10
633.95	1527.00
634.29	1521.17
634.64	1516.79
634.98	1512.17
635.32	1507.26
635.67	1502.98
636.01	1497.98
636.36	1492.36
636.70	1487.21
637.05	1482.31
637.39	1478.52
637.73	1473.93
638.08	1469.52
638.42	1464.86
638.77	1460.50
639.11	1456.60
639.45	1452.10
639.80	1446.24
640.14	1442.26
640.49	1436.38
640.83	1432.10
641.17	1426.88
641.52	1422.36
641.86	1417.26
642.20	1412.10
642.55	1406.50
642.89	1400.69
643.23	1395.33
643.58	1391.69
643.92	1385.52
644.26	1380.86
644.61	1375.17
644.95	1368.62
645.29	1362.45
645.64	1357.79
645.98	1352.00
646.32	1346.57
646.66	1340.52
647.01	1335.07
647.35	1330.43
647.69	1325.07
648.04	1320.21
648.38	1314.76
648.72	1309.83
649.06	1304.07
649.41	1298.48
649.75	1293.45
650.09	1287.67
650.43	1281.98
650.78	1275.07
651.12	1269.45
651.46	1263.29
651.80	1257.14
652.14	1251.07
652.49	1245.19
652.83	1238.60
653.17	1232.69
653.51	1226.14
653.85	1220.67
654.20	1214.95
654.54	1207.90
654.88	1202.19
655.22	1195.93
655.56	1189.76
655.90	1182.88
656.25	1176.69
656.59	1170.24
656.93	1163.74
657.27	1158.26
657.61	1151.93
657.95	1146.02
658.29	1140.50
658.64	1134.95
658.98	1128.69
659.32	1122.31
659.66	1115.98
660.00	1109.36
660.34	1103.38
660.68	1097.57
661.02	1091.52
661.36	1085.26
661.70	1079.55
662.05	1073.21
662.39	1066.86
662.73	1062.02
663.07	1057.10
663.41	1051.60
663.75	1045.71
664.09	1040.76
664.43	1033.83
664.77	1027.81
665.11	1021.62
665.45	1015.29
665.79	1008.62
666.13	1003.02
666.47	997.79
666.81	992.52
667.15	987.31
667.49	982.48
667.83	977.71
668.17	971.83
668.51	966.57
668.85	961.31
669.19	956.67
669.53	950.33
669.87	943.90
670.21	937.76
670.55	931.95
670.89	927.19
671.23	921.57
671.57	916.12
671.91	911.38
672.25	906.71
672.58	902.60
672.92	897.33
673.26	892.02
673.60	886.64
673.94	880.81
674.28	875.57
674.62	870.43
674.96	864.81
675.30	860.12
675.64	855.36
675.97	850.74
676.31	845.55
676.65	841.24
676.99	837.31
677.33	832.45
677.67	827.67
678.01	822.10
678.34	816.45
678.68	812.86
679.02	807.31
679.36	802.17
679.70	796.55
680.04	791.98
680.37	787.52
680.71	782.90
681.05	779.31
681.39	774.79
681.73	769.62
682.06	764.33
682.40	759.60
682.74	754.71
683.08	750.90
683.42	745.48
683.75	740.67
684.09	734.95
684.43	730.10
684.77	725.00
685.10	720.14
685.44	715.71
685.78	710.40
686.12	705.86
686.45	700.93
686.79	695.81
687.13	690.98
687.46	686.05
687.80	682.02
688.14	676.86
688.48	672.36
688.81	667.48
689.15	664.14
689.49	659.31
689.82	654.55
690.16	648.60
690.50	644.33
690.83	640.14
691.17	635.55
691.51	630.79
691.84	626.74
692.18	622.62
692.52	618.62
692.85	614.93
693.19	611.52
693.52	607.02
693.86	602.76
694.20	598.52
694.53	594.86
694.87	590.57
695.21	586.24
695.54	581.88
695.88	577.62
696.21	572.12
696.55	568.24
696.88	564.76
697.22	560.67
697.56	557.38
697.89	553.21
698.23	550.10
698.56	546.29
698.90	542.40
699.23	538.62
699.57	534.76
699.90	530.69
700.24	526.43
700.58	523.31
700.91	520.55
701.25	518.90
701.58	515.81
701.92	512.74
702.25	509.98
702.59	506.60
702.92	503.45
703.26	500.55
703.59	497.55
703.93	495.60
704.26	492.71
704.60	489.38
704.93	486.21
705.26	482.64
705.60	480.19
705.93	477.29
706.27	474.86
706.60	472.07
706.94	469.98
707.27	466.98
707.61	464.43
707.94	461.50
708.27	456.98
708.61	453.43
708.94	450.38
709.28	447.79
709.61	445.36
709.94	442.69
710.28	440.17
710.61	437.43
710.95	433.05
711.28	431.71
711.61	429.45
711.95	427.24
712.28	424.93
712.61	422.45
712.95	420.93
713.28	418.86
713.61	416.33
713.95	413.40
714.28	411.64
714.61	408.90
714.95	406.55
715.28	404.02
715.61	401.64
715.95	399.36
716.28	396.52
716.61	394.57
716.95	392.10
717.28	390.05
717.61	387.74
717.94	385.64
718.28	382.12
718.61	379.88
718.94	377.86
719.27	375.88
719.61	373.71
719.94	370.86
720.27	368.10
720.60	365.67
720.94	363.57
721.27	361.26
721.60	359.52
721.93	357.36
722.27	356.29
722.60	354.48
722.93	352.62
723.26	351.26
723.59	349.10
723.93	348.00
724.26	346.43
724.59	344.90
724.92	343.48
725.25	342.40
725.59	340.67
725.92	339.24
726.25	337.52
726.58	336.12
726.91	334.79
727.24	333.81
727.57	333.02
727.91	331.19
728.24	330.19
728.57	328.67
728.90	327.52
729.23	325.50
729.56	325.02
729.89	323.62
730.22	322.17
730.55	320.86
730.89	319.24
731.22	317.83
731.55	316.60
731.88	315.74
732.21	314.60
732.54	313.19
732.87	311.79
733.20	310.83
733.53	310.02
733.86	309.36
734.19	308.10
734.52	307.10
734.85	307.86
735.18	306.31
735.51	305.83
735.84	304.83
736.17	304.36
736.50	302.52
736.83	303.98
737.16	303.00
737.49	302.21
737.82	301.14
738.15	300.19
738.48	299.38
738.81	298.07
739.14	296.50
739.47	295.33
739.80	294.38
740.13	293.67
740.46	292.21
740.79	290.88
741.12	289.83
741.45	288.36
741.78	285.98
742.11	285.83
742.44	284.14
742.77	283.71
743.10	282.62
743.43	281.69
743.75	278.43
744.08	280.31
744.41	279.48
744.74	278.76
745.07	277.76
745.40	276.88
745.73	276.71
746.06	276.21
746.39	275.88
746.71	275.21
747.04	273.98
747.37	273.02
747.70	272.45
748.03	271.69
748.36	271.33
748.68	270.55
749.01	269.29
749.34	269.02
749.67	268.43
750.00	268.00
750.33	269.07
750.65	268.76
750.98	265.29
751.31	264.64
751.64	264.17
751.97	264.98
752.29	264.48
752.62	262.88
752.95	262.19
753.28	261.43
753.60	260.60
753.93	260.67
754.26	260.40
754.59	259.50
754.91	258.88
755.24	258.31
755.57	257.98
755.90	257.36
756.22	256.69
756.55	255.71
756.88	254.88
757.20	252.62
757.53	251.76
757.86	251.74
758.19	251.19
758.51	250.60
758.84	248.48
759.17	247.90
759.49	247.93
759.82	248.38
760.15	248.05
760.47	247.52
760.80	246.40
761.13	246.31
761.45	245.81
761.78	245.29
762.11	245.07
762.43	244.24
762.76	243.67
763.08	243.29
763.41	243.05
763.74	242.74
764.06	242.48
764.39	242.29
764.71	241.57
765.04	241.05
765.37	240.60
765.69	240.62
766.02	240.21
766.34	239.50
766.67	238.43
767.00	238.40
767.32	239.38
767.65	240.29
767.97	239.83
768.30	239.60
768.62	239.24
768.95	238.79
769.27	238.64
769.60	238.83
769.92	238.40
770.25	237.90
770.57	237.38
770.90	237.17
771.22	236.48
771.55	236.36
771.87	236.10
772.20	235.71
772.52	237.24
772.85	239.48
773.17	239.52
773.50	239.24
773.82	238.71
774.15	237.31
774.47	235.81
774.80	235.31
775.12	235.05
775.45	234.95
775.77	234.71
776.09	234.79
776.42	234.38
776.74	235.00
777.07	234.64
777.39	234.48
777.72	234.07
778.04	234.07
778.36	233.52
778.69	233.69
779.01	233.79
779.33	231.88
779.66	229.17
779.98	228.71
780.31	228.62
780.63	229.38
780.95	229.81
781.28	229.67
781.60	229.31
781.92	229.29
782.25	228.95
782.57	228.60
782.89	228.19
783.22	227.88
783.54	227.02
783.86	227.10
784.19	226.83
784.51	227.45
784.83	227.07
