SpectraSuite Data File
++++++++++++++++++++++++++++++++++++
Date: Tue Apr 02 18:40:35 EDT 2013
User: group
Dark Spectrum Present: No
Reference Spectrum Present: No
Number of Sampled Component Spectra: 1
Spectrometers: USB2E7196
Integration Time (usec): 580000 (USB2E7196)
Spectra Averaged: 2 (USB2E7196)
Boxcar Smoothing: 10 (USB2E7196)
Correct for Electrical Dark: No (USB2E7196)
Strobe/Lamp Enabled: No (USB2E7196)
Correct for Detector Non-linearity: No (USB2E7196)
Correct for Stray Light: No (USB2E7196)
Number of Pixels in Processed Spectrum: 2048
>>>>>Begin Processed Spectral Data<<<<<
339.09	0.00
339.48	193.50
339.86	195.50
340.24	198.00
340.63	197.50
341.01	229.00
341.39	200.00
341.78	206.00
342.16	215.00
342.54	202.50
342.93	197.45
343.31	207.31
343.69	207.76
344.07	208.33
344.46	208.90
344.84	209.36
345.22	208.17
345.60	208.60
345.99	208.67
346.37	208.26
346.75	208.57
347.13	208.50
347.52	208.57
347.90	209.31
348.28	209.33
348.66	209.60
349.05	209.05
349.43	209.12
349.81	209.38
350.19	209.45
350.57	209.33
350.96	209.38
351.34	209.64
351.72	209.95
352.10	209.90
352.48	209.81
352.87	209.74
353.25	210.05
353.63	209.95
354.01	209.90
354.39	210.10
354.77	209.95
355.15	210.50
355.54	210.43
355.92	209.79
356.30	209.76
356.68	211.24
357.06	211.24
357.44	211.33
357.82	211.14
358.20	212.31
358.58	212.64
358.97	212.93
359.35	213.17
359.73	213.45
360.11	213.52
360.49	213.71
360.87	214.12
361.25	214.33
361.63	215.19
362.01	215.45
362.39	215.45
362.77	215.88
363.15	215.83
363.53	216.07
363.91	216.10
364.29	216.05
364.67	214.14
365.05	214.21
365.43	214.43
365.81	214.95
366.19	214.74
366.57	215.48
366.95	215.36
367.33	214.88
367.71	214.98
368.09	215.64
368.47	215.57
368.85	215.38
369.23	215.52
369.61	214.83
369.99	215.57
370.37	215.98
370.75	216.83
371.13	216.71
371.51	216.40
371.89	216.71
372.27	217.00
372.65	217.31
373.03	217.48
373.41	217.40
373.78	217.12
374.16	216.21
374.54	215.60
374.92	215.43
375.30	215.62
375.68	215.24
376.06	215.19
376.44	215.10
376.82	215.43
377.19	215.45
377.57	215.43
377.95	214.52
378.33	214.31
378.71	213.05
379.09	213.26
379.47	213.43
379.84	213.17
380.22	212.98
380.60	212.57
380.98	212.40
381.36	212.10
381.73	211.86
382.11	212.50
382.49	212.69
382.87	212.52
383.25	212.69
383.62	215.02
384.00	214.57
384.38	214.64
384.76	214.98
385.13	215.81
385.51	215.74
385.89	215.67
386.27	215.71
386.64	216.10
387.02	215.74
387.40	215.81
387.78	216.05
388.15	216.19
388.53	215.83
388.91	215.71
389.29	215.93
389.66	216.43
390.04	216.14
390.42	216.48
390.79	216.55
391.17	216.38
391.55	214.17
391.92	214.05
392.30	214.21
392.68	213.76
393.05	213.50
393.43	213.55
393.81	213.88
394.18	213.67
394.56	213.81
394.94	214.36
395.31	214.05
395.69	214.55
396.06	214.88
396.44	215.43
396.82	215.57
397.19	216.38
397.57	216.21
397.95	216.50
398.32	215.88
398.70	216.31
399.07	216.93
399.45	217.00
399.82	217.14
400.20	217.07
400.58	217.07
400.95	216.40
401.33	217.07
401.70	218.62
402.08	218.83
402.45	218.95
402.83	219.36
403.20	219.79
403.58	219.64
403.95	220.00
404.33	220.62
404.71	221.05
405.08	222.45
405.46	222.76
405.83	223.19
406.21	223.52
406.58	223.67
406.96	223.79
407.33	224.17
407.70	224.88
408.08	227.29
408.45	228.07
408.83	229.02
409.20	229.07
409.58	228.31
409.95	229.52
410.33	230.38
410.70	230.79
411.08	232.05
411.45	233.24
411.82	234.05
412.20	235.76
412.57	237.86
412.95	237.40
413.32	239.19
413.69	240.60
414.07	242.57
414.44	244.50
414.82	246.55
415.19	249.29
415.56	251.69
415.94	252.88
416.31	256.05
416.68	259.19
417.06	262.93
417.43	266.67
417.81	270.00
418.18	274.21
418.55	278.17
418.93	282.24
419.30	286.55
419.67	291.14
420.04	295.45
420.42	300.31
420.79	307.95
421.16	313.62
421.54	320.57
421.91	327.07
422.28	333.69
422.66	340.93
423.03	349.00
423.40	356.19
423.77	363.79
424.15	371.07
424.52	379.55
424.89	388.55
425.26	397.07
425.64	405.05
426.01	413.36
426.38	422.45
426.75	432.50
427.13	442.36
427.50	452.69
427.87	463.12
428.24	473.26
428.61	482.29
428.99	494.55
429.36	505.76
429.73	517.29
430.10	529.81
430.47	542.26
430.85	553.88
431.22	567.24
431.59	582.79
431.96	596.19
432.33	610.90
432.70	625.50
433.08	642.57
433.45	659.26
433.82	675.24
434.19	693.17
434.56	710.74
434.93	727.10
435.30	743.86
435.68	762.74
436.05	781.19
436.42	799.43
436.79	815.88
437.16	834.67
437.53	853.86
437.90	872.00
438.27	889.83
438.64	908.43
439.01	926.31
439.38	940.95
439.75	956.50
440.13	974.02
440.50	990.48
440.87	1003.79
441.24	1017.52
441.61	1032.83
441.98	1044.62
442.35	1057.43
442.72	1070.71
443.09	1084.98
443.46	1092.79
443.83	1098.60
444.20	1103.95
444.57	1110.29
444.94	1113.74
445.31	1117.05
445.68	1123.05
446.05	1124.40
446.42	1122.98
446.79	1122.21
447.16	1119.76
447.53	1119.05
447.90	1112.02
448.27	1105.31
448.64	1096.45
449.01	1089.81
449.37	1078.55
449.74	1066.69
450.11	1054.60
450.48	1039.40
450.85	1022.07
451.22	1008.55
451.59	996.10
451.96	983.17
452.33	966.74
452.70	951.07
453.07	933.19
453.43	913.12
453.80	896.45
454.17	880.00
454.54	863.29
454.91	846.24
455.28	829.26
455.65	813.38
456.02	800.90
456.38	786.74
456.75	770.02
457.12	755.67
457.49	742.43
457.86	727.50
458.23	717.07
458.59	705.19
458.96	692.98
459.33	681.24
459.70	670.17
460.07	661.60
460.43	651.48
460.80	642.64
461.17	634.05
461.54	625.17
461.91	616.26
462.27	607.79
462.64	600.55
463.01	592.88
463.38	586.24
463.74	575.05
464.11	568.43
464.48	562.67
464.85	556.29
465.21	551.45
465.58	546.31
465.95	539.29
466.32	534.05
466.68	528.26
467.05	523.17
467.42	517.26
467.78	511.26
468.15	506.24
468.52	502.29
468.88	496.71
469.25	492.02
469.62	489.50
469.98	485.10
470.35	481.19
470.72	477.31
471.08	472.62
471.45	470.07
471.82	467.33
472.18	463.52
472.55	460.95
472.92	456.74
473.28	453.55
473.65	450.62
474.02	447.60
474.38	445.31
474.75	443.21
475.11	441.17
475.48	439.52
475.85	437.48
476.21	435.17
476.58	433.86
476.94	432.62
477.31	430.45
477.67	429.45
478.04	428.67
478.41	427.71
478.77	428.86
479.14	427.33
479.50	426.31
479.87	426.43
480.23	426.05
480.60	426.21
480.96	425.83
481.33	426.76
481.69	427.10
482.06	427.24
482.42	427.50
482.79	428.19
483.15	428.38
483.52	429.43
483.88	429.83
484.25	430.10
484.61	431.29
484.98	432.00
485.34	433.38
485.71	434.79
486.07	436.21
486.44	435.81
486.80	437.45
487.17	439.12
487.53	441.60
487.90	443.83
488.26	446.62
488.62	449.88
488.99	451.64
489.35	454.19
489.72	456.88
490.08	459.38
490.44	461.90
490.81	465.31
491.17	468.71
491.54	472.81
491.90	477.14
492.26	480.33
492.63	484.55
492.99	488.29
493.36	492.64
493.72	497.14
494.08	501.71
494.45	506.88
494.81	512.24
495.17	516.62
495.54	522.07
495.90	526.88
496.26	531.76
496.63	537.62
496.99	543.33
497.35	549.21
497.72	555.93
498.08	562.45
498.44	569.36
498.80	575.95
499.17	581.64
499.53	588.40
499.89	596.33
500.26	603.26
500.62	610.57
500.98	618.12
501.34	625.36
501.71	633.74
502.07	641.00
502.43	648.31
502.79	655.98
503.16	663.33
503.52	671.00
503.88	678.33
504.24	686.74
504.60	694.88
504.97	703.95
505.33	711.48
505.69	720.50
506.05	728.29
506.41	736.52
506.78	745.62
507.14	753.81
507.50	761.45
507.86	770.05
508.22	778.45
508.59	786.64
508.95	795.14
509.31	803.64
509.67	811.81
510.03	820.26
510.39	828.45
510.75	837.12
511.12	845.64
511.48	854.21
511.84	861.88
512.20	869.76
512.56	877.12
512.92	885.36
513.28	892.90
513.64	900.93
514.00	908.71
514.37	917.00
514.73	924.52
515.09	932.93
515.45	940.81
515.81	948.60
516.17	956.10
516.53	962.95
516.89	969.38
517.25	976.40
517.61	983.64
517.97	990.88
518.33	998.17
518.69	1004.93
519.05	1011.40
519.41	1018.43
519.77	1026.43
520.13	1033.24
520.49	1039.12
520.85	1045.33
521.21	1052.48
521.57	1059.31
521.93	1064.93
522.29	1071.86
522.65	1077.45
523.01	1083.71
523.37	1089.64
523.73	1095.43
524.09	1100.83
524.45	1106.31
524.81	1112.05
525.17	1117.71
525.53	1123.10
525.89	1127.43
526.25	1133.07
526.61	1139.14
526.97	1144.05
527.33	1148.86
527.68	1156.05
528.04	1161.64
528.40	1166.57
528.76	1171.00
529.12	1175.79
529.48	1180.98
529.84	1185.29
530.20	1190.69
530.56	1195.52
530.91	1200.31
531.27	1204.86
531.63	1210.62
531.99	1215.50
532.35	1220.67
532.71	1225.33
533.07	1231.14
533.42	1238.86
533.78	1244.10
534.14	1249.17
534.50	1254.48
534.86	1260.07
535.21	1262.98
535.57	1268.43
535.93	1273.40
536.29	1279.40
536.65	1283.57
537.00	1288.40
537.36	1293.36
537.72	1296.81
538.08	1301.50
538.44	1305.05
538.79	1309.76
539.15	1313.62
539.51	1318.02
539.87	1322.48
540.22	1326.62
540.58	1330.33
540.94	1332.76
541.29	1336.57
541.65	1339.07
542.01	1343.26
542.37	1345.88
542.72	1348.71
543.08	1351.40
543.44	1355.67
543.79	1357.29
544.15	1361.33
544.51	1365.76
544.87	1369.38
545.22	1373.29
545.58	1376.57
545.94	1380.86
546.29	1384.33
546.65	1388.14
547.01	1391.36
547.36	1393.88
547.72	1396.62
548.07	1400.21
548.43	1402.48
548.79	1405.21
549.14	1408.60
549.50	1411.74
549.86	1414.52
550.21	1418.98
550.57	1422.67
550.92	1425.33
551.28	1429.17
551.64	1432.83
551.99	1435.93
552.35	1439.33
552.70	1442.86
553.06	1446.21
553.41	1449.76
553.77	1454.90
554.13	1458.95
554.48	1464.48
554.84	1470.17
555.19	1475.29
555.55	1480.45
555.90	1485.86
556.26	1490.45
556.61	1495.43
556.97	1499.24
557.32	1503.86
557.68	1508.02
558.03	1512.86
558.39	1517.33
558.74	1522.62
559.10	1526.86
559.45	1530.83
559.81	1535.38
560.16	1539.67
560.52	1544.31
560.87	1549.60
561.23	1552.45
561.58	1558.81
561.94	1562.98
562.29	1566.81
562.64	1571.52
563.00	1575.00
563.35	1578.52
563.71	1583.76
564.06	1589.50
564.42	1594.88
564.77	1601.50
565.12	1607.57
565.48	1614.69
565.83	1620.79
566.19	1626.12
566.54	1632.10
566.89	1637.48
567.25	1644.17
567.60	1652.10
567.96	1659.24
568.31	1664.76
568.66	1671.14
569.02	1674.88
569.37	1679.33
569.72	1685.10
570.08	1689.26
570.43	1694.62
570.78	1700.76
571.14	1705.62
571.49	1709.79
571.84	1714.48
572.20	1717.45
572.55	1721.48
572.90	1724.19
573.26	1728.52
573.61	1731.62
573.96	1735.19
574.31	1738.26
574.67	1740.86
575.02	1743.07
575.37	1745.02
575.72	1746.79
576.08	1750.07
576.43	1753.33
576.78	1755.98
577.13	1758.64
577.49	1762.26
577.84	1765.17
578.19	1767.12
578.54	1769.48
578.90	1772.50
579.25	1774.36
579.60	1776.62
579.95	1777.26
580.30	1779.74
580.66	1781.21
581.01	1783.86
581.36	1785.10
581.71	1787.71
582.06	1790.12
582.42	1791.52
582.77	1793.31
583.12	1796.26
583.47	1798.10
583.82	1800.05
584.17	1802.38
584.53	1804.21
584.88	1805.38
585.23	1806.76
585.58	1807.62
585.93	1809.02
586.28	1809.43
586.63	1811.60
586.98	1812.74
587.34	1815.88
587.69	1815.60
588.04	1816.19
588.39	1817.12
588.74	1817.36
589.09	1818.12
589.44	1817.95
589.79	1819.14
590.14	1819.38
590.49	1818.07
590.84	1817.10
591.19	1817.38
591.54	1817.14
591.89	1815.86
592.25	1817.14
592.60	1815.76
592.95	1816.48
593.30	1816.43
593.65	1816.60
594.00	1814.55
594.35	1820.05
594.70	1818.19
595.05	1818.69
595.40	1818.31
595.75	1818.02
596.10	1818.31
596.45	1817.52
596.80	1816.83
597.15	1815.83
597.50	1814.40
597.85	1815.38
598.19	1813.76
598.54	1811.76
598.89	1810.29
599.24	1809.93
599.59	1808.14
599.94	1806.95
600.29	1805.31
600.64	1803.81
600.99	1801.81
601.34	1801.33
601.69	1793.33
602.04	1791.81
602.39	1789.17
602.74	1787.76
603.08	1785.48
603.43	1784.36
603.78	1781.88
604.13	1779.24
604.48	1776.19
604.83	1775.24
605.18	1772.76
605.53	1771.43
605.87	1768.36
606.22	1766.48
606.57	1763.57
606.92	1759.86
607.27	1757.81
607.62	1755.67
607.96	1753.36
608.31	1750.71
608.66	1748.26
609.01	1745.64
609.36	1742.76
609.70	1739.81
610.05	1735.36
610.40	1731.19
610.75	1726.81
611.10	1723.64
611.44	1719.48
611.79	1715.76
612.14	1710.93
612.49	1705.93
612.83	1701.26
613.18	1697.43
613.53	1693.17
613.88	1687.76
614.22	1683.62
614.57	1678.69
614.92	1672.74
615.27	1667.19
615.61	1662.12
615.96	1656.88
616.31	1651.83
616.65	1647.19
617.00	1643.29
617.35	1638.52
617.70	1633.71
618.04	1627.98
618.39	1622.02
618.74	1616.83
619.08	1610.38
619.43	1605.21
619.78	1600.50
620.12	1595.60
620.47	1590.60
620.82	1584.02
621.16	1579.12
621.51	1574.48
621.85	1569.07
622.20	1563.21
622.55	1557.26
622.89	1552.02
623.24	1546.24
623.59	1540.83
623.93	1535.17
624.28	1528.98
624.62	1526.45
624.97	1522.83
625.32	1518.14
625.66	1514.12
626.01	1509.43
626.35	1505.36
626.70	1500.38
627.04	1495.48
627.39	1490.29
627.73	1485.71
628.08	1482.19
628.43	1477.93
628.77	1472.33
629.12	1467.38
629.46	1463.48
629.81	1459.26
630.15	1453.14
630.50	1447.81
630.84	1442.10
631.19	1436.45
631.53	1430.83
631.88	1421.71
632.22	1414.00
632.57	1408.71
632.91	1401.76
633.26	1396.48
633.60	1390.81
633.95	1384.98
634.29	1378.71
634.64	1373.02
634.98	1366.50
635.32	1359.93
635.67	1354.57
636.01	1348.69
636.36	1342.17
636.70	1337.38
637.05	1331.40
637.39	1326.95
637.73	1321.79
638.08	1317.36
638.42	1312.00
638.77	1306.76
639.11	1302.05
639.45	1297.14
639.80	1290.43
640.14	1284.71
640.49	1278.76
640.83	1272.57
641.17	1266.05
641.52	1260.52
641.86	1254.57
642.20	1249.10
642.55	1242.64
642.89	1235.62
643.23	1229.10
643.58	1223.62
643.92	1215.29
644.26	1208.12
644.61	1201.14
644.95	1194.02
645.29	1186.62
645.64	1180.90
645.98	1174.38
646.32	1167.98
646.66	1160.57
647.01	1153.60
647.35	1147.71
647.69	1140.64
648.04	1134.38
648.38	1128.29
648.72	1120.93
649.06	1114.62
649.41	1107.21
649.75	1099.95
650.09	1093.40
650.43	1085.98
650.78	1079.10
651.12	1072.95
651.46	1066.17
651.80	1059.74
652.14	1053.67
652.49	1048.10
652.83	1040.55
653.17	1033.36
653.51	1026.38
653.85	1020.07
654.20	1014.05
654.54	1007.14
654.88	1000.21
655.22	994.76
655.56	988.43
655.90	982.17
656.25	974.81
656.59	968.57
656.93	963.26
657.27	958.12
657.61	952.29
657.95	945.88
658.29	939.76
658.64	934.71
658.98	928.07
659.32	921.36
659.66	914.93
660.00	908.90
660.34	902.55
660.68	896.57
661.02	890.36
661.36	884.12
661.70	878.50
662.05	873.21
662.39	866.69
662.73	861.31
663.07	856.05
663.41	850.83
663.75	845.29
664.09	839.40
664.43	832.14
664.77	826.43
665.11	820.71
665.45	815.10
665.79	809.62
666.13	804.29
666.47	798.57
666.81	792.88
667.15	787.36
667.49	782.17
667.83	777.33
668.17	772.57
668.51	767.43
668.85	762.12
669.19	758.33
669.53	752.86
669.87	747.14
670.21	741.64
670.55	736.24
670.89	732.14
671.23	727.02
671.57	722.21
671.91	718.12
672.25	713.45
672.58	709.40
672.92	704.26
673.26	700.00
673.60	695.67
673.94	691.21
674.28	686.31
674.62	682.57
674.96	677.64
675.30	672.79
675.64	668.40
675.97	664.40
676.31	659.07
676.65	654.38
676.99	650.55
677.33	646.21
677.67	642.38
678.01	636.76
678.34	632.83
678.68	629.31
679.02	624.33
679.36	619.88
679.70	614.88
680.04	610.02
680.37	605.74
680.71	601.33
681.05	597.31
681.39	593.55
681.73	588.71
682.06	584.60
682.40	580.52
682.74	577.31
683.08	573.45
683.42	568.83
683.75	565.21
684.09	560.26
684.43	556.07
684.77	551.55
685.10	547.83
685.44	543.90
685.78	539.76
686.12	536.38
686.45	532.45
686.79	528.52
687.13	525.60
687.46	521.29
687.80	518.14
688.14	514.36
688.48	510.55
688.81	507.14
689.15	504.33
689.49	500.79
689.82	496.86
690.16	492.88
690.50	489.60
690.83	485.57
691.17	482.40
691.51	479.14
691.84	476.05
692.18	472.86
692.52	469.71
692.85	466.74
693.19	464.21
693.52	460.79
693.86	457.98
694.20	454.69
694.53	452.40
694.87	449.14
695.21	445.52
695.54	442.52
695.88	439.24
696.21	435.26
696.55	432.43
696.88	429.64
697.22	426.76
697.56	424.12
697.89	421.52
698.23	419.10
698.56	416.60
698.90	414.26
699.23	411.38
699.57	408.79
699.90	406.12
700.24	402.90
700.58	401.05
700.91	398.71
701.25	397.67
701.58	395.62
701.92	393.69
702.25	391.57
702.59	389.36
702.92	387.24
703.26	385.71
703.59	383.55
703.93	383.12
704.26	380.81
704.60	378.90
704.93	376.83
705.26	374.45
705.60	372.43
705.93	370.12
706.27	369.07
706.60	367.43
706.94	366.29
707.27	364.45
707.61	362.52
707.94	360.62
708.27	357.50
708.61	355.12
708.94	352.95
709.28	351.29
709.61	349.38
709.94	347.95
710.28	346.05
710.61	344.48
710.95	340.79
711.28	340.69
711.61	338.98
711.95	337.83
712.28	336.24
712.61	334.71
712.95	334.24
713.28	333.43
713.61	331.48
713.95	329.40
714.28	327.90
714.61	326.69
714.95	325.19
715.28	323.29
715.61	321.83
715.95	320.71
716.28	319.26
716.61	318.33
716.95	316.52
717.28	314.93
717.61	313.83
717.94	312.62
718.28	309.86
718.61	308.48
718.94	306.88
719.27	305.62
719.61	304.57
719.94	302.98
720.27	300.55
720.60	299.36
720.94	298.12
721.27	297.52
721.60	296.52
721.93	295.74
722.27	295.86
722.60	295.19
722.93	294.07
723.26	293.33
723.59	292.00
723.93	291.38
724.26	290.98
724.59	289.64
724.92	288.95
725.25	288.76
725.59	287.98
725.92	287.48
726.25	286.67
726.58	285.86
726.91	284.69
727.24	284.33
727.57	283.52
727.91	282.36
728.24	281.38
728.57	280.14
728.90	279.36
729.23	277.64
729.56	277.71
729.89	277.17
730.22	276.36
730.55	275.60
730.89	274.86
731.22	274.00
731.55	273.45
731.88	272.55
732.21	271.50
732.54	270.55
732.87	269.48
733.20	269.07
733.53	268.40
733.86	268.10
734.19	266.90
734.52	266.52
734.85	267.33
735.18	266.26
735.51	266.50
735.84	265.69
736.17	265.76
736.50	264.10
736.83	265.81
737.16	265.17
737.49	264.86
737.82	264.19
738.15	263.71
738.48	263.21
738.81	262.79
739.14	261.86
739.47	261.26
739.80	260.88
740.13	260.50
740.46	259.81
740.79	258.76
741.12	258.50
741.45	257.62
741.78	256.14
742.11	256.52
742.44	255.60
742.77	255.67
743.10	254.60
743.43	254.00
743.75	251.10
744.08	253.40
744.41	252.62
744.74	252.17
745.07	251.21
745.40	251.10
745.73	251.31
746.06	251.05
746.39	250.79
746.71	250.31
747.04	249.48
747.37	249.02
747.70	249.29
748.03	248.83
748.36	248.86
748.68	248.33
749.01	247.24
749.34	246.95
749.67	246.40
750.00	246.48
750.33	247.83
750.65	247.86
750.98	245.07
751.31	245.07
751.64	244.98
751.97	246.02
752.29	245.52
752.62	244.50
752.95	244.07
753.28	243.71
753.60	243.17
753.93	243.69
754.26	243.50
754.59	242.50
754.91	242.02
755.24	241.60
755.57	241.38
755.90	240.95
756.22	240.36
756.55	239.83
756.88	239.29
757.20	237.45
757.53	236.48
757.86	236.00
758.19	235.67
758.51	235.38
758.84	234.02
759.17	233.43
759.49	233.29
759.82	234.10
760.15	234.02
760.47	233.64
760.80	232.69
761.13	232.98
761.45	232.79
761.78	232.62
762.11	232.52
762.43	232.07
762.76	231.76
763.08	231.69
763.41	231.52
763.74	231.40
764.06	231.00
764.39	230.95
764.71	230.67
765.04	230.10
765.37	229.50
765.69	229.29
766.02	229.33
766.34	228.86
766.67	227.88
767.00	228.31
767.32	229.26
767.65	230.12
767.97	229.40
768.30	229.36
768.62	229.00
768.95	228.38
769.27	228.38
769.60	228.83
769.92	228.55
770.25	228.10
770.57	227.43
770.90	227.38
771.22	227.02
771.55	226.88
771.87	226.95
772.20	226.86
772.52	228.24
772.85	230.50
773.17	230.64
773.50	230.48
773.82	229.86
774.15	228.79
774.47	227.36
774.80	227.14
775.12	226.88
775.45	226.88
775.77	226.90
776.09	226.67
776.42	226.36
776.74	226.88
777.07	226.74
777.39	226.69
777.72	226.38
778.04	226.45
778.36	226.21
778.69	226.12
779.01	226.29
779.33	224.55
779.66	222.17
779.98	221.81
780.31	221.74
780.63	222.24
780.95	222.81
781.28	222.76
781.60	222.52
781.92	222.55
782.25	222.62
782.57	222.67
782.89	222.86
783.22	222.83
783.54	222.17
783.86	222.43
784.19	222.38
784.51	222.93
784.83	222.62
785.16	222.48
