SpectraSuite Data File
++++++++++++++++++++++++++++++++++++
Date: Tue Apr 02 18:40:42 EDT 2013
User: group
Dark Spectrum Present: No
Reference Spectrum Present: No
Number of Sampled Component Spectra: 1
Spectrometers: USB2E7196
Integration Time (usec): 580000 (USB2E7196)
Spectra Averaged: 2 (USB2E7196)
Boxcar Smoothing: 10 (USB2E7196)
Correct for Electrical Dark: No (USB2E7196)
Strobe/Lamp Enabled: No (USB2E7196)
Correct for Detector Non-linearity: No (USB2E7196)
Correct for Stray Light: No (USB2E7196)
Number of Pixels in Processed Spectrum: 2048
>>>>>Begin Processed Spectral Data<<<<<
339.09	0.00
339.48	194.50
339.86	194.00
340.24	195.50
340.63	199.00
341.01	233.50
341.39	202.50
341.78	207.00
342.16	213.50
342.54	202.50
342.93	198.07
343.31	207.90
343.69	208.50
344.07	209.12
344.46	209.95
344.84	210.33
345.22	208.95
345.60	209.33
345.99	209.38
346.37	209.19
346.75	209.43
347.13	209.64
347.52	209.83
347.90	210.45
348.28	210.33
348.66	210.83
349.05	209.90
349.43	210.33
349.81	210.24
350.19	210.24
350.57	210.52
350.96	210.67
351.34	211.10
351.72	211.10
352.10	211.10
352.48	210.81
352.87	210.74
353.25	210.95
353.63	210.81
354.01	210.88
354.39	210.88
354.77	210.98
355.15	211.69
355.54	211.45
355.92	210.86
356.30	210.93
356.68	212.21
357.06	212.52
357.44	212.43
357.82	212.64
358.20	213.86
358.58	213.62
358.97	213.95
359.35	214.31
359.73	214.90
360.11	214.88
360.49	214.93
360.87	215.26
361.25	215.60
361.63	216.36
362.01	216.52
362.39	216.60
362.77	216.95
363.15	216.71
363.53	216.71
363.91	216.83
364.29	216.86
364.67	215.02
365.05	215.12
365.43	215.24
365.81	215.55
366.19	215.45
366.57	216.36
366.95	216.40
367.33	215.93
367.71	215.95
368.09	216.67
368.47	216.67
368.85	216.40
369.23	216.79
369.61	216.19
369.99	216.71
370.37	216.93
370.75	217.79
371.13	217.31
371.51	217.14
371.89	217.50
372.27	217.55
372.65	217.50
373.03	217.67
373.41	217.45
373.78	217.31
374.16	216.50
374.54	215.95
374.92	215.48
375.30	215.43
375.68	215.00
376.06	214.90
376.44	214.95
376.82	215.24
377.19	215.14
377.57	215.07
377.95	214.50
378.33	214.33
378.71	213.12
379.09	213.48
379.47	213.90
379.84	213.52
380.22	213.55
380.60	213.21
380.98	213.07
381.36	213.10
381.73	212.86
382.11	213.05
382.49	212.88
382.87	212.69
383.25	212.74
383.62	215.00
384.00	214.43
384.38	214.40
384.76	214.83
385.13	215.33
385.51	215.45
385.89	215.36
386.27	215.45
386.64	215.60
387.02	215.45
387.40	215.36
387.78	215.50
388.15	215.52
388.53	215.62
388.91	215.50
389.29	215.43
389.66	215.79
390.04	215.48
390.42	216.21
390.79	216.43
391.17	216.29
391.55	214.12
391.92	214.38
392.30	214.79
392.68	214.21
393.05	213.98
393.43	213.90
393.81	213.90
394.18	213.64
394.56	213.81
394.94	214.24
395.31	213.93
395.69	214.79
396.06	214.90
396.44	215.14
396.82	215.07
397.19	215.98
397.57	215.64
397.95	216.21
398.32	215.43
398.70	215.69
399.07	216.52
399.45	216.33
399.82	216.14
400.20	215.79
400.58	215.88
400.95	215.17
401.33	215.55
401.70	217.21
402.08	217.45
402.45	217.43
402.83	217.69
403.20	217.93
403.58	217.67
403.95	218.21
404.33	218.57
404.71	219.07
405.08	220.33
405.46	220.79
405.83	220.79
406.21	221.21
406.58	221.55
406.96	221.31
407.33	222.05
407.70	222.93
408.08	225.14
408.45	226.05
408.83	227.50
409.20	228.12
409.58	227.50
409.95	228.64
410.33	229.67
410.70	230.31
411.08	231.67
411.45	232.57
411.82	233.38
412.20	235.10
412.57	237.40
412.95	237.05
413.32	238.79
413.69	240.21
414.07	241.90
414.44	243.90
414.82	246.33
415.19	248.74
415.56	251.07
415.94	252.57
416.31	255.67
416.68	258.52
417.06	261.79
417.43	265.76
417.81	269.33
418.18	273.17
418.55	277.02
418.93	281.17
419.30	285.55
419.67	290.38
420.04	294.88
420.42	299.38
420.79	306.90
421.16	313.07
421.54	320.69
421.91	327.45
422.28	334.10
422.66	341.12
423.03	349.48
423.40	356.71
423.77	364.48
424.15	371.95
424.52	380.00
424.89	389.14
425.26	397.05
425.64	404.86
426.01	413.76
426.38	423.02
426.75	433.31
427.13	442.76
427.50	452.67
427.87	463.21
428.24	473.55
428.61	482.43
428.99	494.05
429.36	505.21
429.73	516.74
430.10	528.64
430.47	541.50
430.85	552.48
431.22	565.95
431.59	581.62
431.96	594.45
432.33	609.07
432.70	623.36
433.08	640.02
433.45	656.21
433.82	672.43
434.19	690.36
434.56	707.31
434.93	723.88
435.30	740.90
435.68	759.40
436.05	777.50
436.42	795.38
436.79	812.19
437.16	830.31
437.53	849.67
437.90	868.64
438.27	886.76
438.64	906.10
439.01	924.38
439.38	938.74
439.75	954.55
440.13	972.60
440.50	989.02
440.87	1003.33
441.24	1017.45
441.61	1032.45
441.98	1043.81
442.35	1056.64
442.72	1070.64
443.09	1084.86
443.46	1092.64
443.83	1098.67
444.20	1103.62
444.57	1109.29
444.94	1112.62
445.31	1116.02
445.68	1121.60
446.05	1122.52
446.42	1121.24
446.79	1119.36
447.16	1116.98
447.53	1116.31
447.90	1109.69
448.27	1102.98
448.64	1093.60
449.01	1086.95
449.37	1075.69
449.74	1064.14
450.11	1051.64
450.48	1036.21
450.85	1018.64
451.22	1005.74
451.59	992.98
451.96	981.24
452.33	964.83
452.70	949.62
453.07	931.50
453.43	910.93
453.80	894.38
454.17	877.74
454.54	861.50
454.91	844.52
455.28	827.62
455.65	811.05
456.02	798.95
456.38	785.36
456.75	769.50
457.12	755.00
457.49	741.43
457.86	726.88
458.23	716.19
458.59	704.45
458.96	691.86
459.33	680.60
459.70	669.43
460.07	661.36
460.43	650.98
460.80	641.86
461.17	634.45
461.54	625.26
461.91	616.55
462.27	607.93
462.64	600.19
463.01	592.43
463.38	585.93
463.74	574.60
464.11	567.33
464.48	560.98
464.85	554.48
465.21	550.10
465.58	545.10
465.95	538.33
466.32	533.12
466.68	527.83
467.05	522.88
467.42	517.00
467.78	511.12
468.15	506.36
468.52	502.31
468.88	495.88
469.25	490.86
469.62	487.05
469.98	482.79
470.35	479.62
470.72	475.81
471.08	470.98
471.45	468.19
471.82	465.38
472.18	461.69
472.55	458.95
472.92	454.64
473.28	451.43
473.65	448.26
474.02	445.74
474.38	443.12
474.75	440.60
475.11	438.76
475.48	436.62
475.85	434.50
476.21	432.69
476.58	431.52
476.94	430.48
477.31	429.43
477.67	428.24
478.04	427.00
478.41	425.98
478.77	427.52
479.14	426.02
479.50	425.52
479.87	425.12
480.23	424.98
480.60	424.57
480.96	424.12
481.33	425.05
481.69	424.86
482.06	425.00
482.42	425.21
482.79	424.98
483.15	425.60
483.52	426.79
483.88	427.00
484.25	427.67
484.61	428.50
484.98	429.02
485.34	430.62
485.71	432.14
486.07	433.48
486.44	432.81
486.80	435.14
487.17	436.17
487.53	438.95
487.90	441.40
488.26	444.76
488.62	447.95
488.99	450.05
489.35	453.02
489.72	455.57
490.08	458.31
490.44	461.48
490.81	465.43
491.17	468.29
491.54	472.21
491.90	476.00
492.26	479.67
492.63	483.64
492.99	487.50
493.36	491.69
493.72	496.57
494.08	500.86
494.45	505.48
494.81	511.29
495.17	515.62
495.54	520.79
495.90	525.67
496.26	530.62
496.63	536.21
496.99	541.26
497.35	547.81
497.72	554.45
498.08	561.05
498.44	566.88
498.80	574.00
499.17	580.33
499.53	586.71
499.89	594.02
500.26	601.19
500.62	608.57
500.98	616.07
501.34	623.07
501.71	631.48
502.07	638.43
502.43	645.64
502.79	653.26
503.16	660.48
503.52	667.19
503.88	674.50
504.24	682.24
504.60	690.60
504.97	698.50
505.33	706.50
505.69	714.98
506.05	722.71
506.41	730.62
506.78	738.55
507.14	746.71
507.50	754.55
507.86	763.38
508.22	771.24
508.59	779.00
508.95	787.36
509.31	795.83
509.67	804.36
510.03	812.69
510.39	821.10
510.75	829.60
511.12	838.48
511.48	847.90
511.84	855.95
512.20	864.19
512.56	872.38
512.92	880.90
513.28	888.69
513.64	897.55
514.00	905.40
514.37	914.29
514.73	922.95
515.09	931.33
515.45	938.48
515.81	946.57
516.17	953.93
516.53	960.64
516.89	967.69
517.25	975.74
517.61	983.74
517.97	990.48
518.33	997.55
518.69	1004.62
519.05	1011.14
519.41	1018.52
519.77	1026.45
520.13	1033.45
520.49	1039.07
520.85	1045.83
521.21	1052.88
521.57	1059.43
521.93	1064.93
522.29	1070.95
522.65	1076.05
523.01	1082.02
523.37	1087.14
523.73	1092.95
524.09	1100.02
524.45	1105.33
524.81	1110.48
525.17	1115.17
525.53	1121.02
525.89	1126.48
526.25	1132.19
526.61	1137.10
526.97	1141.74
527.33	1145.79
527.68	1151.76
528.04	1157.21
528.40	1161.55
528.76	1165.88
529.12	1171.33
529.48	1177.48
529.84	1182.48
530.20	1188.29
530.56	1193.74
530.91	1199.00
531.27	1204.55
531.63	1208.57
531.99	1212.81
532.35	1216.83
532.71	1221.79
533.07	1226.40
533.42	1232.81
533.78	1237.36
534.14	1242.79
534.50	1247.43
534.86	1253.40
535.21	1256.93
535.57	1262.26
535.93	1266.83
536.29	1272.19
536.65	1276.05
537.00	1279.86
537.36	1284.43
537.72	1288.17
538.08	1292.19
538.44	1296.07
538.79	1300.29
539.15	1304.62
539.51	1309.60
539.87	1314.31
540.22	1318.02
540.58	1322.38
540.94	1324.50
541.29	1328.05
541.65	1330.62
542.01	1334.33
542.37	1336.79
542.72	1339.12
543.08	1341.21
543.44	1344.90
543.79	1347.12
544.15	1350.88
544.51	1354.38
544.87	1357.55
545.22	1361.83
545.58	1364.95
545.94	1368.36
546.29	1371.62
546.65	1375.00
547.01	1377.33
547.36	1381.00
547.72	1384.52
548.07	1388.38
548.43	1391.24
548.79	1393.83
549.14	1397.24
549.50	1401.17
549.86	1404.24
550.21	1409.12
550.57	1413.07
550.92	1416.43
551.28	1419.81
551.64	1423.43
551.99	1427.48
552.35	1430.88
552.70	1434.00
553.06	1438.02
553.41	1441.69
553.77	1446.14
554.13	1450.71
554.48	1456.24
554.84	1460.55
555.19	1465.76
555.55	1470.69
555.90	1475.14
556.26	1480.36
556.61	1486.05
556.97	1489.79
557.32	1494.45
557.68	1498.05
558.03	1503.14
558.39	1507.86
558.74	1512.19
559.10	1516.52
559.45	1520.21
559.81	1525.55
560.16	1529.81
560.52	1535.17
560.87	1540.93
561.23	1544.71
561.58	1549.57
561.94	1553.38
562.29	1558.02
562.64	1562.24
563.00	1565.62
563.35	1571.90
563.71	1577.67
564.06	1582.40
564.42	1587.21
564.77	1593.02
565.12	1600.45
565.48	1607.07
565.83	1612.74
566.19	1618.57
566.54	1623.52
566.89	1629.43
567.25	1635.60
567.60	1642.76
567.96	1649.81
568.31	1656.43
568.66	1663.21
569.02	1668.60
569.37	1673.90
569.72	1679.50
570.08	1684.17
570.43	1688.57
570.78	1692.33
571.14	1697.43
571.49	1701.31
571.84	1706.86
572.20	1710.69
572.55	1714.17
572.90	1716.67
573.26	1720.36
573.61	1724.07
573.96	1729.31
574.31	1733.19
574.67	1736.07
575.02	1738.43
575.37	1739.33
575.72	1740.19
576.08	1741.98
576.43	1743.79
576.78	1745.79
577.13	1747.45
577.49	1750.07
577.84	1753.81
578.19	1757.36
578.54	1759.90
578.90	1763.40
579.25	1765.40
579.60	1767.79
579.95	1768.88
580.30	1771.69
580.66	1774.26
581.01	1777.19
581.36	1777.48
581.71	1779.38
582.06	1782.05
582.42	1784.86
582.77	1786.45
583.12	1788.86
583.47	1791.48
583.82	1793.74
584.17	1796.69
584.53	1799.71
584.88	1800.79
585.23	1803.29
585.58	1804.00
585.93	1804.43
586.28	1804.83
586.63	1806.74
586.98	1808.57
587.34	1810.98
587.69	1811.05
588.04	1811.93
588.39	1812.02
588.74	1812.52
589.09	1813.38
589.44	1811.45
589.79	1811.40
590.14	1812.38
590.49	1812.83
590.84	1813.02
591.19	1814.19
591.54	1814.74
591.89	1814.17
592.25	1816.55
592.60	1814.86
592.95	1814.36
593.30	1814.88
593.65	1815.14
594.00	1813.98
594.35	1818.14
594.70	1816.36
595.05	1816.36
595.40	1815.57
595.75	1814.95
596.10	1815.88
596.45	1815.57
596.80	1816.52
597.15	1815.33
597.50	1814.19
597.85	1814.31
598.19	1812.64
598.54	1810.29
598.89	1808.62
599.24	1808.50
599.59	1805.36
599.94	1803.86
600.29	1803.21
600.64	1801.95
600.99	1800.36
601.34	1799.33
601.69	1793.36
602.04	1791.93
602.39	1790.48
602.74	1789.36
603.08	1787.38
603.43	1786.45
603.78	1783.57
604.13	1781.00
604.48	1779.19
604.83	1777.98
605.18	1775.00
605.53	1773.10
605.87	1771.02
606.22	1768.10
606.57	1764.38
606.92	1762.76
607.27	1760.67
607.62	1758.55
607.96	1756.14
608.31	1754.40
608.66	1752.19
609.01	1748.24
609.36	1745.71
609.70	1742.48
610.05	1738.40
610.40	1735.67
610.75	1731.10
611.10	1728.55
611.44	1725.21
611.79	1721.48
612.14	1717.95
612.49	1713.50
612.83	1710.19
613.18	1705.62
613.53	1701.60
613.88	1696.90
614.22	1691.88
614.57	1687.29
614.92	1681.57
615.27	1675.67
615.61	1670.00
615.96	1664.74
616.31	1660.05
616.65	1655.17
617.00	1650.24
617.35	1645.52
617.70	1640.26
618.04	1635.86
618.39	1630.17
618.74	1624.93
619.08	1619.07
619.43	1613.31
619.78	1608.00
620.12	1602.64
620.47	1599.05
620.82	1593.88
621.16	1588.40
621.51	1584.71
621.85	1579.10
622.20	1573.74
622.55	1568.31
622.89	1562.71
623.24	1558.60
623.59	1552.95
623.93	1548.79
624.28	1544.19
624.62	1540.76
624.97	1536.36
625.32	1530.33
625.66	1525.12
626.01	1519.26
626.35	1514.90
626.70	1509.40
627.04	1505.64
627.39	1499.38
627.73	1494.17
628.08	1489.71
628.43	1485.10
628.77	1479.00
629.12	1474.93
629.46	1470.79
629.81	1465.71
630.15	1460.52
630.50	1453.26
630.84	1448.79
631.19	1442.19
631.53	1435.86
631.88	1428.31
632.22	1421.88
632.57	1417.19
632.91	1411.60
633.26	1406.76
633.60	1400.52
633.95	1394.69
634.29	1388.31
634.64	1383.64
634.98	1376.74
635.32	1371.55
635.67	1366.88
636.01	1361.31
636.36	1354.79
636.70	1349.21
637.05	1344.14
637.39	1338.43
637.73	1333.90
638.08	1328.83
638.42	1323.24
638.77	1318.29
639.11	1312.95
639.45	1307.90
639.80	1300.86
640.14	1294.00
640.49	1288.14
640.83	1281.69
641.17	1275.74
641.52	1269.88
641.86	1264.24
642.20	1259.00
642.55	1251.93
642.89	1244.67
643.23	1237.64
643.58	1231.67
643.92	1224.19
644.26	1217.40
644.61	1211.88
644.95	1204.62
645.29	1197.21
645.64	1191.29
645.98	1184.60
646.32	1178.05
646.66	1170.10
647.01	1164.24
647.35	1158.98
647.69	1152.24
648.04	1147.10
648.38	1141.40
648.72	1133.90
649.06	1126.36
649.41	1119.45
649.75	1112.52
650.09	1106.10
650.43	1099.31
650.78	1092.12
651.12	1085.57
651.46	1078.81
651.80	1071.00
652.14	1064.52
652.49	1058.17
652.83	1050.81
653.17	1043.24
653.51	1036.43
653.85	1030.60
654.20	1023.76
654.54	1016.12
654.88	1009.40
655.22	1002.90
655.56	995.90
655.90	990.29
656.25	983.33
656.59	976.69
656.93	970.83
657.27	965.55
657.61	959.14
657.95	953.26
658.29	947.36
658.64	941.52
658.98	935.71
659.32	929.48
659.66	923.10
660.00	917.02
660.34	911.71
660.68	905.81
661.02	899.98
661.36	893.64
661.70	888.62
662.05	883.19
662.39	876.81
662.73	871.79
663.07	866.83
663.41	861.64
663.75	855.40
664.09	849.69
664.43	842.33
664.77	836.50
665.11	831.14
665.45	825.83
665.79	820.45
666.13	815.00
666.47	809.31
666.81	803.83
667.15	798.38
667.49	793.50
667.83	789.31
668.17	783.71
668.51	778.21
668.85	772.55
669.19	767.95
669.53	762.43
669.87	755.98
670.21	750.14
670.55	744.76
670.89	741.45
671.23	736.21
671.57	731.98
671.91	727.02
672.25	721.88
672.58	717.52
672.92	712.19
673.26	707.40
673.60	703.17
673.94	698.38
674.28	693.79
674.62	689.05
674.96	683.12
675.30	678.55
675.64	674.10
675.97	669.93
676.31	664.83
676.65	660.71
676.99	657.64
677.33	653.12
677.67	649.19
678.01	643.76
678.34	640.14
678.68	635.74
679.02	631.90
679.36	627.57
679.70	622.79
680.04	618.45
680.37	614.07
680.71	609.31
681.05	605.19
681.39	600.88
681.73	596.36
682.06	592.48
682.40	588.17
682.74	584.64
683.08	581.31
683.42	576.40
683.75	572.43
684.09	567.45
684.43	562.98
684.77	558.79
685.10	554.71
685.44	549.98
685.78	545.95
686.12	541.76
686.45	537.71
686.79	533.45
687.13	530.19
687.46	526.50
687.80	523.86
688.14	520.33
688.48	517.02
688.81	513.40
689.15	510.79
689.49	507.67
689.82	504.10
690.16	499.40
690.50	495.98
690.83	492.31
691.17	488.50
691.51	485.10
691.84	481.98
692.18	478.48
692.52	475.31
692.85	472.62
693.19	470.31
693.52	467.29
693.86	464.05
694.20	460.57
694.53	457.33
694.87	453.48
695.21	449.83
695.54	446.62
695.88	443.21
696.21	439.19
696.55	436.17
696.88	433.05
697.22	430.48
697.56	428.67
697.89	425.62
698.23	423.14
698.56	420.81
698.90	418.36
699.23	415.45
699.57	413.02
699.90	410.02
700.24	406.81
700.58	404.07
700.91	402.33
701.25	401.71
701.58	400.14
701.92	398.45
702.25	396.38
702.59	393.95
702.92	391.90
703.26	389.83
703.59	387.79
703.93	387.40
704.26	385.52
704.60	383.33
704.93	381.48
705.26	379.33
705.60	377.52
705.93	374.86
706.27	373.52
706.60	372.07
706.94	371.19
707.27	369.31
707.61	368.17
707.94	365.95
708.27	362.50
708.61	359.98
708.94	357.95
709.28	356.33
709.61	354.81
709.94	353.33
710.28	351.69
710.61	349.81
710.95	346.19
711.28	345.64
711.61	343.57
711.95	342.48
712.28	340.86
712.61	339.14
712.95	338.95
713.28	338.21
713.61	336.24
713.95	334.00
714.28	332.71
714.61	330.86
714.95	329.40
715.28	327.48
715.61	326.05
715.95	324.95
716.28	323.50
716.61	322.33
716.95	320.26
717.28	318.62
717.61	317.26
717.94	315.88
718.28	313.10
718.61	311.86
718.94	310.14
719.27	308.93
719.61	307.57
719.94	305.45
720.27	303.14
720.60	301.83
720.94	300.52
721.27	299.19
721.60	298.36
721.93	297.21
722.27	297.38
722.60	296.64
722.93	295.26
723.26	294.40
723.59	292.93
723.93	292.50
724.26	292.02
724.59	291.10
724.92	290.57
725.25	290.19
725.59	289.26
725.92	288.57
726.25	287.62
726.58	287.02
726.91	286.00
727.24	285.55
727.57	284.81
727.91	283.76
728.24	283.38
728.57	282.10
728.90	281.43
729.23	279.83
729.56	279.93
729.89	279.29
730.22	278.38
730.55	277.74
730.89	276.71
731.22	275.43
731.55	274.52
731.88	273.76
732.21	272.55
732.54	271.95
732.87	271.31
733.20	270.76
733.53	269.88
733.86	269.57
734.19	268.52
734.52	267.95
734.85	268.40
735.18	267.57
735.51	267.67
735.84	267.43
736.17	267.55
736.50	265.71
736.83	267.29
737.16	266.74
737.49	266.14
737.82	265.74
738.15	265.64
738.48	265.21
738.81	264.50
739.14	263.88
739.47	263.07
739.80	262.38
740.13	261.88
740.46	261.17
740.79	260.29
741.12	260.07
741.45	259.33
741.78	257.98
742.11	257.95
742.44	257.00
742.77	256.67
743.10	255.45
743.43	254.93
743.75	252.10
744.08	254.38
744.41	253.71
744.74	252.79
745.07	252.02
745.40	252.00
745.73	252.48
746.06	252.33
746.39	252.07
746.71	251.40
747.04	250.95
747.37	250.36
747.70	250.38
748.03	249.90
748.36	249.76
748.68	249.48
749.01	248.40
749.34	248.12
749.67	247.36
750.00	247.64
750.33	249.05
750.65	249.10
750.98	245.93
751.31	245.79
751.64	245.62
751.97	246.55
752.29	246.02
752.62	244.64
752.95	244.05
753.28	243.62
753.60	243.05
753.93	243.05
754.26	243.00
754.59	242.00
754.91	241.48
755.24	241.17
755.57	240.76
755.90	240.45
756.22	239.93
756.55	239.21
756.88	238.31
757.20	236.33
757.53	235.21
757.86	235.10
758.19	234.81
758.51	234.74
758.84	233.17
759.17	232.45
759.49	232.40
759.82	233.29
760.15	233.29
760.47	233.14
760.80	232.31
761.13	232.26
761.45	232.14
761.78	231.93
762.11	231.57
762.43	231.24
762.76	230.95
763.08	230.81
763.41	231.26
763.74	231.36
764.06	231.12
764.39	231.31
764.71	231.00
765.04	230.74
765.37	230.17
765.69	230.17
766.02	230.12
766.34	229.95
766.67	228.90
767.00	228.93
767.32	230.24
767.65	231.17
767.97	230.88
768.30	230.67
768.62	230.55
768.95	230.17
769.27	229.86
769.60	230.21
769.92	229.79
770.25	229.14
770.57	228.43
770.90	228.40
771.22	228.07
771.55	227.98
771.87	228.05
772.20	227.95
772.52	229.26
772.85	231.43
773.17	231.07
773.50	230.93
773.82	230.64
774.15	229.31
774.47	228.40
774.80	228.10
775.12	228.10
775.45	227.83
775.77	227.93
776.09	228.12
776.42	227.81
776.74	228.24
777.07	227.98
777.39	228.00
777.72	227.79
778.04	227.76
778.36	227.12
778.69	226.93
779.01	227.19
779.33	225.38
779.66	222.90
779.98	223.00
780.31	222.71
780.63	223.31
780.95	223.48
781.28	223.19
781.60	223.07
781.92	222.69
782.25	222.62
782.57	222.38
782.89	221.95
783.22	221.93
783.54	221.62
783.86	221.88
784.19	221.60
784.51	222.05
784.83	221.71
785.16	221.90
