SpectraSuite Data File
++++++++++++++++++++++++++++++++++++
Date: Tue Apr 02 18:42:54 EDT 2013
User: group
Dark Spectrum Present: No
Reference Spectrum Present: No
Number of Sampled Component Spectra: 1
Spectrometers: USB2E7196
Integration Time (usec): 580000 (USB2E7196)
Spectra Averaged: 2 (USB2E7196)
Boxcar Smoothing: 10 (USB2E7196)
Correct for Electrical Dark: No (USB2E7196)
Strobe/Lamp Enabled: No (USB2E7196)
Correct for Detector Non-linearity: No (USB2E7196)
Correct for Stray Light: No (USB2E7196)
Number of Pixels in Processed Spectrum: 2048
>>>>>Begin Processed Spectral Data<<<<<
339.09	0.00
339.48	187.50
339.86	192.00
340.24	199.00
340.63	196.00
341.01	231.00
341.39	203.00
341.78	206.50
342.16	209.50
342.54	204.00
342.93	196.10
343.31	205.90
343.69	206.69
344.07	207.36
344.46	208.00
344.84	208.45
345.22	207.26
345.60	207.38
345.99	207.60
346.37	207.57
346.75	207.79
347.13	207.90
347.52	208.00
347.90	208.98
348.28	209.07
348.66	209.64
349.05	209.21
349.43	209.36
349.81	209.60
350.19	209.69
350.57	210.05
350.96	210.43
351.34	210.81
351.72	211.02
352.10	211.17
352.48	211.00
352.87	211.21
353.25	211.26
353.63	211.24
354.01	211.29
354.39	211.50
354.77	211.64
355.15	212.26
355.54	212.19
355.92	211.55
356.30	211.69
356.68	212.95
357.06	213.14
357.44	213.17
357.82	213.21
358.20	214.38
358.58	214.21
358.97	214.21
359.35	214.55
359.73	215.10
360.11	215.19
360.49	215.29
360.87	215.14
361.25	215.69
361.63	216.62
362.01	216.67
362.39	216.60
362.77	216.64
363.15	216.55
363.53	216.74
363.91	216.90
364.29	216.76
364.67	215.05
365.05	215.24
365.43	215.40
365.81	215.98
366.19	216.10
366.57	217.21
366.95	217.29
367.33	216.71
367.71	216.74
368.09	216.98
368.47	217.26
368.85	217.55
369.23	217.95
369.61	217.43
369.99	218.17
370.37	218.55
370.75	219.60
371.13	219.26
371.51	219.05
371.89	219.26
372.27	219.62
372.65	219.76
373.03	219.55
373.41	219.36
373.78	218.90
374.16	217.95
374.54	216.95
374.92	216.50
375.30	216.57
375.68	216.14
376.06	216.40
376.44	215.88
376.82	216.02
377.19	215.57
377.57	215.57
377.95	214.79
378.33	214.36
378.71	213.05
379.09	213.31
379.47	213.60
379.84	213.26
380.22	213.07
380.60	212.64
380.98	212.62
381.36	212.55
381.73	212.33
382.11	212.67
382.49	212.81
382.87	212.88
383.25	213.00
383.62	215.26
384.00	214.52
384.38	214.83
384.76	215.21
385.13	215.95
385.51	215.62
385.89	215.45
386.27	215.60
386.64	216.12
387.02	215.79
387.40	215.52
387.78	215.69
388.15	215.50
388.53	215.38
388.91	215.12
389.29	214.83
389.66	215.17
390.04	214.71
390.42	215.12
390.79	215.21
391.17	215.19
391.55	213.07
391.92	213.26
392.30	213.52
392.68	212.88
393.05	212.86
393.43	213.26
393.81	213.29
394.18	213.14
394.56	213.19
394.94	213.64
395.31	213.45
395.69	214.00
396.06	214.50
396.44	214.86
396.82	214.88
397.19	215.95
397.57	215.81
397.95	216.31
398.32	215.88
398.70	216.10
399.07	216.50
399.45	216.45
399.82	216.62
400.20	216.26
400.58	216.31
400.95	215.55
401.33	215.76
401.70	217.29
402.08	217.43
402.45	217.33
402.83	217.79
403.20	218.10
403.58	217.81
403.95	218.36
404.33	218.86
404.71	219.60
405.08	220.60
405.46	221.19
405.83	221.31
406.21	221.45
406.58	221.86
406.96	222.07
407.33	222.69
407.70	223.21
408.08	225.31
408.45	226.36
408.83	227.38
409.20	227.76
409.58	227.38
409.95	228.52
410.33	229.24
410.70	229.67
411.08	230.83
411.45	231.95
411.82	232.62
412.20	233.95
412.57	236.14
412.95	236.10
413.32	237.71
413.69	239.24
414.07	241.19
414.44	243.24
414.82	245.17
415.19	247.67
415.56	250.00
415.94	251.60
416.31	254.36
416.68	257.26
417.06	260.74
417.43	264.43
417.81	267.74
418.18	271.52
418.55	275.26
418.93	279.29
419.30	283.60
419.67	288.24
420.04	292.52
420.42	296.83
420.79	303.76
421.16	309.05
421.54	315.86
421.91	322.05
422.28	328.24
422.66	334.98
423.03	342.79
423.40	349.62
423.77	356.48
424.15	363.31
424.52	371.12
424.89	379.69
425.26	387.50
425.64	395.17
426.01	403.95
426.38	412.88
426.75	422.45
427.13	431.88
427.50	440.98
427.87	450.86
428.24	460.90
428.61	469.76
428.99	481.71
429.36	492.38
429.73	503.60
430.10	514.76
430.47	526.48
430.85	537.00
431.22	549.88
431.59	565.00
431.96	578.12
432.33	591.90
432.70	605.26
433.08	621.64
433.45	637.26
433.82	652.31
434.19	668.79
434.56	685.29
434.93	701.02
435.30	717.10
435.68	735.00
436.05	751.83
436.42	768.50
436.79	783.67
437.16	801.05
437.53	818.83
437.90	837.14
438.27	855.36
438.64	873.07
439.01	890.05
439.38	904.19
439.75	919.00
440.13	935.36
440.50	951.24
440.87	963.69
441.24	977.02
441.61	991.86
441.98	1003.45
442.35	1015.17
442.72	1028.07
443.09	1041.76
443.46	1049.07
443.83	1054.36
444.20	1058.93
444.57	1064.93
444.94	1068.05
445.31	1072.17
445.68	1078.02
446.05	1079.17
446.42	1078.69
446.79	1077.24
447.16	1075.00
447.53	1073.64
447.90	1067.86
448.27	1061.52
448.64	1052.45
449.01	1046.21
449.37	1034.90
449.74	1024.02
450.11	1013.95
450.48	999.31
450.85	983.38
451.22	971.02
451.59	959.40
451.96	947.86
452.33	932.52
452.70	918.45
453.07	900.86
453.43	880.88
453.80	864.31
454.17	848.05
454.54	832.64
454.91	816.40
455.28	800.55
455.65	785.33
456.02	773.93
456.38	761.24
456.75	745.60
457.12	732.10
457.49	718.83
457.86	703.55
458.23	693.31
458.59	681.43
458.96	669.52
459.33	658.52
459.70	648.36
460.07	639.50
460.43	629.38
460.80	621.17
461.17	613.98
461.54	605.57
461.91	597.26
462.27	589.29
462.64	582.19
463.01	574.36
463.38	568.07
463.74	557.24
464.11	550.57
464.48	544.81
464.85	538.62
465.21	534.50
465.58	529.45
465.95	523.12
466.32	518.17
466.68	512.95
467.05	507.90
467.42	503.17
467.78	498.14
468.15	493.14
468.52	488.88
468.88	482.67
469.25	477.55
469.62	474.52
469.98	470.48
470.35	466.76
470.72	463.90
471.08	458.86
471.45	455.98
471.82	453.76
472.18	450.12
472.55	447.98
472.92	443.95
473.28	441.17
473.65	438.02
474.02	435.57
474.38	433.67
474.75	431.64
475.11	429.14
475.48	427.86
475.85	426.02
476.21	424.24
476.58	423.40
476.94	422.69
477.31	421.50
477.67	419.90
478.04	418.98
478.41	417.93
478.77	419.76
479.14	418.79
479.50	417.98
479.87	417.60
480.23	416.79
480.60	416.71
480.96	416.57
481.33	417.45
481.69	417.31
482.06	417.07
482.42	417.79
482.79	418.62
483.15	418.90
483.52	420.24
483.88	420.43
484.25	420.71
484.61	421.79
484.98	422.26
485.34	424.36
485.71	425.76
486.07	427.26
486.44	426.81
486.80	428.14
487.17	429.55
487.53	432.07
487.90	434.45
488.26	437.26
488.62	440.12
488.99	441.69
489.35	444.48
489.72	447.33
490.08	449.88
490.44	452.14
490.81	455.02
491.17	457.55
491.54	461.17
491.90	465.10
492.26	468.50
492.63	472.57
492.99	475.52
493.36	479.43
493.72	483.50
494.08	487.69
494.45	492.76
494.81	497.90
495.17	502.48
495.54	507.52
495.90	512.05
496.26	517.12
496.63	522.88
496.99	528.24
497.35	533.86
497.72	539.52
498.08	545.21
498.44	551.26
498.80	558.07
499.17	565.05
499.53	571.21
499.89	578.02
500.26	584.60
500.62	591.64
500.98	598.67
501.34	605.40
501.71	613.02
502.07	619.79
502.43	626.19
502.79	632.50
503.16	639.17
503.52	646.71
503.88	653.52
504.24	661.14
504.60	668.62
504.97	676.17
505.33	683.69
505.69	692.86
506.05	700.31
506.41	708.07
506.78	714.95
507.14	722.33
507.50	729.95
507.86	737.81
508.22	745.88
508.59	753.19
508.95	761.64
509.31	770.29
509.67	778.12
510.03	785.95
510.39	794.60
510.75	802.60
511.12	809.79
511.48	817.64
511.84	825.07
512.20	832.57
512.56	840.64
512.92	848.38
513.28	855.10
513.64	862.90
514.00	870.14
514.37	877.83
514.73	885.48
515.09	893.24
515.45	900.21
515.81	907.24
516.17	914.93
516.53	921.19
516.89	927.14
517.25	934.14
517.61	941.07
517.97	946.93
518.33	953.81
518.69	960.40
519.05	967.50
519.41	973.71
519.77	981.48
520.13	987.19
520.49	992.55
520.85	998.17
521.21	1004.69
521.57	1010.64
521.93	1016.14
522.29	1021.86
522.65	1026.52
523.01	1032.24
523.37	1036.79
523.73	1042.00
524.09	1047.57
524.45	1052.57
524.81	1057.05
525.17	1062.07
525.53	1067.12
525.89	1071.60
526.25	1076.98
526.61	1081.21
526.97	1085.64
527.33	1089.60
527.68	1095.21
528.04	1100.71
528.40	1105.10
528.76	1109.26
529.12	1113.48
529.48	1118.43
529.84	1122.07
530.20	1126.74
530.56	1130.83
530.91	1136.17
531.27	1140.19
531.63	1144.43
531.99	1147.62
532.35	1151.98
532.71	1155.50
533.07	1159.74
533.42	1165.64
533.78	1169.43
534.14	1173.95
534.50	1178.05
534.86	1181.95
535.21	1185.12
535.57	1189.64
535.93	1193.17
536.29	1197.38
536.65	1201.76
537.00	1204.98
537.36	1208.88
537.72	1211.88
538.08	1215.55
538.44	1218.07
538.79	1221.38
539.15	1224.24
539.51	1228.36
539.87	1231.81
540.22	1235.79
540.58	1239.67
540.94	1240.90
541.29	1243.69
541.65	1245.64
542.01	1249.55
542.37	1251.95
542.72	1254.17
543.08	1256.00
543.44	1259.07
543.79	1259.98
544.15	1263.10
544.51	1266.40
544.87	1269.55
545.22	1273.05
545.58	1275.88
545.94	1279.52
546.29	1282.07
546.65	1284.81
547.01	1287.26
547.36	1289.43
547.72	1292.43
548.07	1294.95
548.43	1297.81
548.79	1300.71
549.14	1303.98
549.50	1306.60
549.86	1309.19
550.21	1312.40
550.57	1315.52
550.92	1318.71
551.28	1323.57
551.64	1325.90
551.99	1328.36
552.35	1331.45
552.70	1334.36
553.06	1337.64
553.41	1340.38
553.77	1345.26
554.13	1349.48
554.48	1353.52
554.84	1358.81
555.19	1362.45
555.55	1367.88
555.90	1371.55
556.26	1376.10
556.61	1380.43
556.97	1383.43
557.32	1387.40
557.68	1390.95
558.03	1393.95
558.39	1398.00
558.74	1401.45
559.10	1405.10
559.45	1409.19
559.81	1413.17
560.16	1417.57
560.52	1422.07
560.87	1426.45
561.23	1429.24
561.58	1434.71
561.94	1438.45
562.29	1442.17
562.64	1446.24
563.00	1449.40
563.35	1454.71
563.71	1459.31
564.06	1464.07
564.42	1469.86
564.77	1475.67
565.12	1481.29
565.48	1489.50
565.83	1495.50
566.19	1500.88
566.54	1506.86
566.89	1512.57
567.25	1519.40
567.60	1526.10
567.96	1533.83
568.31	1541.29
568.66	1548.17
569.02	1552.14
569.37	1558.43
569.72	1563.67
570.08	1569.40
570.43	1574.38
570.78	1580.05
571.14	1585.55
571.49	1590.21
571.84	1595.36
572.20	1599.62
572.55	1605.29
572.90	1608.19
573.26	1611.83
573.61	1615.69
573.96	1620.95
574.31	1625.05
574.67	1628.71
575.02	1631.86
575.37	1633.83
575.72	1636.57
576.08	1640.52
576.43	1644.45
576.78	1647.45
577.13	1651.69
577.49	1655.55
577.84	1659.57
578.19	1661.95
578.54	1666.31
578.90	1670.07
579.25	1673.29
579.60	1676.71
579.95	1679.36
580.30	1682.95
580.66	1687.36
581.01	1690.95
581.36	1693.17
581.71	1696.50
582.06	1700.76
582.42	1704.52
582.77	1707.17
583.12	1710.07
583.47	1713.43
583.82	1716.95
584.17	1720.81
584.53	1723.90
584.88	1725.86
585.23	1728.64
585.58	1731.69
585.93	1732.81
586.28	1735.71
586.63	1738.86
586.98	1742.60
587.34	1746.10
587.69	1747.93
588.04	1750.00
588.39	1753.00
588.74	1754.36
589.09	1757.57
589.44	1757.90
589.79	1758.81
590.14	1761.60
590.49	1763.21
590.84	1764.57
591.19	1765.55
591.54	1767.00
591.89	1767.38
592.25	1770.17
592.60	1771.14
592.95	1772.50
593.30	1774.45
593.65	1775.17
594.00	1775.21
594.35	1781.57
594.70	1781.43
595.05	1782.98
595.40	1782.88
595.75	1783.79
596.10	1784.93
596.45	1785.00
596.80	1786.05
597.15	1788.07
597.50	1787.33
597.85	1789.07
598.19	1788.52
598.54	1789.02
598.89	1789.48
599.24	1791.52
599.59	1791.88
599.94	1792.74
600.29	1792.95
600.64	1793.26
600.99	1793.79
601.34	1794.05
601.69	1788.19
602.04	1787.81
602.39	1786.98
602.74	1787.60
603.08	1785.88
603.43	1786.74
603.78	1785.52
604.13	1785.29
604.48	1783.71
604.83	1784.17
605.18	1782.60
605.53	1782.14
605.87	1780.71
606.22	1779.10
606.57	1776.60
606.92	1773.88
607.27	1772.43
607.62	1772.48
607.96	1770.90
608.31	1769.79
608.66	1768.64
609.01	1766.00
609.36	1764.76
609.70	1763.10
610.05	1760.55
610.40	1759.14
610.75	1756.81
611.10	1755.07
611.44	1752.71
611.79	1750.55
612.14	1747.40
612.49	1744.52
612.83	1741.57
613.18	1738.60
613.53	1736.10
613.88	1733.14
614.22	1731.21
614.57	1727.19
614.92	1722.55
615.27	1718.88
615.61	1714.21
615.96	1710.64
616.31	1707.98
616.65	1705.38
617.00	1702.74
617.35	1699.83
617.70	1696.48
618.04	1691.62
618.39	1688.10
618.74	1683.71
619.08	1679.10
619.43	1675.69
619.78	1671.45
620.12	1667.88
620.47	1664.98
620.82	1659.93
621.16	1655.48
621.51	1651.40
621.85	1646.83
622.20	1642.17
622.55	1637.07
622.89	1634.43
623.24	1631.00
623.59	1625.88
623.93	1620.93
624.28	1615.81
624.62	1612.60
624.97	1609.02
625.32	1604.98
625.66	1600.74
626.01	1596.76
626.35	1593.31
626.70	1587.83
627.04	1584.71
627.39	1580.86
627.73	1576.64
628.08	1573.36
628.43	1569.43
628.77	1565.64
629.12	1562.95
629.46	1559.31
629.81	1555.07
630.15	1550.12
630.50	1544.45
630.84	1539.67
631.19	1535.14
631.53	1530.50
631.88	1523.31
632.22	1516.88
632.57	1512.48
632.91	1507.24
633.26	1502.40
633.60	1497.45
633.95	1493.45
634.29	1488.60
634.64	1482.98
634.98	1476.67
635.32	1472.79
635.67	1468.76
636.01	1463.43
636.36	1457.83
636.70	1454.00
637.05	1449.19
637.39	1444.10
637.73	1439.10
638.08	1435.31
638.42	1430.36
638.77	1426.05
639.11	1421.83
639.45	1417.83
639.80	1412.26
640.14	1407.24
640.49	1401.33
640.83	1395.12
641.17	1389.81
641.52	1382.69
641.86	1376.90
642.20	1373.64
642.55	1366.55
642.89	1359.57
643.23	1353.57
643.58	1348.48
643.92	1341.05
644.26	1335.07
644.61	1329.14
644.95	1322.93
645.29	1316.07
645.64	1309.74
645.98	1303.14
646.32	1296.86
646.66	1290.00
647.01	1284.07
647.35	1277.81
647.69	1272.24
648.04	1267.36
648.38	1261.19
648.72	1256.00
649.06	1250.29
649.41	1242.29
649.75	1236.05
650.09	1230.05
650.43	1223.83
650.78	1216.79
651.12	1210.50
651.46	1204.45
651.80	1197.76
652.14	1191.88
652.49	1185.95
652.83	1179.14
653.17	1172.31
653.51	1165.98
653.85	1159.62
654.20	1152.74
654.54	1145.71
654.88	1139.43
655.22	1132.50
655.56	1125.43
655.90	1118.40
656.25	1111.36
656.59	1106.14
656.93	1100.00
657.27	1094.62
657.61	1088.10
657.95	1082.38
658.29	1076.31
658.64	1070.57
658.98	1063.64
659.32	1056.26
659.66	1050.02
660.00	1044.26
660.34	1038.48
660.68	1032.12
661.02	1025.52
661.36	1019.26
661.70	1013.14
662.05	1006.52
662.39	1000.81
662.73	995.69
663.07	990.76
663.41	985.60
663.75	978.83
664.09	972.69
664.43	965.93
664.77	959.17
665.11	952.21
665.45	946.76
665.79	940.62
666.13	934.93
666.47	929.83
666.81	923.83
667.15	917.24
667.49	911.40
667.83	906.67
668.17	902.10
668.51	896.64
668.85	891.21
669.19	886.55
669.53	879.50
669.87	872.62
670.21	866.48
670.55	860.21
670.89	855.31
671.23	850.19
671.57	844.36
671.91	839.50
672.25	833.88
672.58	828.71
672.92	822.71
673.26	817.45
673.60	812.45
673.94	807.33
674.28	802.48
674.62	797.24
674.96	791.24
675.30	785.43
675.64	780.45
675.97	775.62
676.31	770.14
676.65	765.52
676.99	762.40
677.33	757.17
677.67	752.43
678.01	747.10
678.34	742.45
678.68	737.95
679.02	732.64
679.36	727.90
679.70	722.33
680.04	717.76
680.37	713.19
680.71	708.26
681.05	703.55
681.39	698.95
681.73	694.02
682.06	689.55
682.40	685.40
682.74	680.67
683.08	676.81
683.42	671.48
683.75	667.19
684.09	661.64
684.43	657.17
684.77	652.31
685.10	647.52
685.44	642.17
685.78	637.69
686.12	633.24
686.45	628.83
686.79	624.40
687.13	620.45
687.46	616.12
687.80	612.24
688.14	608.17
688.48	604.12
688.81	600.05
689.15	596.26
689.49	591.93
689.82	588.19
690.16	583.00
690.50	578.83
690.83	574.76
691.17	569.76
691.51	565.50
691.84	561.95
692.18	558.33
692.52	554.86
692.85	551.67
693.19	549.05
693.52	545.43
693.86	541.57
694.20	537.50
694.53	533.67
694.87	529.50
695.21	525.38
695.54	521.50
695.88	517.48
696.21	513.24
696.55	509.19
696.88	505.74
697.22	502.74
697.56	499.81
697.89	495.90
698.23	493.29
698.56	489.62
698.90	486.24
699.23	482.33
699.57	479.24
699.90	475.57
700.24	471.60
700.58	468.52
700.91	465.74
701.25	464.62
701.58	462.36
701.92	459.74
702.25	456.86
702.59	453.93
702.92	451.29
703.26	448.38
703.59	445.90
703.93	444.71
704.26	442.05
704.60	439.33
704.93	436.79
705.26	434.07
705.60	432.43
705.93	429.12
706.27	427.38
706.60	424.76
706.94	422.93
707.27	420.14
707.61	417.67
707.94	414.98
708.27	410.74
708.61	407.43
708.94	404.90
709.28	402.60
709.61	400.21
709.94	397.83
710.28	395.88
710.61	393.48
710.95	389.10
711.28	388.00
711.61	385.69
711.95	384.07
712.28	381.45
712.61	378.93
712.95	378.26
713.28	376.81
713.61	374.74
713.95	371.88
714.28	370.12
714.61	368.10
714.95	366.12
715.28	363.90
715.61	362.12
715.95	360.33
716.28	358.40
716.61	356.81
716.95	354.90
717.28	352.98
717.61	351.17
717.94	349.67
718.28	346.52
718.61	344.93
718.94	342.88
719.27	341.50
719.61	339.81
719.94	337.57
720.27	334.93
720.60	333.17
720.94	331.52
721.27	329.93
721.60	328.93
721.93	327.24
722.27	326.43
722.60	325.33
722.93	323.67
723.26	322.21
723.59	320.71
723.93	319.60
724.26	318.33
724.59	317.10
724.92	316.14
725.25	315.76
725.59	314.55
725.92	313.69
726.25	312.52
726.58	311.48
726.91	310.33
727.24	309.69
727.57	308.64
727.91	307.31
728.24	306.60
728.57	305.21
728.90	304.57
729.23	303.07
729.56	302.86
729.89	302.14
730.22	301.00
730.55	299.81
730.89	298.86
731.22	297.79
731.55	296.93
731.88	295.93
732.21	294.10
732.54	292.98
732.87	291.98
733.20	291.02
733.53	289.83
733.86	288.98
734.19	287.62
734.52	286.90
734.85	287.48
735.18	286.26
735.51	285.95
735.84	285.38
736.17	285.02
736.50	283.02
736.83	284.29
737.16	283.69
737.49	283.10
737.82	282.33
738.15	282.00
738.48	281.05
738.81	280.00
739.14	279.14
739.47	278.29
739.80	277.36
740.13	276.90
740.46	276.21
740.79	275.31
741.12	274.52
741.45	273.45
741.78	271.76
742.11	271.67
742.44	270.48
742.77	269.98
743.10	268.83
743.43	268.10
743.75	265.26
744.08	267.00
744.41	266.19
744.74	265.45
745.07	264.36
745.40	264.05
745.73	264.62
746.06	264.57
746.39	264.29
746.71	263.67
747.04	262.67
747.37	262.05
747.70	261.67
748.03	261.21
748.36	261.05
748.68	260.38
749.01	259.19
749.34	258.76
749.67	258.24
750.00	258.29
750.33	259.19
750.65	259.07
750.98	256.24
751.31	255.76
751.64	255.24
751.97	255.69
752.29	255.24
752.62	253.57
752.95	252.81
753.28	252.12
753.60	251.62
753.93	251.83
754.26	251.79
754.59	250.86
754.91	250.33
755.24	249.64
755.57	249.05
755.90	248.69
756.22	248.12
756.55	247.31
756.88	246.45
757.20	244.88
757.53	243.57
757.86	243.40
758.19	243.33
758.51	243.00
758.84	241.50
759.17	240.76
759.49	240.55
759.82	241.02
760.15	240.83
760.47	240.62
760.80	239.69
761.13	239.29
761.45	238.81
761.78	238.45
762.11	238.17
762.43	237.98
762.76	237.55
763.08	237.26
763.41	237.29
763.74	236.98
764.06	236.76
764.39	236.64
764.71	236.12
765.04	235.43
765.37	235.12
765.69	235.05
766.02	234.71
766.34	234.48
766.67	233.60
767.00	233.71
767.32	234.50
767.65	235.48
767.97	235.17
768.30	235.33
768.62	235.19
768.95	234.88
769.27	234.52
769.60	234.62
769.92	234.14
770.25	233.40
770.57	232.81
770.90	232.62
771.22	232.36
771.55	232.21
771.87	232.29
772.20	231.98
772.52	233.33
772.85	235.64
773.17	235.31
773.50	234.93
773.82	234.40
774.15	233.05
774.47	231.55
774.80	231.02
775.12	230.88
775.45	230.57
775.77	230.60
776.09	230.43
776.42	230.24
776.74	230.76
777.07	230.60
777.39	230.60
777.72	230.00
778.04	229.95
778.36	229.55
778.69	229.19
779.01	229.31
779.33	227.52
779.66	225.10
779.98	225.10
780.31	224.88
780.63	225.55
780.95	225.76
781.28	225.74
781.60	225.52
781.92	225.24
782.25	225.10
782.57	224.69
782.89	224.57
783.22	224.40
783.54	223.79
783.86	223.95
784.19	223.79
784.51	224.36
784.83	224.00
785.16	223.90
