SpectraSuite Data File
++++++++++++++++++++++++++++++++++++
Date: Tue Apr 02 18:42:33 EDT 2013
User: group
Dark Spectrum Present: No
Reference Spectrum Present: No
Number of Sampled Component Spectra: 1
Spectrometers: USB2E7196
Integration Time (usec): 580000 (USB2E7196)
Spectra Averaged: 2 (USB2E7196)
Boxcar Smoothing: 10 (USB2E7196)
Correct for Electrical Dark: No (USB2E7196)
Strobe/Lamp Enabled: No (USB2E7196)
Correct for Detector Non-linearity: No (USB2E7196)
Correct for Stray Light: No (USB2E7196)
Number of Pixels in Processed Spectrum: 2048
>>>>>Begin Processed Spectral Data<<<<<
339.09	0.00
339.48	193.50
339.86	198.50
340.24	195.50
340.63	196.00
341.01	235.00
341.39	200.50
341.78	208.50
342.16	214.00
342.54	205.50
342.93	199.33
343.31	209.24
343.69	209.83
344.07	210.17
344.46	211.00
344.84	211.79
345.22	210.48
345.60	210.81
345.99	210.88
346.37	210.71
346.75	210.76
347.13	210.88
347.52	210.57
347.90	211.31
348.28	211.21
348.66	211.52
349.05	210.81
349.43	211.17
349.81	211.45
350.19	211.52
350.57	211.67
350.96	211.76
351.34	212.02
351.72	212.21
352.10	212.40
352.48	211.93
352.87	211.95
353.25	212.05
353.63	212.14
354.01	212.26
354.39	212.52
354.77	212.52
355.15	213.05
355.54	213.10
355.92	212.29
356.30	212.55
356.68	213.93
357.06	214.14
357.44	213.76
357.82	213.55
358.20	214.40
358.58	214.24
358.97	214.17
359.35	214.33
359.73	214.79
360.11	214.57
360.49	215.02
360.87	214.88
361.25	215.21
361.63	215.67
362.01	215.60
362.39	215.36
362.77	215.69
363.15	215.60
363.53	215.50
363.91	215.48
364.29	215.14
364.67	213.00
365.05	212.95
365.43	213.07
365.81	213.10
366.19	213.12
366.57	213.76
366.95	213.62
367.33	213.40
367.71	213.24
368.09	213.64
368.47	213.55
368.85	213.36
369.23	213.55
369.61	213.07
369.99	213.79
370.37	213.88
370.75	214.52
371.13	213.88
371.51	213.86
371.89	214.17
372.27	214.29
372.65	214.67
373.03	214.64
373.41	214.43
373.78	214.48
374.16	213.55
374.54	212.93
374.92	212.79
375.30	212.71
375.68	212.33
376.06	212.43
376.44	212.45
376.82	212.57
377.19	212.48
377.57	212.48
377.95	211.71
378.33	211.74
378.71	210.67
379.09	211.24
379.47	211.33
379.84	211.26
380.22	211.29
380.60	211.07
380.98	210.95
381.36	211.29
381.73	211.07
382.11	211.38
382.49	211.69
382.87	211.55
383.25	211.36
383.62	213.74
384.00	213.50
384.38	213.48
384.76	213.95
385.13	214.71
385.51	214.81
385.89	214.57
386.27	214.62
386.64	215.00
387.02	214.48
387.40	214.26
387.78	214.33
388.15	214.40
388.53	214.40
388.91	214.67
389.29	214.55
389.66	214.98
390.04	214.95
390.42	215.19
390.79	215.50
391.17	215.74
391.55	213.64
391.92	213.67
392.30	213.95
392.68	213.43
393.05	213.26
393.43	213.17
393.81	213.48
394.18	213.24
394.56	213.48
394.94	214.14
395.31	213.95
395.69	214.60
396.06	214.83
396.44	215.12
396.82	214.69
397.19	215.55
397.57	215.33
397.95	215.62
398.32	215.05
398.70	215.24
399.07	215.69
399.45	215.50
399.82	215.52
400.20	215.29
400.58	215.52
400.95	214.86
401.33	215.38
401.70	217.00
402.08	217.07
402.45	217.02
402.83	217.64
403.20	218.05
403.58	217.88
403.95	218.36
404.33	218.62
404.71	219.21
405.08	220.45
405.46	220.74
405.83	220.67
406.21	221.19
406.58	221.55
406.96	221.60
407.33	222.29
407.70	222.86
408.08	225.02
408.45	225.95
408.83	227.07
409.20	227.38
409.58	226.79
409.95	227.79
410.33	228.83
410.70	229.05
411.08	230.40
411.45	231.36
411.82	232.05
412.20	233.69
412.57	236.12
412.95	235.74
413.32	237.57
413.69	239.21
414.07	240.74
414.44	242.52
414.82	244.62
415.19	247.19
415.56	249.40
415.94	250.76
416.31	253.71
416.68	256.36
417.06	259.62
417.43	263.19
417.81	266.83
418.18	270.43
418.55	274.24
418.93	278.10
419.30	282.33
419.67	287.14
420.04	291.21
420.42	295.71
420.79	303.21
421.16	308.88
421.54	316.14
421.91	322.64
422.28	329.10
422.66	335.83
423.03	343.48
423.40	350.64
423.77	357.69
424.15	364.79
424.52	372.55
424.89	381.55
425.26	389.26
425.64	397.29
426.01	405.64
426.38	414.07
426.75	423.64
427.13	433.26
427.50	442.62
427.87	453.00
428.24	462.43
428.61	471.05
428.99	482.24
429.36	492.55
429.73	503.67
430.10	515.00
430.47	526.88
430.85	537.98
431.22	550.43
431.59	565.76
431.96	578.60
432.33	592.93
432.70	606.45
433.08	622.50
433.45	637.79
433.82	652.79
434.19	669.79
434.56	686.60
434.93	701.67
435.30	717.74
435.68	735.48
436.05	753.38
436.42	770.12
436.79	785.86
437.16	803.60
437.53	821.62
437.90	839.98
438.27	858.05
438.64	876.36
439.01	893.90
439.38	907.67
439.75	923.00
440.13	939.95
440.50	955.55
440.87	968.67
441.24	981.93
441.61	997.10
441.98	1008.86
442.35	1021.40
442.72	1035.07
443.09	1048.29
443.46	1055.64
443.83	1060.38
444.20	1065.52
444.57	1072.12
444.94	1074.79
445.31	1078.52
445.68	1084.26
446.05	1085.52
446.42	1084.00
446.79	1083.26
447.16	1081.21
447.53	1079.86
447.90	1073.31
448.27	1066.60
448.64	1057.74
449.01	1052.31
449.37	1041.10
449.74	1029.60
450.11	1017.36
450.48	1002.98
450.85	987.55
451.22	974.86
451.59	962.81
451.96	950.83
452.33	934.88
452.70	921.00
453.07	903.52
453.43	883.26
453.80	866.45
454.17	850.67
454.54	834.40
454.91	817.90
455.28	801.52
455.65	786.38
456.02	775.43
456.38	762.67
456.75	745.93
457.12	732.21
457.49	719.62
457.86	705.38
458.23	695.21
458.59	683.50
458.96	671.60
459.33	660.88
459.70	650.19
460.07	641.55
460.43	631.26
460.80	623.10
461.17	615.83
461.54	607.57
461.91	599.48
462.27	590.98
462.64	583.74
463.01	576.33
463.38	569.90
463.74	558.86
464.11	552.10
464.48	546.76
464.85	540.52
465.21	536.05
465.58	531.26
465.95	523.93
466.32	518.88
466.68	513.88
467.05	509.10
467.42	504.02
467.78	498.64
468.15	494.26
468.52	490.45
468.88	484.43
469.25	479.57
469.62	476.21
469.98	472.55
470.35	469.26
470.72	465.67
471.08	460.93
471.45	457.90
471.82	455.45
472.18	451.62
472.55	449.33
472.92	445.40
473.28	442.17
473.65	439.62
474.02	436.52
474.38	433.90
474.75	432.14
475.11	429.52
475.48	428.10
475.85	426.24
476.21	423.90
476.58	423.14
476.94	422.12
477.31	420.17
477.67	418.90
478.04	417.86
478.41	417.31
478.77	418.76
479.14	417.83
479.50	417.02
479.87	416.55
480.23	416.36
480.60	416.26
480.96	415.76
481.33	416.64
481.69	416.76
482.06	417.21
482.42	417.29
482.79	418.29
483.15	418.40
483.52	419.48
483.88	419.98
484.25	420.52
484.61	421.43
484.98	422.21
485.34	424.14
485.71	425.24
486.07	426.38
486.44	425.81
486.80	427.57
487.17	429.02
487.53	431.48
487.90	433.60
488.26	436.43
488.62	439.88
488.99	441.48
489.35	444.17
489.72	446.64
490.08	449.21
490.44	451.71
490.81	455.19
491.17	457.83
491.54	461.67
491.90	465.07
492.26	468.38
492.63	472.07
492.99	475.26
493.36	479.64
493.72	483.95
494.08	487.90
494.45	492.69
494.81	497.71
495.17	502.36
495.54	507.40
495.90	511.83
496.26	517.05
496.63	522.86
496.99	528.83
497.35	535.00
497.72	541.02
498.08	546.55
498.44	552.67
498.80	559.40
499.17	565.43
499.53	572.10
499.89	579.52
500.26	586.52
500.62	593.36
500.98	600.57
501.34	607.48
501.71	615.43
502.07	622.21
502.43	629.24
502.79	635.93
503.16	642.83
503.52	649.98
503.88	657.05
504.24	664.62
504.60	671.50
504.97	679.26
505.33	686.88
505.69	696.17
506.05	703.69
506.41	711.05
506.78	718.86
507.14	726.60
507.50	734.24
507.86	742.17
508.22	749.95
508.59	756.86
508.95	764.26
509.31	772.40
509.67	780.55
510.03	787.93
510.39	796.00
510.75	804.29
511.12	811.69
511.48	819.29
511.84	826.21
512.20	833.88
512.56	841.43
512.92	848.55
513.28	855.62
513.64	863.33
514.00	870.74
514.37	878.57
514.73	885.71
515.09	892.74
515.45	899.81
515.81	906.90
516.17	914.07
516.53	921.62
516.89	928.02
517.25	934.36
517.61	941.71
517.97	948.86
518.33	954.83
518.69	961.95
519.05	968.79
519.41	976.00
519.77	983.55
520.13	989.57
520.49	996.45
520.85	1002.21
521.21	1008.64
521.57	1014.50
521.93	1018.67
522.29	1024.31
522.65	1029.05
523.01	1034.86
523.37	1040.48
523.73	1045.90
524.09	1050.98
524.45	1055.76
524.81	1060.90
525.17	1065.52
525.53	1069.29
525.89	1074.69
526.25	1079.79
526.61	1083.76
526.97	1087.69
527.33	1092.10
527.68	1097.38
528.04	1101.88
528.40	1105.67
528.76	1109.36
529.12	1113.21
529.48	1118.93
529.84	1123.00
530.20	1127.79
530.56	1131.71
530.91	1135.88
531.27	1140.62
531.63	1144.83
531.99	1148.26
532.35	1152.10
532.71	1156.10
533.07	1161.86
533.42	1167.62
533.78	1171.26
534.14	1175.71
534.50	1179.76
534.86	1183.45
535.21	1186.83
535.57	1190.93
535.93	1195.38
536.29	1200.21
536.65	1205.07
537.00	1208.00
537.36	1211.93
537.72	1215.36
538.08	1219.02
538.44	1222.00
538.79	1224.81
539.15	1227.95
539.51	1232.71
539.87	1236.76
540.22	1240.17
540.58	1243.19
540.94	1245.24
541.29	1248.36
541.65	1250.93
542.01	1254.64
542.37	1256.95
542.72	1259.14
543.08	1260.98
543.44	1264.17
543.79	1265.64
544.15	1268.88
544.51	1272.31
544.87	1275.69
545.22	1279.55
545.58	1282.38
545.94	1285.38
546.29	1288.07
546.65	1291.17
547.01	1293.98
547.36	1296.14
547.72	1298.62
548.07	1301.12
548.43	1303.05
548.79	1305.86
549.14	1308.83
549.50	1310.95
549.86	1313.45
550.21	1316.76
550.57	1320.31
550.92	1322.00
551.28	1325.19
551.64	1327.62
551.99	1331.07
552.35	1333.95
552.70	1336.60
553.06	1340.60
553.41	1344.26
553.77	1349.83
554.13	1353.95
554.48	1357.57
554.84	1362.05
555.19	1365.40
555.55	1370.95
555.90	1374.86
556.26	1378.33
556.61	1382.38
556.97	1385.79
557.32	1390.33
557.68	1393.67
558.03	1397.55
558.39	1401.71
558.74	1405.83
559.10	1409.88
559.45	1413.71
559.81	1417.55
560.16	1422.10
560.52	1426.24
560.87	1430.88
561.23	1433.64
561.58	1438.60
561.94	1442.02
562.29	1446.45
562.64	1452.64
563.00	1455.74
563.35	1460.60
563.71	1466.00
564.06	1471.21
564.42	1476.93
564.77	1481.95
565.12	1488.71
565.48	1495.88
565.83	1502.74
566.19	1508.76
566.54	1514.05
566.89	1520.19
567.25	1527.07
567.60	1534.24
567.96	1541.31
568.31	1547.57
568.66	1554.71
569.02	1559.38
569.37	1565.60
569.72	1571.10
570.08	1576.38
570.43	1580.36
570.78	1586.24
571.14	1591.60
571.49	1597.60
571.84	1603.31
572.20	1608.40
572.55	1612.98
572.90	1615.55
573.26	1619.71
573.61	1623.74
573.96	1629.17
574.31	1632.62
574.67	1635.57
575.02	1637.90
575.37	1639.02
575.72	1640.98
576.08	1643.86
576.43	1647.55
576.78	1650.86
577.13	1654.05
577.49	1657.48
577.84	1662.33
578.19	1665.62
578.54	1670.00
578.90	1672.79
579.25	1676.33
579.60	1678.90
579.95	1681.14
580.30	1685.76
580.66	1688.98
581.01	1692.93
581.36	1694.98
581.71	1698.62
582.06	1702.86
582.42	1706.74
582.77	1711.31
583.12	1715.52
583.47	1718.07
583.82	1720.10
584.17	1723.64
584.53	1727.74
584.88	1729.83
585.23	1733.17
585.58	1734.98
585.93	1736.00
586.28	1738.38
586.63	1740.43
586.98	1743.48
587.34	1747.62
587.69	1749.33
588.04	1751.31
588.39	1752.67
588.74	1754.19
589.09	1756.38
589.44	1757.14
589.79	1758.40
590.14	1759.40
590.49	1760.95
590.84	1762.17
591.19	1764.64
591.54	1765.07
591.89	1765.62
592.25	1769.38
592.60	1769.19
592.95	1770.86
593.30	1773.02
593.65	1773.64
594.00	1773.52
594.35	1780.29
594.70	1778.71
595.05	1779.14
595.40	1779.93
595.75	1780.57
596.10	1782.29
596.45	1782.62
596.80	1783.69
597.15	1783.81
597.50	1784.74
597.85	1785.02
598.19	1785.36
598.54	1785.19
598.89	1785.95
599.24	1787.07
599.59	1785.14
599.94	1786.31
600.29	1786.00
600.64	1785.67
600.99	1785.40
601.34	1786.12
601.69	1780.76
602.04	1780.79
602.39	1779.83
602.74	1779.86
603.08	1779.76
603.43	1779.76
603.78	1779.76
604.13	1778.43
604.48	1778.33
604.83	1777.57
605.18	1776.67
605.53	1776.10
605.87	1774.71
606.22	1773.43
606.57	1771.55
606.92	1770.40
607.27	1768.38
607.62	1768.07
607.96	1766.98
608.31	1766.36
608.66	1765.26
609.01	1763.10
609.36	1762.40
609.70	1761.50
610.05	1759.24
610.40	1756.86
610.75	1753.86
611.10	1751.71
611.44	1750.38
611.79	1747.69
612.14	1745.36
612.49	1741.31
612.83	1738.45
613.18	1735.12
613.53	1732.62
613.88	1727.90
614.22	1723.95
614.57	1720.26
614.92	1716.14
615.27	1712.00
615.61	1707.26
615.96	1703.60
616.31	1700.02
616.65	1696.83
617.00	1693.33
617.35	1690.12
617.70	1687.29
618.04	1683.07
618.39	1678.00
618.74	1673.31
619.08	1669.36
619.43	1665.45
619.78	1662.95
620.12	1660.00
620.47	1656.86
620.82	1651.93
621.16	1647.81
621.51	1644.76
621.85	1640.98
622.20	1636.74
622.55	1631.57
622.89	1628.24
623.24	1623.93
623.59	1619.14
623.93	1614.57
624.28	1609.90
624.62	1608.10
624.97	1604.93
625.32	1600.95
625.66	1596.33
626.01	1592.71
626.35	1588.48
626.70	1583.55
627.04	1580.36
627.39	1575.26
627.73	1571.69
628.08	1568.33
628.43	1565.55
628.77	1560.83
629.12	1557.12
629.46	1553.40
629.81	1550.60
630.15	1545.24
630.50	1540.29
630.84	1536.26
631.19	1530.86
631.53	1526.10
631.88	1517.45
632.22	1510.24
632.57	1505.52
632.91	1500.31
633.26	1495.29
633.60	1489.31
633.95	1483.81
634.29	1477.57
634.64	1472.31
634.98	1466.88
635.32	1463.31
635.67	1458.26
636.01	1453.55
636.36	1447.33
636.70	1442.74
637.05	1437.60
637.39	1433.50
637.73	1428.19
638.08	1423.74
638.42	1418.93
638.77	1414.24
639.11	1410.10
639.45	1405.24
639.80	1398.86
640.14	1393.95
640.49	1388.29
640.83	1383.29
641.17	1378.64
641.52	1372.93
641.86	1367.10
642.20	1362.29
642.55	1354.76
642.89	1349.00
643.23	1342.83
643.58	1338.52
643.92	1331.29
644.26	1325.17
644.61	1319.05
644.95	1313.48
645.29	1306.50
645.64	1301.40
645.98	1294.93
646.32	1288.21
646.66	1281.33
647.01	1275.64
647.35	1270.26
647.69	1263.48
648.04	1257.45
648.38	1251.12
648.72	1245.93
649.06	1239.90
649.41	1232.76
649.75	1226.50
650.09	1219.69
650.43	1213.05
650.78	1205.64
651.12	1200.02
651.46	1192.90
651.80	1186.24
652.14	1179.57
652.49	1172.98
652.83	1165.62
653.17	1158.24
653.51	1151.52
653.85	1145.71
654.20	1139.17
654.54	1131.71
654.88	1125.19
655.22	1118.74
655.56	1111.62
655.90	1104.40
656.25	1097.98
656.59	1091.67
656.93	1085.29
657.27	1079.45
657.61	1072.81
657.95	1066.67
658.29	1059.45
658.64	1053.71
658.98	1047.45
659.32	1041.00
659.66	1035.02
660.00	1029.19
660.34	1023.24
660.68	1017.24
661.02	1010.90
661.36	1004.81
661.70	998.62
662.05	992.81
662.39	987.33
662.73	981.50
663.07	975.74
663.41	969.52
663.75	962.71
664.09	956.81
664.43	950.12
664.77	944.50
665.11	938.07
665.45	932.50
665.79	926.38
666.13	919.88
666.47	914.48
666.81	907.93
667.15	901.48
667.49	896.60
667.83	891.50
668.17	885.83
668.51	880.45
668.85	875.45
669.19	870.36
669.53	863.88
669.87	858.21
670.21	852.64
670.55	846.64
670.89	842.45
671.23	836.62
671.57	831.71
671.91	826.43
672.25	821.40
672.58	816.55
672.92	810.86
673.26	805.71
673.60	799.62
673.94	795.19
674.28	790.40
674.62	785.24
674.96	779.83
675.30	774.86
675.64	769.98
675.97	765.02
676.31	759.21
676.65	754.10
676.99	750.45
677.33	745.00
677.67	740.71
678.01	735.24
678.34	730.45
678.68	725.76
679.02	720.43
679.36	715.21
679.70	709.74
680.04	705.05
680.37	699.95
680.71	695.64
681.05	691.60
681.39	686.43
681.73	681.21
682.06	676.14
682.40	671.62
682.74	666.76
683.08	663.26
683.42	658.57
683.75	654.21
684.09	648.76
684.43	644.36
684.77	639.12
685.10	634.24
685.44	629.62
685.78	624.67
686.12	620.60
686.45	616.38
686.79	611.67
687.13	607.86
687.46	603.86
687.80	600.05
688.14	595.00
688.48	591.12
688.81	587.36
689.15	584.10
689.49	580.02
689.82	576.12
690.16	570.45
690.50	566.64
690.83	562.86
691.17	558.31
691.51	554.12
691.84	551.02
692.18	547.10
692.52	543.69
692.85	540.48
693.19	536.98
693.52	533.31
693.86	529.57
694.20	526.02
694.53	522.79
694.87	519.07
695.21	515.29
695.54	511.52
695.88	507.05
696.21	502.52
696.55	498.95
696.88	495.36
697.22	492.48
697.56	489.60
697.89	486.26
698.23	483.50
698.56	480.60
698.90	477.50
699.23	473.88
699.57	470.45
699.90	466.83
700.24	463.60
700.58	460.67
700.91	458.45
701.25	456.83
701.58	454.62
701.92	452.10
702.25	449.31
702.59	446.60
702.92	444.83
703.26	442.69
703.59	439.74
703.93	438.79
704.26	436.12
704.60	433.12
704.93	429.98
705.26	427.31
705.60	424.83
705.93	421.57
706.27	420.10
706.60	418.10
706.94	416.62
707.27	413.98
707.61	411.74
707.94	408.86
708.27	404.86
708.61	401.76
708.94	398.90
709.28	396.50
709.61	393.90
709.94	391.05
710.28	388.69
710.61	386.83
710.95	383.00
711.28	381.90
711.61	379.98
711.95	378.90
712.28	376.60
712.61	374.45
712.95	373.83
713.28	372.64
713.61	369.95
713.95	367.26
714.28	365.62
714.61	363.55
714.95	361.67
715.28	360.05
715.61	358.10
715.95	356.60
716.28	355.02
716.61	353.69
716.95	351.71
717.28	349.83
717.61	347.64
717.94	345.74
718.28	342.95
718.61	341.00
718.94	338.83
719.27	337.40
719.61	335.88
719.94	333.62
720.27	330.98
720.60	329.71
720.94	328.00
721.27	326.71
721.60	325.71
721.93	324.55
722.27	323.64
722.60	322.50
722.93	320.74
723.26	319.40
723.59	317.74
723.93	317.00
724.26	315.90
724.59	315.02
724.92	314.05
725.25	313.48
725.59	312.71
725.92	311.57
726.25	310.12
726.58	309.17
726.91	308.19
727.24	307.26
727.57	306.14
727.91	305.00
728.24	303.93
728.57	302.40
728.90	301.36
729.23	299.67
729.56	299.67
729.89	298.69
730.22	297.40
730.55	296.29
730.89	295.45
731.22	294.48
731.55	293.40
731.88	292.57
732.21	290.98
732.54	289.55
732.87	288.45
733.20	287.83
733.53	286.98
733.86	285.83
734.19	284.79
734.52	284.10
734.85	284.57
735.18	283.45
735.51	283.02
735.84	282.24
736.17	281.76
736.50	279.88
736.83	281.62
737.16	281.24
737.49	280.90
737.82	279.67
738.15	279.19
738.48	278.43
738.81	277.64
739.14	276.88
739.47	276.00
739.80	275.40
740.13	274.79
740.46	273.71
740.79	272.90
741.12	272.17
741.45	271.26
741.78	269.50
742.11	269.24
742.44	268.21
742.77	267.69
743.10	266.93
743.43	266.24
743.75	263.17
744.08	264.93
744.41	264.02
744.74	263.29
745.07	261.90
745.40	261.69
745.73	261.95
746.06	261.31
746.39	261.48
746.71	260.88
747.04	260.05
747.37	259.33
747.70	259.26
748.03	258.57
748.36	258.29
748.68	257.60
749.01	256.45
749.34	256.31
749.67	255.88
750.00	255.74
750.33	256.64
750.65	256.48
750.98	253.50
751.31	253.14
751.64	252.95
751.97	254.24
752.29	253.38
752.62	251.76
752.95	251.52
753.28	250.43
753.60	250.00
753.93	250.17
754.26	249.81
754.59	248.71
754.91	248.17
755.24	247.69
755.57	247.55
755.90	247.12
756.22	246.19
756.55	245.64
756.88	244.52
757.20	242.69
757.53	241.71
757.86	241.26
758.19	241.12
758.51	240.79
758.84	239.17
759.17	238.71
759.49	238.69
759.82	239.00
760.15	238.93
760.47	238.26
760.80	237.36
761.13	237.55
761.45	237.45
761.78	237.10
762.11	236.86
762.43	236.45
762.76	236.24
763.08	236.26
763.41	236.10
763.74	236.19
764.06	236.10
764.39	236.05
764.71	235.69
765.04	235.21
765.37	234.76
765.69	234.45
766.02	234.33
766.34	233.95
766.67	233.17
767.00	233.38
767.32	234.40
767.65	235.29
767.97	234.71
768.30	234.60
768.62	234.52
768.95	233.81
769.27	233.52
769.60	233.76
769.92	233.05
770.25	232.33
770.57	231.57
770.90	231.36
771.22	230.98
771.55	231.07
771.87	230.79
772.20	230.67
772.52	232.17
772.85	234.45
773.17	234.10
773.50	233.76
773.82	233.05
774.15	232.00
774.47	230.88
774.80	230.48
775.12	229.86
775.45	229.57
775.77	229.86
776.09	229.88
776.42	229.40
776.74	229.98
777.07	229.50
777.39	229.76
777.72	229.38
778.04	229.36
778.36	228.93
778.69	229.00
779.01	228.90
779.33	227.05
779.66	224.26
779.98	224.24
780.31	223.86
780.63	224.76
780.95	224.86
781.28	224.55
781.60	224.45
781.92	224.45
782.25	224.52
782.57	224.14
782.89	223.45
783.22	223.40
783.54	222.81
783.86	223.19
784.19	222.74
784.51	223.21
784.83	222.79
785.16	222.62
