SpectraSuite Data File
++++++++++++++++++++++++++++++++++++
Date: Tue Apr 02 18:39:04 EDT 2013
User: group
Dark Spectrum Present: No
Reference Spectrum Present: No
Number of Sampled Component Spectra: 1
Spectrometers: USB2E7196
Integration Time (usec): 580000 (USB2E7196)
Spectra Averaged: 2 (USB2E7196)
Boxcar Smoothing: 10 (USB2E7196)
Correct for Electrical Dark: No (USB2E7196)
Strobe/Lamp Enabled: No (USB2E7196)
Correct for Detector Non-linearity: No (USB2E7196)
Correct for Stray Light: No (USB2E7196)
Number of Pixels in Processed Spectrum: 2048
>>>>>Begin Processed Spectral Data<<<<<
339.09	0.00
339.48	192.00
339.86	194.50
340.24	195.00
340.63	199.00
341.01	228.00
341.39	201.00
341.78	203.50
342.16	213.00
342.54	203.50
342.93	196.71
343.31	206.40
343.69	207.19
344.07	207.79
344.46	208.57
344.84	209.02
345.22	208.07
345.60	208.48
345.99	208.74
346.37	208.50
346.75	208.83
347.13	208.98
347.52	209.24
347.90	209.90
348.28	210.10
348.66	210.33
349.05	209.71
349.43	210.00
349.81	210.57
350.19	210.62
350.57	210.50
350.96	210.86
351.34	211.19
351.72	211.02
352.10	211.00
352.48	210.86
352.87	210.83
353.25	210.71
353.63	210.60
354.01	210.67
354.39	210.98
354.77	210.95
355.15	211.45
355.54	211.38
355.92	210.83
356.30	211.07
356.68	212.50
357.06	212.71
357.44	212.62
357.82	212.48
358.20	213.48
358.58	213.69
358.97	214.02
359.35	214.52
359.73	215.17
360.11	215.55
360.49	215.64
360.87	215.88
361.25	216.26
361.63	217.00
362.01	216.95
362.39	216.90
362.77	217.19
363.15	217.12
363.53	217.00
363.91	217.40
364.29	217.36
364.67	215.50
365.05	215.79
365.43	215.83
365.81	215.86
366.19	216.00
366.57	216.86
366.95	216.55
367.33	216.29
367.71	216.26
368.09	216.31
368.47	216.45
368.85	216.48
369.23	217.12
369.61	216.74
369.99	217.67
370.37	217.90
370.75	218.81
371.13	218.57
371.51	218.33
371.89	218.36
372.27	218.36
372.65	218.50
373.03	218.52
373.41	218.45
373.78	218.48
374.16	217.50
374.54	216.93
374.92	216.98
375.30	216.88
375.68	216.40
376.06	216.69
376.44	216.64
376.82	216.74
377.19	216.26
377.57	216.05
377.95	215.24
378.33	215.24
378.71	213.86
379.09	213.95
379.47	214.40
379.84	214.29
380.22	214.14
380.60	213.81
380.98	213.64
381.36	213.69
381.73	213.38
382.11	213.74
382.49	213.81
382.87	213.50
383.25	213.62
383.62	216.10
384.00	215.69
384.38	215.71
384.76	216.38
385.13	217.26
385.51	217.24
385.89	217.33
386.27	217.24
386.64	217.69
387.02	217.57
387.40	217.33
387.78	217.45
388.15	217.55
388.53	217.33
388.91	217.19
389.29	217.00
389.66	217.31
390.04	217.10
390.42	217.36
390.79	217.74
391.17	217.62
391.55	215.43
391.92	215.38
392.30	215.74
392.68	214.93
393.05	214.74
393.43	214.71
393.81	214.55
394.18	214.14
394.56	214.31
394.94	214.86
395.31	214.71
395.69	215.29
396.06	215.57
396.44	215.98
396.82	216.07
397.19	217.00
397.57	216.95
397.95	217.17
398.32	216.48
398.70	216.48
399.07	216.93
399.45	216.95
399.82	217.02
400.20	216.71
400.58	216.64
400.95	215.93
401.33	216.50
401.70	218.33
402.08	218.57
402.45	218.40
402.83	218.90
403.20	219.26
403.58	219.05
403.95	219.57
404.33	220.21
404.71	220.67
405.08	222.05
405.46	222.21
405.83	222.88
406.21	223.40
406.58	224.02
406.96	224.10
407.33	224.74
407.70	225.40
408.08	227.64
408.45	228.79
408.83	230.21
409.20	230.64
409.58	230.00
409.95	231.43
410.33	232.67
410.70	232.76
411.08	234.31
411.45	235.60
411.82	236.45
412.20	238.05
412.57	240.48
412.95	240.19
413.32	242.31
413.69	243.90
414.07	245.95
414.44	247.95
414.82	250.60
415.19	253.36
415.56	256.05
415.94	257.52
416.31	260.67
416.68	263.45
417.06	267.21
417.43	271.33
417.81	275.05
418.18	278.98
418.55	283.62
418.93	287.81
419.30	292.24
419.67	297.14
420.04	301.62
420.42	306.62
420.79	314.79
421.16	320.95
421.54	328.57
421.91	335.45
422.28	342.45
422.66	349.62
423.03	358.19
423.40	366.00
423.77	374.21
424.15	382.38
424.52	391.12
424.89	400.98
425.26	409.79
425.64	418.33
426.01	427.83
426.38	437.79
426.75	448.88
427.13	459.57
427.50	470.74
427.87	482.21
428.24	493.10
428.61	502.57
428.99	514.83
429.36	526.71
429.73	539.93
430.10	552.40
430.47	565.26
430.85	577.69
431.22	592.00
431.59	608.81
431.96	623.21
432.33	639.24
432.70	654.14
433.08	672.43
433.45	690.14
433.82	707.45
434.19	726.93
434.56	745.45
434.93	763.19
435.30	780.90
435.68	801.86
436.05	821.26
436.42	840.69
436.79	859.19
437.16	878.14
437.53	898.19
437.90	919.64
438.27	940.43
438.64	960.64
439.01	979.76
439.38	995.62
439.75	1012.52
440.13	1031.33
440.50	1049.86
440.87	1064.90
441.24	1079.64
441.61	1097.00
441.98	1109.36
442.35	1123.12
442.72	1138.19
443.09	1154.00
443.46	1161.76
443.83	1168.26
444.20	1174.05
444.57	1181.05
444.94	1185.52
445.31	1189.81
445.68	1195.33
446.05	1196.40
446.42	1195.19
446.79	1194.14
447.16	1191.71
447.53	1190.95
447.90	1184.43
448.27	1176.55
448.64	1165.86
449.01	1159.17
449.37	1146.26
449.74	1133.21
450.11	1120.29
450.48	1103.29
450.85	1085.05
451.22	1070.50
451.59	1056.90
451.96	1043.38
452.33	1025.69
452.70	1009.62
453.07	989.55
453.43	967.57
453.80	949.69
454.17	931.45
454.54	913.93
454.91	895.62
455.28	876.76
455.65	859.24
456.02	845.79
456.38	831.55
456.75	814.10
457.12	798.38
457.49	783.93
457.86	768.07
458.23	756.90
458.59	743.40
458.96	730.19
459.33	718.12
459.70	706.12
460.07	696.67
460.43	685.24
460.80	675.45
461.17	666.83
461.54	656.62
461.91	647.57
462.27	638.29
462.64	630.21
463.01	621.52
463.38	614.19
463.74	602.57
464.11	595.02
464.48	587.67
464.85	580.67
465.21	575.79
465.58	569.62
465.95	562.05
466.32	556.67
466.68	550.45
467.05	543.79
467.42	537.95
467.78	531.52
468.15	526.21
468.52	522.00
468.88	515.83
469.25	510.74
469.62	507.02
469.98	502.43
470.35	498.29
470.72	494.29
471.08	488.93
471.45	486.14
471.82	483.00
472.18	479.45
472.55	476.60
472.92	472.43
473.28	469.21
473.65	465.55
474.02	462.24
474.38	460.33
474.75	459.21
475.11	456.40
475.48	454.57
475.85	452.52
476.21	450.31
476.58	448.98
476.94	447.90
477.31	446.26
477.67	444.69
478.04	443.64
478.41	443.14
478.77	444.60
479.14	443.21
479.50	442.36
479.87	442.19
480.23	441.76
480.60	441.29
480.96	441.02
481.33	442.33
481.69	442.45
482.06	442.69
482.42	442.55
482.79	443.40
483.15	443.95
483.52	444.88
483.88	445.33
484.25	445.76
484.61	446.95
484.98	447.86
485.34	449.71
485.71	451.29
486.07	452.67
486.44	452.43
486.80	454.07
487.17	455.64
487.53	457.88
487.90	460.62
488.26	464.10
488.62	467.43
488.99	469.81
489.35	472.95
489.72	475.79
490.08	478.93
490.44	482.05
490.81	485.88
491.17	489.60
491.54	494.19
491.90	498.67
492.26	502.26
492.63	507.02
492.99	511.05
493.36	515.81
493.72	520.93
494.08	526.24
494.45	531.95
494.81	538.19
495.17	543.86
495.54	549.81
495.90	555.50
496.26	561.36
496.63	567.40
496.99	573.52
497.35	580.24
497.72	587.55
498.08	594.24
498.44	601.14
498.80	608.90
499.17	616.05
499.53	623.67
499.89	632.29
500.26	640.21
500.62	648.10
500.98	656.36
501.34	664.52
501.71	672.81
502.07	680.86
502.43	688.74
502.79	696.86
503.16	705.02
503.52	713.36
503.88	722.00
504.24	731.33
504.60	740.60
504.97	749.98
505.33	759.21
505.69	769.76
506.05	779.02
506.41	787.90
506.78	796.98
507.14	806.26
507.50	815.74
507.86	825.12
508.22	835.02
508.59	844.29
508.95	853.81
509.31	864.26
509.67	874.67
510.03	884.55
510.39	894.24
510.75	903.55
511.12	913.50
511.48	922.81
511.84	931.71
512.20	941.31
512.56	950.31
512.92	959.60
513.28	968.93
513.64	978.00
514.00	987.38
514.37	997.10
514.73	1006.64
515.09	1015.88
515.45	1024.07
515.81	1033.05
516.17	1042.05
516.53	1050.69
516.89	1058.24
517.25	1065.98
517.61	1075.05
517.97	1083.60
518.33	1092.48
518.69	1100.71
519.05	1109.69
519.41	1119.12
519.77	1129.26
520.13	1138.05
520.49	1146.50
520.85	1153.88
521.21	1163.26
521.57	1170.95
521.93	1178.24
522.29	1186.36
522.65	1193.36
523.01	1201.98
523.37	1208.83
523.73	1216.88
524.09	1223.79
524.45	1231.19
524.81	1238.69
525.17	1245.57
525.53	1252.90
525.89	1259.83
526.25	1267.62
526.61	1273.10
526.97	1278.98
527.33	1283.76
527.68	1291.67
528.04	1297.50
528.40	1303.90
528.76	1309.26
529.12	1315.64
529.48	1322.62
529.84	1328.02
530.20	1334.50
530.56	1340.02
530.91	1347.69
531.27	1353.64
531.63	1360.71
531.99	1366.93
532.35	1372.79
532.71	1378.64
533.07	1384.86
533.42	1393.17
533.78	1398.33
534.14	1406.02
534.50	1412.26
534.86	1419.48
535.21	1423.64
535.57	1429.90
535.93	1436.07
536.29	1442.76
536.65	1448.83
537.00	1454.05
537.36	1459.33
537.72	1464.52
538.08	1470.00
538.44	1474.69
538.79	1479.36
539.15	1484.50
539.51	1489.21
539.87	1495.02
540.22	1500.26
540.58	1505.86
540.94	1509.21
541.29	1513.64
541.65	1517.60
542.01	1522.33
542.37	1525.88
542.72	1530.19
543.08	1534.24
543.44	1539.52
543.79	1542.76
544.15	1547.76
544.51	1553.21
544.87	1558.00
545.22	1562.00
545.58	1567.24
545.94	1570.90
546.29	1575.33
546.65	1578.93
547.01	1583.74
547.36	1587.52
547.72	1591.07
548.07	1595.12
548.43	1598.45
548.79	1602.00
549.14	1605.29
549.50	1609.12
549.86	1611.69
550.21	1615.88
550.57	1619.79
550.92	1621.64
551.28	1626.05
551.64	1629.12
551.99	1632.00
552.35	1635.21
552.70	1639.36
553.06	1642.64
553.41	1646.69
553.77	1651.50
554.13	1655.36
554.48	1659.88
554.84	1663.95
555.19	1668.83
555.55	1672.95
555.90	1676.90
556.26	1681.64
556.61	1685.71
556.97	1689.21
557.32	1693.90
557.68	1697.38
558.03	1700.50
558.39	1704.24
558.74	1707.55
559.10	1710.95
559.45	1714.05
559.81	1717.60
560.16	1721.48
560.52	1724.60
560.87	1728.33
561.23	1730.71
561.58	1735.43
561.94	1738.55
562.29	1740.74
562.64	1744.69
563.00	1746.90
563.35	1749.79
563.71	1753.71
564.06	1757.55
564.42	1761.55
564.77	1765.50
565.12	1769.36
565.48	1775.10
565.83	1779.64
566.19	1784.40
566.54	1788.29
566.89	1791.81
567.25	1796.67
567.60	1800.83
567.96	1806.74
568.31	1810.95
568.66	1815.07
569.02	1817.21
569.37	1819.07
569.72	1823.05
570.08	1824.74
570.43	1826.86
570.78	1830.14
571.14	1832.60
571.49	1835.19
571.84	1837.21
572.20	1839.00
572.55	1840.86
572.90	1841.10
573.26	1841.98
573.61	1841.74
573.96	1842.17
574.31	1843.31
574.67	1843.52
575.02	1843.69
575.37	1842.74
575.72	1842.62
576.08	1842.57
576.43	1843.79
576.78	1844.24
577.13	1844.86
577.49	1844.83
577.84	1845.17
578.19	1844.64
578.54	1844.40
578.90	1843.74
579.25	1842.95
579.60	1842.64
579.95	1841.05
580.30	1841.98
580.66	1842.60
581.01	1842.26
581.36	1841.26
581.71	1841.57
582.06	1842.29
582.42	1840.86
582.77	1838.81
583.12	1837.33
583.47	1836.36
583.82	1834.33
584.17	1833.60
584.53	1831.88
584.88	1830.12
585.23	1829.60
585.58	1828.48
585.93	1825.90
586.28	1824.93
586.63	1823.60
586.98	1821.71
587.34	1821.29
587.69	1817.86
588.04	1814.33
588.39	1812.29
588.74	1809.52
589.09	1806.93
589.44	1802.48
589.79	1800.40
590.14	1798.36
590.49	1795.57
590.84	1792.88
591.19	1789.43
591.54	1786.60
591.89	1783.43
592.25	1782.48
592.60	1778.76
592.95	1776.02
593.30	1773.50
593.65	1769.05
594.00	1765.24
594.35	1767.24
594.70	1762.60
595.05	1759.83
595.40	1757.17
595.75	1753.50
596.10	1751.21
596.45	1747.40
596.80	1744.86
597.15	1741.45
597.50	1737.48
597.85	1735.81
598.19	1731.60
598.54	1728.29
598.89	1724.88
599.24	1721.24
599.59	1715.86
599.94	1713.10
600.29	1708.31
600.64	1703.88
600.99	1701.31
601.34	1697.93
601.69	1688.02
602.04	1685.36
602.39	1679.81
602.74	1676.00
603.08	1671.79
603.43	1668.67
603.78	1664.64
604.13	1659.55
604.48	1655.00
604.83	1650.98
605.18	1645.26
605.53	1640.74
605.87	1636.07
606.22	1631.02
606.57	1626.88
606.92	1621.86
607.27	1616.33
607.62	1612.76
607.96	1609.10
608.31	1604.21
608.66	1599.43
609.01	1594.88
609.36	1589.60
609.70	1584.10
610.05	1578.83
610.40	1573.48
610.75	1567.07
611.10	1561.86
611.44	1555.98
611.79	1549.81
612.14	1544.79
612.49	1537.95
612.83	1532.00
613.18	1525.95
613.53	1520.14
613.88	1513.69
614.22	1508.05
614.57	1501.31
614.92	1493.83
615.27	1487.14
615.61	1480.50
615.96	1473.86
616.31	1467.05
616.65	1461.26
617.00	1456.69
617.35	1449.81
617.70	1443.62
618.04	1436.90
618.39	1429.88
618.74	1424.14
619.08	1418.43
619.43	1411.71
619.78	1406.31
620.12	1400.52
620.47	1395.64
620.82	1388.50
621.16	1381.50
621.51	1375.86
621.85	1369.79
622.20	1363.98
622.55	1356.57
622.89	1349.90
623.24	1344.10
623.59	1338.55
623.93	1332.05
624.28	1326.29
624.62	1323.26
624.97	1318.79
625.32	1313.26
625.66	1308.19
626.01	1301.52
626.35	1295.83
626.70	1289.90
627.04	1283.86
627.39	1277.43
627.73	1271.76
628.08	1267.33
628.43	1262.33
628.77	1256.07
629.12	1250.64
629.46	1245.21
629.81	1240.33
630.15	1234.21
630.50	1227.43
630.84	1220.86
631.19	1214.10
631.53	1207.43
631.88	1198.31
632.22	1190.38
632.57	1184.62
632.91	1177.60
633.26	1171.74
633.60	1164.95
633.95	1159.26
634.29	1152.83
634.64	1146.93
634.98	1139.55
635.32	1133.88
635.67	1127.69
636.01	1121.33
636.36	1114.88
636.70	1108.90
637.05	1102.57
637.39	1097.05
637.73	1091.31
638.08	1086.48
638.42	1080.71
638.77	1075.26
639.11	1069.45
639.45	1064.36
639.80	1057.60
640.14	1051.93
640.49	1045.83
640.83	1039.67
641.17	1032.95
641.52	1026.48
641.86	1020.86
642.20	1015.57
642.55	1008.48
642.89	1002.55
643.23	996.40
643.58	991.29
643.92	984.64
644.26	978.43
644.61	972.00
644.95	965.67
645.29	958.67
645.64	953.19
645.98	946.29
646.32	940.71
646.66	933.81
647.01	927.74
647.35	921.69
647.69	916.38
648.04	910.98
648.38	905.64
648.72	900.36
649.06	894.38
649.41	887.98
649.75	881.79
650.09	875.10
650.43	869.38
650.78	862.45
651.12	856.40
651.46	850.79
651.80	845.02
652.14	839.40
652.49	834.55
652.83	827.98
653.17	822.17
653.51	815.05
653.85	809.33
654.20	803.95
654.54	797.71
654.88	791.21
655.22	786.07
655.56	779.69
655.90	773.64
656.25	767.55
656.59	762.31
656.93	756.95
657.27	752.93
657.61	746.74
657.95	742.05
658.29	736.95
658.64	731.29
658.98	725.90
659.32	720.24
659.66	714.43
660.00	709.64
660.34	704.67
660.68	700.21
661.02	695.14
661.36	689.69
661.70	684.60
662.05	679.86
662.39	674.81
662.73	671.43
663.07	667.86
663.41	663.33
663.75	657.95
664.09	653.17
664.43	647.26
664.77	643.00
665.11	637.93
665.45	633.62
665.79	630.12
666.13	625.67
666.47	621.57
666.81	616.90
667.15	612.31
667.49	608.29
667.83	604.33
668.17	600.36
668.51	596.21
668.85	592.52
669.19	589.76
669.53	585.19
669.87	579.36
670.21	574.90
670.55	570.74
670.89	568.14
671.23	564.17
671.57	560.60
671.91	557.26
672.25	553.57
672.58	550.81
672.92	546.14
673.26	542.74
673.60	539.33
673.94	536.02
674.28	532.48
674.62	529.57
674.96	526.29
675.30	523.05
675.64	520.38
675.97	517.38
676.31	513.33
676.65	509.62
676.99	508.02
677.33	504.02
677.67	501.19
678.01	496.98
678.34	494.19
678.68	491.36
679.02	488.05
679.36	484.67
679.70	480.71
680.04	477.88
680.37	474.62
680.71	471.71
681.05	468.88
681.39	466.40
681.73	462.83
682.06	460.07
682.40	457.14
682.74	454.31
683.08	451.95
683.42	448.86
683.75	446.86
684.09	443.12
684.43	440.86
684.77	437.98
685.10	435.74
685.44	433.10
685.78	430.17
686.12	427.14
686.45	424.60
686.79	421.67
687.13	419.67
687.46	417.45
687.80	415.36
688.14	413.02
688.48	410.90
688.81	409.05
689.15	406.98
689.49	404.71
689.82	402.38
690.16	399.02
690.50	396.71
690.83	393.95
691.17	391.60
691.51	389.40
691.84	387.40
692.18	384.88
692.52	382.57
692.85	380.71
693.19	379.81
693.52	377.83
693.86	375.79
694.20	373.48
694.53	371.43
694.87	369.26
695.21	367.14
695.54	364.74
695.88	362.05
696.21	359.14
696.55	357.05
696.88	355.24
697.22	353.71
697.56	351.98
697.89	350.14
698.23	348.60
698.56	346.60
698.90	345.29
699.23	343.50
699.57	341.76
699.90	339.86
700.24	337.62
700.58	336.07
700.91	334.95
701.25	334.79
701.58	334.21
701.92	332.88
702.25	331.33
702.59	329.69
702.92	328.19
703.26	327.36
703.59	326.05
703.93	326.07
704.26	324.55
704.60	323.43
704.93	322.14
705.26	320.83
705.60	320.36
705.93	318.48
706.27	317.79
706.60	316.98
706.94	316.62
707.27	315.24
707.61	314.14
707.94	312.86
708.27	310.12
708.61	307.81
708.94	306.33
709.28	305.02
709.61	303.79
709.94	302.83
710.28	301.52
710.61	300.33
710.95	297.52
711.28	297.83
711.61	296.74
711.95	296.19
712.28	294.95
712.61	293.71
712.95	293.98
713.28	293.69
713.61	292.33
713.95	290.88
714.28	289.98
714.61	288.98
714.95	287.83
715.28	286.88
715.61	286.33
715.95	285.81
716.28	285.02
716.61	284.52
716.95	283.40
717.28	282.62
717.61	281.69
717.94	280.90
718.28	278.62
718.61	277.81
718.94	276.67
719.27	275.86
719.61	274.79
719.94	273.36
720.27	271.83
720.60	271.26
720.94	270.45
721.27	269.69
721.60	269.50
721.93	268.83
722.27	268.86
722.60	268.17
722.93	266.90
723.26	266.40
723.59	265.33
723.93	265.12
724.26	264.55
724.59	264.02
724.92	263.62
725.25	263.83
725.59	263.19
725.92	262.81
726.25	262.05
726.58	261.62
726.91	260.83
727.24	260.40
727.57	259.71
727.91	258.86
728.24	258.62
728.57	257.67
728.90	257.33
729.23	256.14
729.56	256.81
729.89	256.48
730.22	255.71
730.55	255.26
730.89	254.76
731.22	254.21
731.55	253.81
731.88	253.62
732.21	252.74
732.54	252.05
732.87	251.71
733.20	251.43
733.53	251.24
733.86	250.79
734.19	250.10
734.52	250.07
734.85	251.26
735.18	250.40
735.51	250.67
735.84	250.26
736.17	250.52
736.50	248.86
736.83	251.12
737.16	251.12
737.49	250.79
737.82	250.17
738.15	250.14
738.48	249.60
738.81	248.88
739.14	248.26
739.47	247.95
739.80	247.57
740.13	247.60
740.46	246.74
740.79	246.31
741.12	245.76
741.45	245.26
741.78	243.93
742.11	244.38
742.44	243.45
742.77	243.69
743.10	243.00
743.43	242.60
743.75	239.93
744.08	242.05
744.41	241.90
744.74	241.74
745.07	240.93
745.40	241.14
745.73	241.86
746.06	241.95
746.39	242.10
746.71	241.57
747.04	240.67
747.37	240.36
747.70	240.45
748.03	240.45
748.36	240.45
748.68	240.05
749.01	239.17
749.34	239.05
749.67	238.62
750.00	238.57
750.33	240.02
750.65	240.10
750.98	237.43
751.31	237.36
751.64	237.29
751.97	238.33
752.29	237.76
752.62	236.36
752.95	235.90
753.28	235.21
753.60	234.79
753.93	235.45
754.26	235.40
754.59	234.64
754.91	234.36
755.24	233.98
755.57	233.40
755.90	233.38
756.22	233.19
756.55	232.48
756.88	231.95
757.20	230.02
757.53	229.17
757.86	228.93
758.19	228.93
758.51	228.62
758.84	227.17
759.17	227.02
759.49	227.21
759.82	227.98
760.15	228.12
760.47	228.10
760.80	227.45
761.13	227.50
761.45	227.21
761.78	226.95
762.11	226.67
762.43	226.57
762.76	226.10
763.08	225.83
763.41	226.00
763.74	226.12
764.06	226.29
764.39	226.29
764.71	225.98
765.04	225.50
765.37	225.12
765.69	225.05
766.02	224.81
766.34	224.60
766.67	223.86
767.00	224.12
767.32	225.17
767.65	226.10
767.97	226.00
768.30	226.21
768.62	226.26
768.95	225.98
769.27	226.00
769.60	226.31
769.92	225.98
770.25	225.48
770.57	224.76
770.90	224.60
771.22	224.29
771.55	224.43
771.87	224.33
772.20	224.36
772.52	226.12
772.85	228.50
773.17	228.33
773.50	227.98
773.82	227.52
774.15	226.29
774.47	225.05
774.80	224.71
775.12	224.62
775.45	224.24
775.77	224.57
776.09	224.83
776.42	224.60
776.74	225.21
777.07	225.10
777.39	225.21
777.72	224.76
778.04	224.88
778.36	224.50
778.69	224.57
779.01	224.62
779.33	222.55
779.66	220.19
779.98	219.67
780.31	219.81
780.63	220.38
780.95	220.76
781.28	220.48
781.60	220.10
781.92	219.86
782.25	220.10
782.57	219.55
782.89	218.98
783.22	218.81
783.54	218.26
783.86	218.40
784.19	218.33
784.51	219.07
784.83	218.88
785.16	218.95
785.48	218.79
785.80	218.60
