SpectraSuite Data File
++++++++++++++++++++++++++++++++++++
Date: Tue Apr 02 18:42:25 EDT 2013
User: group
Dark Spectrum Present: No
Reference Spectrum Present: No
Number of Sampled Component Spectra: 1
Spectrometers: USB2E7196
Integration Time (usec): 580000 (USB2E7196)
Spectra Averaged: 2 (USB2E7196)
Boxcar Smoothing: 10 (USB2E7196)
Correct for Electrical Dark: No (USB2E7196)
Strobe/Lamp Enabled: No (USB2E7196)
Correct for Detector Non-linearity: No (USB2E7196)
Correct for Stray Light: No (USB2E7196)
Number of Pixels in Processed Spectrum: 2048
>>>>>Begin Processed Spectral Data<<<<<
339.09	0.00
339.48	190.00
339.86	196.00
340.24	193.50
340.63	196.00
341.01	233.00
341.39	200.50
341.78	208.50
342.16	212.50
342.54	206.00
342.93	197.45
343.31	207.14
343.69	207.95
344.07	208.33
344.46	209.38
344.84	209.95
345.22	208.90
345.60	209.67
345.99	209.62
346.37	209.62
346.75	209.69
347.13	209.98
347.52	210.10
347.90	210.98
348.28	210.86
348.66	211.24
349.05	210.64
349.43	211.21
349.81	211.43
350.19	211.60
350.57	211.79
350.96	212.05
351.34	212.64
351.72	212.79
352.10	213.21
352.48	212.93
352.87	213.17
353.25	213.02
353.63	212.62
354.01	212.79
354.39	212.83
354.77	213.02
355.15	213.64
355.54	213.43
355.92	212.79
356.30	213.07
356.68	214.57
357.06	214.60
357.44	214.29
357.82	214.14
358.20	214.88
358.58	214.93
358.97	214.93
359.35	215.26
359.73	215.76
360.11	215.83
360.49	216.00
360.87	215.95
361.25	216.19
361.63	216.88
362.01	216.90
362.39	216.81
362.77	217.19
363.15	217.10
363.53	217.29
363.91	217.48
364.29	217.55
364.67	215.52
365.05	215.79
365.43	216.05
365.81	216.50
366.19	216.88
366.57	217.40
366.95	217.50
367.33	216.95
367.71	216.90
368.09	217.14
368.47	217.19
368.85	217.36
369.23	218.05
369.61	217.36
369.99	218.02
370.37	218.17
370.75	218.86
371.13	218.45
371.51	218.17
371.89	218.36
372.27	218.55
372.65	218.79
373.03	218.76
373.41	218.74
373.78	218.62
374.16	217.33
374.54	216.83
374.92	216.45
375.30	216.48
375.68	215.98
376.06	215.93
376.44	215.69
376.82	215.52
377.19	215.10
377.57	215.12
377.95	214.26
378.33	214.33
378.71	213.19
379.09	213.50
379.47	213.67
379.84	213.43
380.22	213.02
380.60	212.62
380.98	212.40
381.36	212.31
381.73	211.79
382.11	212.36
382.49	212.31
382.87	212.07
383.25	212.10
383.62	214.52
384.00	214.19
384.38	214.36
384.76	214.83
385.13	215.60
385.51	215.83
385.89	215.98
386.27	215.98
386.64	216.24
387.02	215.93
387.40	215.69
387.78	215.76
388.15	215.83
388.53	215.67
388.91	215.79
389.29	215.52
389.66	216.12
390.04	215.74
390.42	215.98
390.79	216.12
391.17	216.10
391.55	213.86
391.92	213.76
392.30	213.88
392.68	213.50
393.05	213.38
393.43	213.10
393.81	213.14
394.18	212.52
394.56	212.43
394.94	212.88
395.31	212.95
395.69	213.55
396.06	213.93
396.44	214.14
396.82	213.71
397.19	214.64
397.57	214.19
397.95	214.55
398.32	214.12
398.70	214.45
399.07	214.81
399.45	214.79
399.82	214.93
400.20	214.79
400.58	214.52
400.95	213.67
401.33	214.38
401.70	215.93
402.08	216.21
402.45	216.29
402.83	216.90
403.20	217.00
403.58	216.93
403.95	217.48
404.33	217.90
404.71	218.40
405.08	219.74
405.46	220.29
405.83	220.57
406.21	221.29
406.58	221.60
406.96	221.79
407.33	222.31
407.70	222.98
408.08	224.93
408.45	226.00
408.83	227.17
409.20	227.33
409.58	227.02
409.95	228.07
410.33	229.12
410.70	229.31
411.08	230.62
411.45	231.62
411.82	232.31
412.20	234.12
412.57	236.67
412.95	236.12
413.32	237.71
413.69	239.64
414.07	241.17
414.44	243.17
414.82	245.29
415.19	247.83
415.56	250.24
415.94	251.79
416.31	254.81
416.68	257.74
417.06	261.17
417.43	264.50
417.81	268.17
418.18	271.86
418.55	275.83
418.93	279.64
419.30	283.98
419.67	288.57
420.04	292.74
420.42	296.88
420.79	304.33
421.16	309.90
421.54	316.50
421.91	322.71
422.28	328.50
422.66	335.12
423.03	343.00
423.40	350.29
423.77	357.55
424.15	364.64
424.52	372.38
424.89	381.31
425.26	388.95
425.64	396.64
426.01	404.57
426.38	413.43
426.75	423.43
427.13	432.55
427.50	442.14
427.87	452.38
428.24	462.05
428.61	470.88
428.99	482.29
429.36	492.83
429.73	504.14
430.10	515.60
430.47	527.52
430.85	537.86
431.22	549.95
431.59	564.71
431.96	577.81
432.33	592.00
432.70	605.26
433.08	621.88
433.45	637.02
433.82	652.81
434.19	670.19
434.56	687.24
434.93	703.17
435.30	719.07
435.68	736.40
436.05	754.33
436.42	770.88
436.79	787.12
437.16	804.26
437.53	822.36
437.90	840.55
438.27	858.60
438.64	877.26
439.01	894.24
439.38	908.12
439.75	922.62
440.13	939.19
440.50	955.12
440.87	968.43
441.24	981.83
441.61	996.79
441.98	1007.21
442.35	1018.86
442.72	1031.95
443.09	1045.00
443.46	1053.02
443.83	1058.29
444.20	1063.29
444.57	1069.38
444.94	1072.33
445.31	1075.79
445.68	1081.69
446.05	1083.00
446.42	1081.26
446.79	1080.14
447.16	1078.14
447.53	1077.05
447.90	1070.74
448.27	1064.76
448.64	1055.10
449.01	1049.29
449.37	1038.02
449.74	1026.76
450.11	1015.52
450.48	1001.19
450.85	986.12
451.22	973.14
451.59	960.98
451.96	949.14
452.33	933.52
452.70	919.86
453.07	903.07
453.43	883.19
453.80	866.40
454.17	850.48
454.54	834.79
454.91	818.81
455.28	802.24
455.65	787.26
456.02	775.17
456.38	762.69
456.75	746.74
457.12	733.00
457.49	720.07
457.86	705.69
458.23	695.02
458.59	682.69
458.96	670.93
459.33	660.26
459.70	650.00
460.07	641.10
460.43	631.36
460.80	622.29
461.17	615.45
461.54	607.36
461.91	599.57
462.27	591.57
462.64	584.02
463.01	576.93
463.38	570.21
463.74	559.71
464.11	553.14
464.48	547.64
464.85	541.69
465.21	537.33
465.58	532.48
465.95	525.88
466.32	521.26
466.68	515.79
467.05	510.48
467.42	505.48
467.78	500.36
468.15	495.40
468.52	491.86
468.88	485.71
469.25	481.19
469.62	478.07
469.98	474.38
470.35	470.74
470.72	467.29
471.08	462.83
471.45	459.90
471.82	456.93
472.18	453.33
472.55	450.93
472.92	447.33
473.28	443.90
473.65	440.98
474.02	437.86
474.38	435.88
474.75	434.17
475.11	431.21
475.48	429.36
475.85	427.10
476.21	425.21
476.58	424.05
476.94	422.60
477.31	421.19
477.67	420.07
478.04	419.24
478.41	418.50
478.77	420.00
479.14	418.71
479.50	418.19
479.87	417.81
480.23	417.31
480.60	417.00
480.96	417.02
481.33	418.02
481.69	418.31
482.06	418.57
482.42	418.76
482.79	419.45
483.15	419.76
483.52	420.93
483.88	421.43
484.25	421.62
484.61	422.29
484.98	422.67
485.34	424.38
485.71	425.90
486.07	426.74
486.44	426.24
486.80	427.90
487.17	428.98
487.53	431.79
487.90	433.79
488.26	436.69
488.62	439.10
488.99	440.69
489.35	443.64
489.72	446.05
490.08	448.86
490.44	451.81
490.81	455.02
491.17	457.83
491.54	461.02
491.90	465.12
492.26	468.76
492.63	472.50
492.99	475.38
493.36	479.12
493.72	484.00
494.08	488.19
494.45	492.86
494.81	498.14
495.17	502.12
495.54	507.64
495.90	511.95
496.26	517.24
496.63	523.05
496.99	528.26
497.35	533.81
497.72	539.52
498.08	545.24
498.44	551.10
498.80	557.86
499.17	564.29
499.53	570.33
499.89	577.00
500.26	583.43
500.62	590.67
500.98	598.21
501.34	604.64
501.71	611.81
502.07	618.57
502.43	625.76
502.79	632.83
503.16	639.71
503.52	647.43
503.88	654.62
504.24	662.24
504.60	669.14
504.97	677.43
505.33	684.98
505.69	693.31
506.05	700.93
506.41	708.14
506.78	715.36
507.14	723.12
507.50	731.10
507.86	739.48
508.22	747.50
508.59	754.24
508.95	762.50
509.31	771.07
509.67	779.48
510.03	786.79
510.39	795.19
510.75	803.43
511.12	811.50
511.48	819.48
511.84	827.21
512.20	835.38
512.56	842.52
512.92	850.40
513.28	857.76
513.64	865.21
514.00	873.19
514.37	880.69
514.73	888.05
515.09	895.83
515.45	902.81
515.81	909.64
516.17	917.19
516.53	923.79
516.89	930.10
517.25	936.50
517.61	943.57
517.97	949.62
518.33	955.69
518.69	962.26
519.05	968.74
519.41	974.48
519.77	982.17
520.13	988.21
520.49	993.62
520.85	999.26
521.21	1006.31
521.57	1012.07
521.93	1017.45
522.29	1023.36
522.65	1027.98
523.01	1033.62
523.37	1038.98
523.73	1044.64
524.09	1049.90
524.45	1054.74
524.81	1060.14
525.17	1065.02
525.53	1069.69
525.89	1074.43
526.25	1079.48
526.61	1084.14
526.97	1088.26
527.33	1091.55
527.68	1098.40
528.04	1103.17
528.40	1107.98
528.76	1111.19
529.12	1115.29
529.48	1120.29
529.84	1123.90
530.20	1128.86
530.56	1133.31
530.91	1138.10
531.27	1141.81
531.63	1146.69
531.99	1150.79
532.35	1155.00
532.71	1159.33
533.07	1163.19
533.42	1169.52
533.78	1173.12
534.14	1177.81
534.50	1182.60
534.86	1187.43
535.21	1189.64
535.57	1194.21
535.93	1197.76
536.29	1203.19
536.65	1208.05
537.00	1212.31
537.36	1216.98
537.72	1219.79
538.08	1224.36
538.44	1227.17
538.79	1231.14
539.15	1233.88
539.51	1237.81
539.87	1241.43
540.22	1245.02
540.58	1248.90
540.94	1249.88
541.29	1252.93
541.65	1254.76
542.01	1258.52
542.37	1261.00
542.72	1263.50
543.08	1265.24
543.44	1268.52
543.79	1269.90
544.15	1272.52
544.51	1275.24
544.87	1277.98
545.22	1281.55
545.58	1283.83
545.94	1286.93
546.29	1289.60
546.65	1292.74
547.01	1295.05
547.36	1297.26
547.72	1299.62
548.07	1303.60
548.43	1306.10
548.79	1308.90
549.14	1311.67
549.50	1315.05
549.86	1317.19
550.21	1320.74
550.57	1325.00
550.92	1327.69
551.28	1331.02
551.64	1333.14
551.99	1335.45
552.35	1338.21
552.70	1341.36
553.06	1344.71
553.41	1347.71
553.77	1352.19
554.13	1355.38
554.48	1359.90
554.84	1364.93
555.19	1369.14
555.55	1373.10
555.90	1377.50
556.26	1381.10
556.61	1385.14
556.97	1387.19
557.32	1390.98
557.68	1394.74
558.03	1398.74
558.39	1402.31
558.74	1406.83
559.10	1411.33
559.45	1415.98
559.81	1420.40
560.16	1424.40
560.52	1427.95
560.87	1433.05
561.23	1436.38
561.58	1443.67
561.94	1447.38
562.29	1450.71
562.64	1454.69
563.00	1458.50
563.35	1463.52
563.71	1469.00
564.06	1474.48
564.42	1480.26
564.77	1486.86
565.12	1492.43
565.48	1499.10
565.83	1505.64
566.19	1511.31
566.54	1517.64
566.89	1522.98
567.25	1529.38
567.60	1536.29
567.96	1544.26
568.31	1551.00
568.66	1557.88
569.02	1561.02
569.37	1566.36
569.72	1572.48
570.08	1577.55
570.43	1582.26
570.78	1587.38
571.14	1593.17
571.49	1597.86
571.84	1602.60
572.20	1607.40
572.55	1612.76
572.90	1615.12
573.26	1619.14
573.61	1623.71
573.96	1627.38
574.31	1631.40
574.67	1634.98
575.02	1637.90
575.37	1640.29
575.72	1642.62
576.08	1645.17
576.43	1648.98
576.78	1653.10
577.13	1656.36
577.49	1660.14
577.84	1664.86
578.19	1668.60
578.54	1671.17
578.90	1676.05
579.25	1680.26
579.60	1683.10
579.95	1684.81
580.30	1689.02
580.66	1691.98
581.01	1694.71
581.36	1697.74
581.71	1701.14
582.06	1705.19
582.42	1708.67
582.77	1710.64
583.12	1713.36
583.47	1716.07
583.82	1718.62
584.17	1721.21
584.53	1723.69
584.88	1726.93
585.23	1730.07
585.58	1731.95
585.93	1733.52
586.28	1734.33
586.63	1735.98
586.98	1738.17
587.34	1742.10
587.69	1743.79
588.04	1745.90
588.39	1748.24
588.74	1750.05
589.09	1752.48
589.44	1752.90
589.79	1755.76
590.14	1758.45
590.49	1760.02
590.84	1762.19
591.19	1763.88
591.54	1765.19
591.89	1767.40
592.25	1770.50
592.60	1769.55
592.95	1770.76
593.30	1773.69
593.65	1776.19
594.00	1775.83
594.35	1782.79
594.70	1781.88
595.05	1783.12
595.40	1784.57
595.75	1783.95
596.10	1784.62
596.45	1784.79
596.80	1785.45
597.15	1784.62
597.50	1784.67
597.85	1785.74
598.19	1785.86
598.54	1786.36
598.89	1785.60
599.24	1785.60
599.59	1783.98
599.94	1784.69
600.29	1784.67
600.64	1783.98
600.99	1782.60
601.34	1783.76
601.69	1777.50
602.04	1776.62
602.39	1775.29
602.74	1775.19
603.08	1775.67
603.43	1776.29
603.78	1776.02
604.13	1775.31
604.48	1775.40
604.83	1775.12
605.18	1774.67
605.53	1773.43
605.87	1772.55
606.22	1772.19
606.57	1770.79
606.92	1768.88
607.27	1768.52
607.62	1768.17
607.96	1766.95
608.31	1766.69
608.66	1765.50
609.01	1763.90
609.36	1764.24
609.70	1762.71
610.05	1759.43
610.40	1757.43
610.75	1754.57
611.10	1752.86
611.44	1751.02
611.79	1747.79
612.14	1745.07
612.49	1741.24
612.83	1738.90
613.18	1735.14
613.53	1732.17
613.88	1727.90
614.22	1724.62
614.57	1720.00
614.92	1715.17
615.27	1711.86
615.61	1706.79
615.96	1702.74
616.31	1698.10
616.65	1694.31
617.00	1691.21
617.35	1688.74
617.70	1684.71
618.04	1680.48
618.39	1675.74
618.74	1670.98
619.08	1666.38
619.43	1661.57
619.78	1657.90
620.12	1653.52
620.47	1650.24
620.82	1646.07
621.16	1641.67
621.51	1638.93
621.85	1634.26
622.20	1630.38
622.55	1624.57
622.89	1620.64
623.24	1616.50
623.59	1612.71
623.93	1607.67
624.28	1603.36
624.62	1600.05
624.97	1597.07
625.32	1592.81
625.66	1588.14
626.01	1584.36
626.35	1580.07
626.70	1575.64
627.04	1572.29
627.39	1567.81
627.73	1563.95
628.08	1559.90
628.43	1555.76
628.77	1551.19
629.12	1547.79
629.46	1543.79
629.81	1540.31
630.15	1534.83
630.50	1530.12
630.84	1525.55
631.19	1520.98
631.53	1515.67
631.88	1508.05
632.22	1500.74
632.57	1496.29
632.91	1491.29
633.26	1486.07
633.60	1481.05
633.95	1476.21
634.29	1469.60
634.64	1465.05
634.98	1458.43
635.32	1453.95
635.67	1449.88
636.01	1444.19
636.36	1439.00
636.70	1434.86
637.05	1430.05
637.39	1425.69
637.73	1421.19
638.08	1417.19
638.42	1412.29
638.77	1408.12
639.11	1404.05
639.45	1399.29
639.80	1392.93
640.14	1388.02
640.49	1382.83
640.83	1377.26
641.17	1371.95
641.52	1366.31
641.86	1360.19
642.20	1356.76
642.55	1349.79
642.89	1343.14
643.23	1337.74
643.58	1332.02
643.92	1325.00
644.26	1318.71
644.61	1313.21
644.95	1306.52
645.29	1299.76
645.64	1293.57
645.98	1286.83
646.32	1280.62
646.66	1274.62
647.01	1268.50
647.35	1262.52
647.69	1255.67
648.04	1250.40
648.38	1244.52
648.72	1238.74
649.06	1232.33
649.41	1224.29
649.75	1217.81
650.09	1211.74
650.43	1204.57
650.78	1197.36
651.12	1190.10
651.46	1183.10
651.80	1176.55
652.14	1170.31
652.49	1163.98
652.83	1157.12
653.17	1149.98
653.51	1143.02
653.85	1136.62
654.20	1129.93
654.54	1122.36
654.88	1115.83
655.22	1109.69
655.56	1102.19
655.90	1095.36
656.25	1089.48
656.59	1083.07
656.93	1077.21
657.27	1071.86
657.61	1065.64
657.95	1060.26
658.29	1054.07
658.64	1048.76
658.98	1041.64
659.32	1034.50
659.66	1027.60
660.00	1021.00
660.34	1014.83
660.68	1008.55
661.02	1002.43
661.36	996.26
661.70	990.33
662.05	984.67
662.39	978.36
662.73	973.31
663.07	968.52
663.41	962.07
663.75	955.64
664.09	949.90
664.43	943.05
664.77	936.60
665.11	929.55
665.45	923.69
665.79	917.69
666.13	911.36
666.47	906.00
666.81	900.21
667.15	894.26
667.49	888.90
667.83	884.40
668.17	878.86
668.51	873.24
668.85	867.88
669.19	863.07
669.53	856.71
669.87	850.21
670.21	843.52
670.55	837.52
670.89	833.33
671.23	827.95
671.57	822.90
671.91	817.88
672.25	813.62
672.58	809.02
672.92	803.02
673.26	798.43
673.60	793.05
673.94	787.69
674.28	783.33
674.62	779.07
674.96	773.62
675.30	768.71
675.64	764.00
675.97	759.69
676.31	754.14
676.65	748.21
676.99	744.79
677.33	740.10
677.67	735.83
678.01	730.26
678.34	725.57
678.68	720.88
679.02	715.76
679.36	710.57
679.70	705.45
680.04	700.81
680.37	696.31
680.71	691.76
681.05	687.93
681.39	682.90
681.73	677.62
682.06	672.86
682.40	668.24
682.74	663.67
683.08	659.24
683.42	654.43
683.75	651.02
684.09	645.50
684.43	641.31
684.77	636.60
685.10	631.93
685.44	627.05
685.78	622.24
686.12	618.31
686.45	613.69
686.79	609.07
687.13	605.14
687.46	601.48
687.80	597.62
688.14	592.83
688.48	588.64
688.81	584.50
689.15	580.64
689.49	576.12
689.82	572.17
690.16	567.62
690.50	563.55
690.83	559.21
691.17	554.93
691.51	550.88
691.84	547.48
692.18	543.50
692.52	540.24
692.85	536.83
693.19	533.76
693.52	530.07
693.86	526.48
694.20	522.29
694.53	518.17
694.87	513.71
695.21	510.00
695.54	506.86
695.88	502.67
696.21	498.48
696.55	495.21
696.88	492.02
697.22	488.31
697.56	485.36
697.89	481.95
698.23	479.00
698.56	475.19
698.90	471.74
699.23	468.81
699.57	465.21
699.90	461.74
700.24	458.02
700.58	455.38
700.91	452.81
701.25	452.12
701.58	449.67
701.92	447.83
702.25	445.17
702.59	441.90
702.92	439.50
703.26	436.55
703.59	434.00
703.93	432.83
704.26	430.71
704.60	428.10
704.93	425.60
705.26	423.10
705.60	421.10
705.93	418.10
706.27	415.95
706.60	413.95
706.94	412.64
707.27	410.29
707.61	407.95
707.94	405.55
708.27	401.26
708.61	398.17
708.94	395.95
709.28	393.64
709.61	391.07
709.94	389.10
710.28	387.38
710.61	385.19
710.95	381.12
711.28	380.19
711.61	377.93
711.95	376.62
712.28	374.21
712.61	372.14
712.95	371.36
713.28	370.45
713.61	368.33
713.95	365.48
714.28	363.40
714.61	361.26
714.95	359.45
715.28	357.55
715.61	355.88
715.95	353.88
716.28	352.12
716.61	351.12
716.95	349.21
717.28	347.50
717.61	345.38
717.94	343.67
718.28	340.29
718.61	338.67
718.94	336.55
719.27	334.95
719.61	333.57
719.94	331.33
720.27	328.43
720.60	326.57
720.94	324.90
721.27	323.60
721.60	322.38
721.93	320.88
722.27	320.40
722.60	319.29
722.93	317.64
723.26	316.50
723.59	314.88
723.93	313.48
724.26	312.14
724.59	311.05
724.92	310.45
725.25	310.17
725.59	308.98
725.92	307.69
726.25	306.64
726.58	305.62
726.91	304.57
727.24	303.98
727.57	303.21
727.91	302.07
728.24	301.38
728.57	300.33
728.90	299.57
729.23	297.31
729.56	297.43
729.89	296.69
730.22	295.52
730.55	294.29
730.89	293.52
731.22	292.62
731.55	291.69
731.88	290.50
732.21	289.19
732.54	288.29
732.87	287.52
733.20	286.79
733.53	285.86
733.86	285.07
734.19	283.74
734.52	283.02
734.85	283.79
735.18	282.55
735.51	282.19
735.84	281.31
736.17	281.60
736.50	279.48
736.83	281.07
737.16	280.74
737.49	280.43
737.82	279.45
738.15	278.86
738.48	278.12
738.81	277.26
739.14	276.29
739.47	275.40
739.80	274.62
740.13	274.05
740.46	272.88
740.79	272.12
741.12	271.48
741.45	270.71
741.78	269.12
742.11	269.36
742.44	268.38
742.77	268.07
743.10	266.98
743.43	266.40
743.75	263.29
744.08	264.86
744.41	263.98
744.74	263.48
745.07	262.48
745.40	262.10
745.73	262.48
746.06	262.14
746.39	261.74
746.71	261.19
747.04	260.24
747.37	259.83
747.70	259.52
748.03	259.07
748.36	258.40
748.68	257.60
749.01	255.95
749.34	255.31
749.67	254.55
750.00	254.43
750.33	255.55
750.65	255.38
750.98	252.64
751.31	252.12
751.64	251.64
751.97	252.48
752.29	252.24
752.62	250.76
752.95	250.07
753.28	249.40
753.60	248.67
753.93	249.05
754.26	248.93
754.59	248.02
754.91	247.69
755.24	247.26
755.57	246.71
755.90	246.52
756.22	246.10
756.55	245.55
756.88	244.74
757.20	242.90
757.53	242.17
757.86	241.67
758.19	241.38
758.51	241.17
758.84	239.86
759.17	239.19
759.49	239.26
759.82	239.98
760.15	239.79
760.47	239.71
760.80	238.69
761.13	238.55
761.45	238.26
761.78	237.81
762.11	237.88
762.43	237.45
762.76	236.95
763.08	236.81
763.41	236.74
763.74	236.71
764.06	236.71
764.39	236.45
764.71	236.10
765.04	235.88
765.37	235.55
765.69	235.24
766.02	234.88
766.34	234.26
766.67	233.19
767.00	233.43
767.32	234.14
767.65	235.31
767.97	234.83
768.30	234.81
768.62	234.48
768.95	233.86
769.27	233.69
769.60	233.83
769.92	233.48
770.25	232.69
770.57	231.95
770.90	231.60
771.22	231.14
771.55	230.95
771.87	230.69
772.20	230.38
772.52	231.79
772.85	234.10
773.17	233.81
773.50	233.57
773.82	233.00
774.15	231.83
774.47	230.17
774.80	229.64
775.12	229.26
775.45	229.21
775.77	229.12
776.09	229.12
776.42	228.95
776.74	229.36
777.07	229.38
777.39	229.40
777.72	228.88
778.04	229.05
778.36	228.79
778.69	228.67
779.01	228.40
779.33	226.50
779.66	223.93
779.98	223.88
780.31	223.52
780.63	224.00
780.95	224.29
781.28	224.24
781.60	223.95
781.92	223.90
782.25	223.74
782.57	223.62
782.89	223.19
783.22	223.10
783.54	222.38
783.86	222.31
784.19	222.10
784.51	222.74
784.83	222.29
785.16	222.33
