SpectraSuite Data File
++++++++++++++++++++++++++++++++++++
Date: Tue Apr 02 18:42:20 EDT 2013
User: group
Dark Spectrum Present: No
Reference Spectrum Present: No
Number of Sampled Component Spectra: 1
Spectrometers: USB2E7196
Integration Time (usec): 580000 (USB2E7196)
Spectra Averaged: 2 (USB2E7196)
Boxcar Smoothing: 10 (USB2E7196)
Correct for Electrical Dark: No (USB2E7196)
Strobe/Lamp Enabled: No (USB2E7196)
Correct for Detector Non-linearity: No (USB2E7196)
Correct for Stray Light: No (USB2E7196)
Number of Pixels in Processed Spectrum: 2048
>>>>>Begin Processed Spectral Data<<<<<
339.09	0.00
339.48	195.50
339.86	194.50
340.24	199.00
340.63	194.50
341.01	226.50
341.39	198.50
341.78	205.50
342.16	207.00
342.54	202.00
342.93	197.81
343.31	207.79
343.69	208.17
344.07	208.71
344.46	209.31
344.84	210.17
345.22	209.26
345.60	209.93
345.99	210.14
346.37	210.43
346.75	210.71
347.13	210.76
347.52	210.83
347.90	211.93
348.28	212.05
348.66	212.31
349.05	211.50
349.43	211.79
349.81	211.79
350.19	211.86
350.57	211.93
350.96	212.29
351.34	212.24
351.72	212.64
352.10	212.86
352.48	212.69
352.87	212.71
353.25	212.86
353.63	212.83
354.01	212.90
354.39	213.00
354.77	213.14
355.15	213.76
355.54	213.57
355.92	212.57
356.30	212.86
356.68	214.24
357.06	214.52
357.44	214.21
357.82	214.29
358.20	215.21
358.58	215.24
358.97	214.95
359.35	215.67
359.73	215.86
360.11	215.88
360.49	216.19
360.87	216.14
361.25	216.36
361.63	216.98
362.01	217.07
362.39	216.67
362.77	217.02
363.15	216.86
363.53	217.36
363.91	217.64
364.29	217.36
364.67	215.26
365.05	215.21
365.43	215.40
365.81	215.64
366.19	215.74
366.57	216.48
366.95	216.50
367.33	216.19
367.71	216.12
368.09	216.40
368.47	216.26
368.85	216.10
369.23	216.33
369.61	215.64
369.99	216.14
370.37	216.71
370.75	217.40
371.13	216.93
371.51	216.31
371.89	216.50
372.27	216.86
372.65	217.12
373.03	217.21
373.41	217.07
373.78	216.93
374.16	215.86
374.54	215.31
374.92	215.29
375.30	214.90
375.68	214.50
376.06	214.69
376.44	214.48
376.82	214.69
377.19	214.69
377.57	214.67
377.95	213.93
378.33	213.40
378.71	212.10
379.09	212.48
379.47	212.83
379.84	212.29
380.22	212.00
380.60	211.64
380.98	211.60
381.36	211.67
381.73	211.17
382.11	211.57
382.49	211.50
382.87	211.24
383.25	211.21
383.62	213.71
384.00	213.21
384.38	213.36
384.76	213.74
385.13	214.62
385.51	214.57
385.89	214.52
386.27	214.90
386.64	215.29
387.02	214.98
387.40	214.74
387.78	215.19
388.15	215.24
388.53	215.17
388.91	215.33
389.29	215.24
389.66	215.79
390.04	215.50
390.42	215.86
390.79	215.83
391.17	216.10
391.55	213.95
391.92	213.95
392.30	214.14
392.68	213.62
393.05	213.36
393.43	213.50
393.81	213.60
394.18	213.36
394.56	213.43
394.94	213.86
395.31	213.69
395.69	214.33
396.06	214.71
396.44	215.02
396.82	214.74
397.19	215.76
397.57	215.48
397.95	215.81
398.32	215.26
398.70	215.64
399.07	215.83
399.45	215.57
399.82	215.76
400.20	215.62
400.58	215.60
400.95	214.81
401.33	215.48
401.70	216.95
402.08	217.05
402.45	217.07
402.83	217.62
403.20	217.90
403.58	217.55
403.95	217.71
404.33	218.31
404.71	218.43
405.08	219.57
405.46	219.98
405.83	220.02
406.21	220.55
406.58	220.86
406.96	221.26
407.33	222.10
407.70	222.50
408.08	224.67
408.45	225.69
408.83	226.67
409.20	226.64
409.58	226.40
409.95	227.67
410.33	228.67
410.70	228.83
411.08	230.14
411.45	231.26
411.82	232.55
412.20	234.00
412.57	236.43
412.95	236.07
413.32	237.83
413.69	239.50
414.07	241.10
414.44	242.98
414.82	244.95
415.19	247.36
415.56	249.64
415.94	250.74
416.31	253.79
416.68	256.64
417.06	260.07
417.43	263.36
417.81	266.57
418.18	270.57
418.55	274.62
418.93	278.67
419.30	283.12
419.67	287.50
420.04	291.81
420.42	296.02
420.79	302.88
421.16	308.88
421.54	315.86
421.91	322.26
422.28	328.55
422.66	335.17
423.03	343.14
423.40	350.52
423.77	357.88
424.15	364.95
424.52	372.79
424.89	381.57
425.26	389.43
425.64	397.36
426.01	405.55
426.38	414.64
426.75	424.24
427.13	433.40
427.50	443.21
427.87	453.52
428.24	464.10
428.61	472.86
428.99	483.93
429.36	494.83
429.73	506.57
430.10	518.38
430.47	530.24
430.85	540.50
431.22	552.76
431.59	567.86
431.96	580.60
432.33	594.90
432.70	608.81
433.08	625.12
433.45	640.38
433.82	655.38
434.19	672.24
434.56	689.17
434.93	704.62
435.30	720.64
435.68	738.10
436.05	755.24
436.42	772.45
436.79	788.12
437.16	804.93
437.53	822.86
437.90	840.55
438.27	858.17
438.64	876.83
439.01	894.26
439.38	907.76
439.75	923.17
440.13	939.36
440.50	954.52
440.87	967.55
441.24	981.50
441.61	996.50
441.98	1007.55
442.35	1019.52
442.72	1033.40
443.09	1046.17
443.46	1053.52
443.83	1059.14
444.20	1064.69
444.57	1071.31
444.94	1074.64
445.31	1078.00
445.68	1083.62
446.05	1085.38
446.42	1083.93
446.79	1082.81
447.16	1080.81
447.53	1079.50
447.90	1073.81
448.27	1067.43
448.64	1058.62
449.01	1052.26
449.37	1041.21
449.74	1029.64
450.11	1018.71
450.48	1003.74
450.85	988.31
451.22	975.50
451.59	963.81
451.96	951.76
452.33	935.81
452.70	921.83
453.07	904.57
453.43	884.74
453.80	868.19
454.17	851.90
454.54	835.93
454.91	819.76
455.28	803.33
455.65	788.48
456.02	777.24
456.38	764.50
456.75	748.62
457.12	735.55
457.49	722.76
457.86	707.81
458.23	697.60
458.59	686.14
458.96	674.83
459.33	663.40
459.70	652.69
460.07	644.43
460.43	634.55
460.80	625.79
461.17	618.74
461.54	610.55
461.91	602.88
462.27	595.00
462.64	588.26
463.01	580.93
463.38	573.95
463.74	563.71
464.11	557.02
464.48	551.12
464.85	544.71
465.21	540.64
465.58	535.81
465.95	528.81
466.32	523.14
466.68	517.62
467.05	512.62
467.42	507.38
467.78	501.62
468.15	496.81
468.52	493.00
468.88	487.21
469.25	482.10
469.62	478.71
469.98	474.48
470.35	470.74
470.72	467.17
471.08	462.40
471.45	458.93
471.82	456.19
472.18	452.21
472.55	449.64
472.92	445.45
473.28	442.36
473.65	439.43
474.02	436.95
474.38	434.55
474.75	432.45
475.11	429.98
475.48	428.33
475.85	426.26
476.21	424.60
476.58	423.48
476.94	422.79
477.31	421.57
477.67	420.50
478.04	419.50
478.41	418.71
478.77	420.38
479.14	419.12
479.50	418.33
479.87	418.48
480.23	417.79
480.60	417.86
480.96	417.69
481.33	418.74
481.69	418.45
482.06	419.14
482.42	419.14
482.79	419.81
483.15	420.10
483.52	420.86
483.88	421.02
484.25	421.36
484.61	421.83
484.98	422.57
485.34	424.05
485.71	425.81
486.07	426.86
486.44	425.90
486.80	427.57
487.17	428.98
487.53	431.48
487.90	433.67
488.26	436.38
488.62	439.21
488.99	441.02
489.35	444.05
489.72	446.40
490.08	449.45
490.44	452.07
490.81	455.36
491.17	458.43
491.54	461.86
491.90	465.81
492.26	469.38
492.63	473.02
492.99	476.67
493.36	479.93
493.72	484.52
494.08	489.60
494.45	494.55
494.81	499.43
495.17	503.52
495.54	509.05
495.90	513.76
496.26	518.88
496.63	524.40
496.99	530.02
497.35	535.83
497.72	541.76
498.08	547.81
498.44	553.98
498.80	560.86
499.17	567.00
499.53	572.79
499.89	579.86
500.26	586.24
500.62	593.33
500.98	601.05
501.34	607.88
501.71	615.33
502.07	622.21
502.43	629.05
502.79	636.57
503.16	643.57
503.52	650.57
503.88	657.26
504.24	665.24
504.60	672.69
504.97	680.17
505.33	687.71
505.69	696.17
506.05	703.67
506.41	711.05
506.78	718.81
507.14	726.45
507.50	734.12
507.86	742.64
508.22	750.33
508.59	757.26
508.95	764.95
509.31	773.48
509.67	781.38
510.03	789.64
510.39	796.88
510.75	804.21
511.12	812.48
511.48	820.79
511.84	828.07
512.20	835.52
512.56	843.26
512.92	850.76
513.28	857.86
513.64	865.81
514.00	873.40
514.37	881.24
514.73	888.95
515.09	896.64
515.45	903.43
515.81	910.38
516.17	917.17
516.53	923.69
516.89	929.81
517.25	936.64
517.61	943.81
517.97	950.62
518.33	957.24
518.69	963.17
519.05	969.31
519.41	975.52
519.77	983.17
520.13	988.88
520.49	995.05
520.85	1000.76
521.21	1007.26
521.57	1012.98
521.93	1017.69
522.29	1023.26
522.65	1027.45
523.01	1033.19
523.37	1038.31
523.73	1044.12
524.09	1050.14
524.45	1054.45
524.81	1059.17
525.17	1064.07
525.53	1069.21
525.89	1074.05
526.25	1079.55
526.61	1084.40
526.97	1089.02
527.33	1092.67
527.68	1099.02
528.04	1103.55
528.40	1108.02
528.76	1111.33
529.12	1115.95
529.48	1122.21
529.84	1126.98
530.20	1131.93
530.56	1136.02
530.91	1140.86
531.27	1145.33
531.63	1149.76
531.99	1153.81
532.35	1157.81
532.71	1161.64
533.07	1165.86
533.42	1172.10
533.78	1176.52
534.14	1180.14
534.50	1184.40
534.86	1188.50
535.21	1192.05
535.57	1196.93
535.93	1201.14
536.29	1206.69
536.65	1210.60
537.00	1212.55
537.36	1215.81
537.72	1220.00
538.08	1224.00
538.44	1227.00
538.79	1230.67
539.15	1233.05
539.51	1237.19
539.87	1241.07
540.22	1244.43
540.58	1248.31
540.94	1250.10
541.29	1252.83
541.65	1255.81
542.01	1259.07
542.37	1262.40
542.72	1263.76
543.08	1265.31
543.44	1268.74
543.79	1269.57
544.15	1272.10
544.51	1276.86
544.87	1280.33
545.22	1283.07
545.58	1286.52
545.94	1289.60
546.29	1292.43
546.65	1295.52
547.01	1297.88
547.36	1300.83
547.72	1303.45
548.07	1305.86
548.43	1308.52
548.79	1310.81
549.14	1313.76
549.50	1316.40
549.86	1318.33
550.21	1322.48
550.57	1326.21
550.92	1328.12
551.28	1332.29
551.64	1335.71
551.99	1337.40
552.35	1339.62
552.70	1342.14
553.06	1344.12
553.41	1347.45
553.77	1352.62
554.13	1356.71
554.48	1361.55
554.84	1366.19
555.19	1370.29
555.55	1375.79
555.90	1379.40
556.26	1383.86
556.61	1387.71
556.97	1391.24
557.32	1395.81
557.68	1399.21
558.03	1402.55
558.39	1407.05
558.74	1409.83
559.10	1414.64
559.45	1418.98
559.81	1423.24
560.16	1427.48
560.52	1433.05
560.87	1437.29
561.23	1439.48
561.58	1444.93
561.94	1447.86
562.29	1451.10
562.64	1456.05
563.00	1459.24
563.35	1464.24
563.71	1469.12
564.06	1474.57
564.42	1479.64
564.77	1484.62
565.12	1490.19
565.48	1498.14
565.83	1504.05
566.19	1510.33
566.54	1514.71
566.89	1520.71
567.25	1527.45
567.60	1534.69
567.96	1541.79
568.31	1549.00
568.66	1555.64
569.02	1560.19
569.37	1565.60
569.72	1571.43
570.08	1576.60
570.43	1581.67
570.78	1587.05
571.14	1592.81
571.49	1597.74
571.84	1603.14
572.20	1608.48
572.55	1613.36
572.90	1616.14
573.26	1619.69
573.61	1623.83
573.96	1628.74
574.31	1633.33
574.67	1636.95
575.02	1640.02
575.37	1642.00
575.72	1644.43
576.08	1648.95
576.43	1652.93
576.78	1657.93
577.13	1661.19
577.49	1664.12
577.84	1668.62
578.19	1671.40
578.54	1675.29
578.90	1679.07
579.25	1682.83
579.60	1685.79
579.95	1688.52
580.30	1692.07
580.66	1695.86
581.01	1699.02
581.36	1701.52
581.71	1704.17
582.06	1708.71
582.42	1712.07
582.77	1715.26
583.12	1718.31
583.47	1720.26
583.82	1723.33
584.17	1725.45
584.53	1729.52
584.88	1732.81
585.23	1734.83
585.58	1738.05
585.93	1738.50
586.28	1741.43
586.63	1743.29
586.98	1746.38
587.34	1750.74
587.69	1752.17
588.04	1754.31
588.39	1756.81
588.74	1758.52
589.09	1760.50
589.44	1759.95
589.79	1761.69
590.14	1763.00
590.49	1763.79
590.84	1765.12
591.19	1765.98
591.54	1767.02
591.89	1766.88
592.25	1769.86
592.60	1770.21
592.95	1771.24
593.30	1773.67
593.65	1773.45
594.00	1773.88
594.35	1779.48
594.70	1778.40
595.05	1779.40
595.40	1779.64
595.75	1780.67
596.10	1782.19
596.45	1783.12
596.80	1785.00
597.15	1785.81
597.50	1785.43
597.85	1786.60
598.19	1786.57
598.54	1786.55
598.89	1786.29
599.24	1787.83
599.59	1786.24
599.94	1786.10
600.29	1785.07
600.64	1784.98
600.99	1785.57
601.34	1786.10
601.69	1780.07
602.04	1779.29
602.39	1777.90
602.74	1777.40
603.08	1776.98
603.43	1777.07
603.78	1775.86
604.13	1775.17
604.48	1773.19
604.83	1773.43
605.18	1773.52
605.53	1772.98
605.87	1771.60
606.22	1771.19
606.57	1768.38
606.92	1766.64
607.27	1766.90
607.62	1766.62
607.96	1765.31
608.31	1764.02
608.66	1763.10
609.01	1761.38
609.36	1760.43
609.70	1759.67
610.05	1757.43
610.40	1755.00
610.75	1752.48
611.10	1750.69
611.44	1747.71
611.79	1746.10
612.14	1743.55
612.49	1739.26
612.83	1735.55
613.18	1732.95
613.53	1729.62
613.88	1726.38
614.22	1723.19
614.57	1718.88
614.92	1714.95
615.27	1710.52
615.61	1705.40
615.96	1700.45
616.31	1697.05
616.65	1694.43
617.00	1690.67
617.35	1687.93
617.70	1683.50
618.04	1678.29
618.39	1673.24
618.74	1669.12
619.08	1664.12
619.43	1660.00
619.78	1656.21
620.12	1652.81
620.47	1649.29
620.82	1644.71
621.16	1640.07
621.51	1636.76
621.85	1631.48
622.20	1626.45
622.55	1622.17
622.89	1618.48
623.24	1614.29
623.59	1609.98
623.93	1604.55
624.28	1600.48
624.62	1596.90
624.97	1594.50
625.32	1590.88
625.66	1587.12
626.01	1582.17
626.35	1578.38
626.70	1573.45
627.04	1570.98
627.39	1566.38
627.73	1562.00
628.08	1558.12
628.43	1554.69
628.77	1549.93
629.12	1547.00
629.46	1544.12
629.81	1540.21
630.15	1535.76
630.50	1530.86
630.84	1525.74
631.19	1519.67
631.53	1513.36
631.88	1506.05
632.22	1498.19
632.57	1493.50
632.91	1487.74
633.26	1483.74
633.60	1477.88
633.95	1472.81
634.29	1465.93
634.64	1460.57
634.98	1454.98
635.32	1450.88
635.67	1447.02
636.01	1442.02
636.36	1436.29
636.70	1431.07
637.05	1425.45
637.39	1420.55
637.73	1416.33
638.08	1412.21
638.42	1407.52
638.77	1403.33
639.11	1399.21
639.45	1395.10
639.80	1388.38
640.14	1383.40
640.49	1377.40
640.83	1371.57
641.17	1366.05
641.52	1360.29
641.86	1355.10
642.20	1350.67
642.55	1343.93
642.89	1336.40
643.23	1330.52
643.58	1325.43
643.92	1318.14
644.26	1311.76
644.61	1306.12
644.95	1299.50
645.29	1292.88
645.64	1287.48
645.98	1281.29
646.32	1275.29
646.66	1267.90
647.01	1262.55
647.35	1256.79
647.69	1250.86
648.04	1246.02
648.38	1239.74
648.72	1234.07
649.06	1227.38
649.41	1219.93
649.75	1213.98
650.09	1208.10
650.43	1200.98
650.78	1193.64
651.12	1187.93
651.46	1181.95
651.80	1174.69
652.14	1168.64
652.49	1162.45
652.83	1155.55
653.17	1148.74
653.51	1141.43
653.85	1136.07
654.20	1129.31
654.54	1122.19
654.88	1115.07
655.22	1109.12
655.56	1102.69
655.90	1095.60
656.25	1089.33
656.59	1083.24
656.93	1076.36
657.27	1070.55
657.61	1063.98
657.95	1058.02
658.29	1051.33
658.64	1045.36
658.98	1038.98
659.32	1031.93
659.66	1025.26
660.00	1018.48
660.34	1012.10
660.68	1005.88
661.02	999.40
661.36	992.67
661.70	986.48
662.05	981.10
662.39	973.81
662.73	967.83
663.07	962.43
663.41	956.40
663.75	949.67
664.09	943.76
664.43	937.38
664.77	931.17
665.11	924.71
665.45	919.26
665.79	912.74
666.13	906.74
666.47	901.12
666.81	894.86
667.15	888.93
667.49	883.10
667.83	878.38
668.17	872.95
668.51	867.67
668.85	862.88
669.19	857.90
669.53	852.55
669.87	846.71
670.21	840.38
670.55	834.69
670.89	829.93
671.23	824.17
671.57	818.43
671.91	813.24
672.25	807.81
672.58	803.31
672.92	797.95
673.26	793.05
673.60	787.64
673.94	782.38
674.28	778.36
674.62	774.29
674.96	769.07
675.30	764.10
675.64	759.50
675.97	754.19
676.31	748.29
676.65	743.17
676.99	739.36
677.33	735.19
677.67	731.00
678.01	725.79
678.34	721.24
678.68	717.26
679.02	712.67
679.36	708.83
679.70	702.88
680.04	697.88
680.37	693.40
680.71	688.81
681.05	684.60
681.39	679.48
681.73	674.07
682.06	669.05
682.40	664.31
682.74	660.00
683.08	656.26
683.42	651.43
683.75	647.36
684.09	642.07
684.43	637.31
684.77	632.31
685.10	628.12
685.44	623.38
685.78	618.38
686.12	614.19
686.45	609.12
686.79	605.05
687.13	601.88
687.46	597.05
687.80	593.71
688.14	589.62
688.48	585.93
688.81	582.05
689.15	578.50
689.49	574.55
689.82	570.24
690.16	565.02
690.50	561.31
690.83	556.88
691.17	552.57
691.51	548.64
691.84	545.24
692.18	541.10
692.52	537.98
692.85	534.98
693.19	531.98
693.52	528.10
693.86	523.90
694.20	520.07
694.53	517.24
694.87	513.12
695.21	509.26
695.54	505.50
695.88	501.38
696.21	497.40
696.55	494.17
696.88	490.95
697.22	487.26
697.56	484.50
697.89	481.14
698.23	478.29
698.56	474.76
698.90	471.64
699.23	468.26
699.57	465.21
699.90	461.19
700.24	457.40
700.58	454.31
700.91	452.07
701.25	450.52
701.58	448.00
701.92	445.48
702.25	442.69
702.59	439.79
702.92	437.50
703.26	434.95
703.59	432.07
703.93	430.86
704.26	429.02
704.60	426.21
704.93	423.55
705.26	420.93
705.60	418.76
705.93	415.48
706.27	413.86
706.60	411.31
706.94	409.79
707.27	407.45
707.61	405.38
707.94	402.48
708.27	398.64
708.61	395.55
708.94	392.81
709.28	390.76
709.61	388.60
709.94	386.69
710.28	384.48
710.61	382.60
710.95	378.74
711.28	377.83
711.61	375.79
711.95	374.45
712.28	372.48
712.61	370.52
712.95	369.90
713.28	368.50
713.61	366.05
713.95	363.64
714.28	361.67
714.61	359.86
714.95	358.07
715.28	355.93
715.61	354.07
715.95	352.79
716.28	350.88
716.61	349.12
716.95	346.98
717.28	345.17
717.61	342.76
717.94	341.05
718.28	337.95
718.61	336.17
718.94	334.14
719.27	332.19
719.61	330.69
719.94	328.43
720.27	326.00
720.60	324.90
720.94	323.40
721.27	322.17
721.60	321.10
721.93	319.71
722.27	319.45
722.60	318.38
722.93	317.00
723.26	315.71
723.59	314.14
723.93	312.95
724.26	311.95
724.59	311.17
724.92	310.33
725.25	309.74
725.59	308.60
725.92	307.71
726.25	306.62
726.58	305.57
726.91	304.38
727.24	303.45
727.57	302.29
727.91	301.05
728.24	299.98
728.57	298.43
728.90	297.81
729.23	295.90
729.56	295.79
729.89	294.57
730.22	293.45
730.55	292.62
730.89	291.95
731.22	290.93
731.55	289.88
731.88	289.14
732.21	287.83
732.54	286.95
732.87	285.93
733.20	285.12
733.53	284.31
733.86	283.62
734.19	282.55
734.52	281.81
734.85	282.40
735.18	281.33
735.51	281.17
735.84	280.83
736.17	280.52
736.50	278.76
736.83	280.07
737.16	279.31
737.49	278.83
737.82	277.98
738.15	277.71
738.48	276.98
738.81	275.74
739.14	275.07
739.47	274.02
739.80	273.31
740.13	272.79
740.46	271.95
740.79	270.86
741.12	270.07
741.45	269.14
741.78	267.43
742.11	267.64
742.44	266.38
742.77	265.67
743.10	264.76
743.43	263.79
743.75	261.29
744.08	263.29
744.41	262.45
744.74	261.95
745.07	260.62
745.40	260.57
745.73	261.05
746.06	260.24
746.39	260.26
746.71	259.33
747.04	258.60
747.37	257.79
747.70	257.74
748.03	257.36
748.36	257.19
748.68	256.55
749.01	255.29
749.34	255.07
749.67	254.36
750.00	254.38
750.33	255.71
750.65	255.57
750.98	252.90
751.31	252.52
751.64	252.02
751.97	252.98
752.29	252.19
752.62	250.90
752.95	250.43
753.28	249.43
753.60	249.26
753.93	249.43
754.26	249.17
754.59	248.17
754.91	247.50
755.24	246.95
755.57	246.36
755.90	245.67
756.22	245.14
756.55	244.57
756.88	243.55
757.20	241.93
757.53	240.74
757.86	240.12
758.19	239.90
758.51	239.52
758.84	238.07
759.17	237.69
759.49	237.36
759.82	238.14
760.15	238.21
760.47	237.90
760.80	236.86
761.13	236.83
761.45	236.48
761.78	236.26
762.11	235.98
762.43	235.93
762.76	235.71
763.08	235.86
763.41	235.88
763.74	235.76
764.06	235.45
764.39	235.40
764.71	235.31
765.04	235.07
765.37	234.79
765.69	234.50
766.02	234.19
766.34	234.05
766.67	232.90
767.00	233.00
767.32	233.64
767.65	234.95
767.97	234.55
768.30	234.57
768.62	234.14
768.95	233.69
769.27	233.36
769.60	233.55
769.92	232.71
770.25	231.98
770.57	231.40
770.90	231.12
771.22	230.79
771.55	230.43
771.87	230.07
772.20	229.67
772.52	231.12
772.85	233.33
773.17	232.93
773.50	232.79
773.82	232.02
774.15	231.05
774.47	229.33
774.80	228.98
775.12	228.55
775.45	228.69
775.77	228.88
776.09	228.88
776.42	228.79
776.74	229.38
777.07	229.17
777.39	229.12
777.72	228.86
778.04	229.07
778.36	228.83
778.69	228.93
779.01	228.86
779.33	226.98
779.66	224.57
779.98	224.38
780.31	224.24
780.63	225.10
780.95	225.38
781.28	225.43
781.60	225.05
781.92	225.17
782.25	225.17
782.57	225.05
782.89	224.62
783.22	224.24
783.54	223.64
783.86	223.76
784.19	223.62
784.51	224.02
784.83	223.45
785.16	223.36
