SpectraSuite Data File
++++++++++++++++++++++++++++++++++++
Date: Tue Apr 02 18:40:07 EDT 2013
User: group
Dark Spectrum Present: No
Reference Spectrum Present: No
Number of Sampled Component Spectra: 1
Spectrometers: USB2E7196
Integration Time (usec): 580000 (USB2E7196)
Spectra Averaged: 2 (USB2E7196)
Boxcar Smoothing: 10 (USB2E7196)
Correct for Electrical Dark: No (USB2E7196)
Strobe/Lamp Enabled: No (USB2E7196)
Correct for Detector Non-linearity: No (USB2E7196)
Correct for Stray Light: No (USB2E7196)
Number of Pixels in Processed Spectrum: 2048
>>>>>Begin Processed Spectral Data<<<<<
339.09	0.00
339.48	194.00
339.86	195.50
340.24	195.50
340.63	199.00
341.01	233.00
341.39	197.50
341.78	205.50
342.16	207.50
342.54	204.50
342.93	196.48
343.31	206.31
343.69	206.95
344.07	207.31
344.46	208.02
344.84	208.43
345.22	207.33
345.60	207.74
345.99	207.95
346.37	208.00
346.75	208.19
347.13	208.12
347.52	208.17
347.90	209.02
348.28	209.31
348.66	209.79
349.05	209.29
349.43	209.52
349.81	209.83
350.19	209.95
350.57	210.17
350.96	210.45
351.34	210.79
351.72	210.76
352.10	211.02
352.48	210.93
352.87	211.07
353.25	211.07
353.63	211.17
354.01	210.86
354.39	211.10
354.77	211.12
355.15	211.62
355.54	211.62
355.92	210.93
356.30	210.98
356.68	212.48
357.06	212.69
357.44	212.57
357.82	212.57
358.20	213.64
358.58	213.60
358.97	213.76
359.35	214.12
359.73	214.62
360.11	214.83
360.49	215.19
360.87	215.26
361.25	215.67
361.63	216.55
362.01	217.12
362.39	217.10
362.77	217.40
363.15	217.48
363.53	217.71
363.91	217.86
364.29	217.98
364.67	215.90
365.05	216.05
365.43	216.36
365.81	216.79
366.19	216.83
366.57	217.81
366.95	217.60
367.33	217.19
367.71	217.12
368.09	217.40
368.47	217.38
368.85	217.40
369.23	217.90
369.61	217.24
369.99	218.12
370.37	218.38
370.75	219.29
371.13	218.93
371.51	218.64
371.89	218.83
372.27	219.05
372.65	219.12
373.03	219.19
373.41	219.00
373.78	218.74
374.16	217.90
374.54	216.90
374.92	217.10
375.30	217.21
375.68	216.76
376.06	217.00
376.44	216.62
376.82	216.71
377.19	216.40
377.57	216.24
377.95	215.14
378.33	215.02
378.71	213.86
379.09	214.26
379.47	214.57
379.84	214.31
380.22	214.12
380.60	214.05
380.98	214.10
381.36	214.02
381.73	213.71
382.11	213.95
382.49	214.00
382.87	213.67
383.25	213.60
383.62	216.29
384.00	215.76
384.38	215.81
384.76	216.17
385.13	216.93
385.51	217.02
385.89	216.90
386.27	216.71
386.64	216.90
387.02	216.67
387.40	216.38
387.78	216.43
388.15	216.29
388.53	216.26
388.91	215.83
389.29	215.69
389.66	216.00
390.04	215.69
390.42	216.24
390.79	216.17
391.17	216.10
391.55	213.79
391.92	213.67
392.30	214.10
392.68	213.64
393.05	213.12
393.43	213.05
393.81	213.10
394.18	213.12
394.56	213.12
394.94	213.52
395.31	213.62
395.69	214.45
396.06	214.71
396.44	214.71
396.82	214.81
397.19	215.88
397.57	215.71
397.95	216.12
398.32	215.62
398.70	216.00
399.07	216.43
399.45	216.21
399.82	216.24
400.20	215.86
400.58	215.95
400.95	215.29
401.33	215.74
401.70	217.17
402.08	217.21
402.45	217.36
402.83	217.62
403.20	217.52
403.58	217.45
403.95	218.05
404.33	218.95
404.71	219.31
405.08	220.71
405.46	220.90
405.83	221.21
406.21	221.52
406.58	221.93
406.96	222.36
407.33	223.19
407.70	224.07
408.08	226.38
408.45	227.36
408.83	228.67
409.20	229.36
409.58	229.29
409.95	230.62
410.33	231.67
410.70	232.12
411.08	233.36
411.45	234.07
411.82	234.95
412.20	236.24
412.57	238.62
412.95	238.07
413.32	240.00
413.69	241.64
414.07	243.45
414.44	245.24
414.82	247.07
415.19	249.33
415.56	251.57
415.94	252.88
416.31	255.98
416.68	258.74
417.06	262.33
417.43	265.79
417.81	269.26
418.18	273.33
418.55	277.45
418.93	282.05
419.30	286.67
419.67	291.52
420.04	296.31
420.42	301.29
420.79	309.05
421.16	315.19
421.54	322.31
421.91	328.67
422.28	335.38
422.66	342.62
423.03	351.00
423.40	358.60
423.77	366.60
424.15	374.10
424.52	382.43
424.89	391.57
425.26	399.79
425.64	408.29
426.01	417.02
426.38	426.31
426.75	436.19
427.13	446.26
427.50	456.71
427.87	467.17
428.24	477.71
428.61	486.45
428.99	498.62
429.36	509.76
429.73	522.26
430.10	534.67
430.47	547.12
430.85	558.79
431.22	572.10
431.59	588.00
431.96	602.31
432.33	617.48
432.70	631.71
433.08	649.10
433.45	664.93
433.82	681.69
434.19	699.79
434.56	718.14
434.93	735.29
435.30	752.07
435.68	771.33
436.05	790.29
436.42	808.90
436.79	825.45
437.16	844.38
437.53	863.74
437.90	883.02
438.27	902.05
438.64	921.79
439.01	940.02
439.38	954.81
439.75	969.83
440.13	987.43
440.50	1004.98
440.87	1018.71
441.24	1033.31
441.61	1049.36
441.98	1061.05
442.35	1074.00
442.72	1087.88
443.09	1102.33
443.46	1110.33
443.83	1115.90
444.20	1120.60
444.57	1127.43
444.94	1130.07
445.31	1133.52
445.68	1139.21
446.05	1141.10
446.42	1139.45
446.79	1138.17
447.16	1136.02
447.53	1134.98
447.90	1128.79
448.27	1121.45
448.64	1112.71
449.01	1106.02
449.37	1093.24
449.74	1081.45
450.11	1069.02
450.48	1052.40
450.85	1035.57
451.22	1021.71
451.59	1007.93
451.96	995.67
452.33	978.98
452.70	964.38
453.07	945.52
453.43	924.60
453.80	906.81
454.17	889.95
454.54	873.19
454.91	855.50
455.28	837.64
455.65	821.69
456.02	809.07
456.38	794.81
456.75	778.43
457.12	764.24
457.49	750.81
457.86	734.88
458.23	724.86
458.59	712.02
458.96	699.76
459.33	688.52
459.70	676.86
460.07	668.21
460.43	657.86
460.80	649.19
461.17	641.50
461.54	632.26
461.91	623.50
462.27	614.31
462.64	606.79
463.01	599.29
463.38	592.24
463.74	580.52
464.11	573.10
464.48	566.81
464.85	560.21
465.21	555.07
465.58	550.38
465.95	542.90
466.32	537.98
466.68	531.79
467.05	526.69
467.42	521.86
467.78	515.71
468.15	510.60
468.52	506.50
468.88	500.21
469.25	495.43
469.62	491.52
469.98	487.98
470.35	484.31
470.72	480.79
471.08	475.57
471.45	472.67
471.82	470.19
472.18	466.33
472.55	463.52
472.92	459.69
473.28	456.38
473.65	453.71
474.02	450.50
474.38	448.31
474.75	446.19
475.11	443.83
475.48	442.10
475.85	440.24
476.21	438.33
476.58	437.07
476.94	435.95
477.31	434.57
477.67	433.40
478.04	432.19
478.41	431.07
478.77	432.40
479.14	431.60
479.50	431.02
479.87	430.62
480.23	430.24
480.60	429.90
480.96	429.95
481.33	430.69
481.69	430.52
482.06	430.88
482.42	431.02
482.79	431.50
483.15	431.52
483.52	432.43
483.88	432.79
484.25	433.33
484.61	433.98
484.98	435.17
485.34	437.17
485.71	438.76
486.07	440.19
486.44	439.79
486.80	441.33
487.17	443.10
487.53	445.76
487.90	448.31
488.26	452.00
488.62	454.79
488.99	456.69
489.35	459.90
489.72	462.83
490.08	466.10
490.44	468.79
490.81	472.60
491.17	475.74
491.54	479.26
491.90	483.60
492.26	487.31
492.63	491.31
492.99	494.38
493.36	498.81
493.72	504.00
494.08	508.93
494.45	514.19
494.81	519.14
495.17	523.60
495.54	529.05
495.90	533.74
496.26	538.69
496.63	544.62
496.99	549.98
497.35	556.31
497.72	562.33
498.08	568.52
498.44	575.29
498.80	582.29
499.17	589.12
499.53	595.71
499.89	603.52
500.26	610.83
500.62	618.40
500.98	626.17
501.34	632.98
501.71	641.02
502.07	648.45
502.43	656.19
502.79	663.93
503.16	671.40
503.52	679.10
503.88	686.88
504.24	695.52
504.60	703.93
504.97	712.07
505.33	720.43
505.69	730.43
506.05	738.40
506.41	746.02
506.78	754.69
507.14	762.81
507.50	771.19
507.86	780.36
508.22	789.57
508.59	797.14
508.95	806.17
509.31	815.64
509.67	824.57
510.03	832.98
510.39	842.14
510.75	850.88
511.12	859.55
511.48	868.38
511.84	876.05
512.20	884.69
512.56	893.98
512.92	903.10
513.28	910.45
513.64	919.40
514.00	927.95
514.37	936.52
514.73	945.02
515.09	953.17
515.45	960.55
515.81	968.05
516.17	976.14
516.53	983.50
516.89	989.10
517.25	996.55
517.61	1004.40
517.97	1011.71
518.33	1019.26
518.69	1027.10
519.05	1035.29
519.41	1042.95
519.77	1051.19
520.13	1057.07
520.49	1062.60
520.85	1069.45
521.21	1076.74
521.57	1084.40
521.93	1089.79
522.29	1096.40
522.65	1102.48
523.01	1109.45
523.37	1115.50
523.73	1121.69
524.09	1128.69
524.45	1135.19
524.81	1141.02
525.17	1147.14
525.53	1152.62
525.89	1158.33
526.25	1164.07
526.61	1168.50
526.97	1173.83
527.33	1179.05
527.68	1186.24
528.04	1192.71
528.40	1197.74
528.76	1201.79
529.12	1206.52
529.48	1212.45
529.84	1217.50
530.20	1223.45
530.56	1227.62
530.91	1233.38
531.27	1239.88
531.63	1244.69
531.99	1249.81
532.35	1254.36
532.71	1258.98
533.07	1264.95
533.42	1272.62
533.78	1278.67
534.14	1284.81
534.50	1289.48
534.86	1294.69
535.21	1298.93
535.57	1304.90
535.93	1310.33
536.29	1316.26
536.65	1322.02
537.00	1327.12
537.36	1331.62
537.72	1334.98
538.08	1340.57
538.44	1344.52
538.79	1348.14
539.15	1352.57
539.51	1357.71
539.87	1362.98
540.22	1367.79
540.58	1371.93
540.94	1374.29
541.29	1377.76
541.65	1380.88
542.01	1385.69
542.37	1389.07
542.72	1392.02
543.08	1394.71
543.44	1398.43
543.79	1400.86
544.15	1404.83
544.51	1408.98
544.87	1414.17
545.22	1419.26
545.58	1422.57
545.94	1426.05
546.29	1430.14
546.65	1433.52
547.01	1437.67
547.36	1441.45
547.72	1445.10
548.07	1448.69
548.43	1451.60
548.79	1454.36
549.14	1457.86
549.50	1461.43
549.86	1464.95
550.21	1468.45
550.57	1472.60
550.92	1476.10
551.28	1480.93
551.64	1484.00
551.99	1487.81
552.35	1491.10
552.70	1493.98
553.06	1498.24
553.41	1502.31
553.77	1507.07
554.13	1512.24
554.48	1516.88
554.84	1521.79
555.19	1526.40
555.55	1531.71
555.90	1536.00
556.26	1540.57
556.61	1544.98
556.97	1548.40
557.32	1553.79
557.68	1558.79
558.03	1562.90
558.39	1566.90
558.74	1570.69
559.10	1575.00
559.45	1579.55
559.81	1583.60
560.16	1587.90
560.52	1592.24
560.87	1596.93
561.23	1600.19
561.58	1605.52
561.94	1609.02
562.29	1612.71
562.64	1616.93
563.00	1620.52
563.35	1624.83
563.71	1629.79
564.06	1635.26
564.42	1640.79
564.77	1645.45
565.12	1651.31
565.48	1658.31
565.83	1665.14
566.19	1670.36
566.54	1676.45
566.89	1680.88
567.25	1687.43
567.60	1694.74
567.96	1701.98
568.31	1708.31
568.66	1713.48
569.02	1716.10
569.37	1720.05
569.72	1724.86
570.08	1729.62
570.43	1733.48
570.78	1737.86
571.14	1742.07
571.49	1746.00
571.84	1750.67
572.20	1753.95
572.55	1757.24
572.90	1758.83
573.26	1761.24
573.61	1764.60
573.96	1768.05
574.31	1771.98
574.67	1773.86
575.02	1774.62
575.37	1775.21
575.72	1777.00
576.08	1780.26
576.43	1783.64
576.78	1785.93
577.13	1788.52
577.49	1789.81
577.84	1792.95
578.19	1795.48
578.54	1797.86
578.90	1800.31
579.25	1802.24
579.60	1802.74
579.95	1802.57
580.30	1804.74
580.66	1806.50
581.01	1808.55
581.36	1808.71
581.71	1809.33
582.06	1811.26
582.42	1813.19
582.77	1813.17
583.12	1813.90
583.47	1814.36
583.82	1815.10
584.17	1816.83
584.53	1818.14
584.88	1819.79
585.23	1820.24
585.58	1820.50
585.93	1820.81
586.28	1820.36
586.63	1819.88
586.98	1822.02
587.34	1824.81
587.69	1823.14
588.04	1823.26
588.39	1822.29
588.74	1820.55
589.09	1821.38
589.44	1819.36
589.79	1819.90
590.14	1820.95
590.49	1820.64
590.84	1819.74
591.19	1818.86
591.54	1818.00
591.89	1816.19
592.25	1816.74
592.60	1814.93
592.95	1813.86
593.30	1813.02
593.65	1811.79
594.00	1810.40
594.35	1814.57
594.70	1811.07
595.05	1810.76
595.40	1808.36
595.75	1807.40
596.10	1807.10
596.45	1805.07
596.80	1804.74
597.15	1803.02
597.50	1800.24
597.85	1799.88
598.19	1798.17
598.54	1796.60
598.89	1794.45
599.24	1793.00
599.59	1790.02
599.94	1788.10
600.29	1786.05
600.64	1783.95
600.99	1782.45
601.34	1781.31
601.69	1773.05
602.04	1771.48
602.39	1768.93
602.74	1767.33
603.08	1764.50
603.43	1763.67
603.78	1761.14
604.13	1758.71
604.48	1755.71
604.83	1754.00
605.18	1750.69
605.53	1748.45
605.87	1744.76
606.22	1742.33
606.57	1738.43
606.92	1734.98
607.27	1732.21
607.62	1729.43
607.96	1726.60
608.31	1723.40
608.66	1719.95
609.01	1716.64
609.36	1713.45
609.70	1709.36
610.05	1705.14
610.40	1702.21
610.75	1697.02
611.10	1693.45
611.44	1688.93
611.79	1683.95
612.14	1679.02
612.49	1673.45
612.83	1668.00
613.18	1663.86
613.53	1658.62
613.88	1653.81
614.22	1648.12
614.57	1642.45
614.92	1637.24
615.27	1631.43
615.61	1625.86
615.96	1619.71
616.31	1613.67
616.65	1609.12
617.00	1605.10
617.35	1600.76
617.70	1594.64
618.04	1588.95
618.39	1582.40
618.74	1576.79
619.08	1571.02
619.43	1566.12
619.78	1560.48
620.12	1556.21
620.47	1550.55
620.82	1544.33
621.16	1538.40
621.51	1534.19
621.85	1528.83
622.20	1523.40
622.55	1517.60
622.89	1511.81
623.24	1506.95
623.59	1501.10
623.93	1494.38
624.28	1488.52
624.62	1484.67
624.97	1481.17
625.32	1475.86
625.66	1470.74
626.01	1465.12
626.35	1460.21
626.70	1454.21
627.04	1449.00
627.39	1442.38
627.73	1438.26
628.08	1434.17
628.43	1429.33
628.77	1423.29
629.12	1418.40
629.46	1413.40
629.81	1407.79
630.15	1402.45
630.50	1396.14
630.84	1390.69
631.19	1385.07
631.53	1379.02
631.88	1369.67
632.22	1361.79
632.57	1356.55
632.91	1349.93
633.26	1344.52
633.60	1337.62
633.95	1331.76
634.29	1326.24
634.64	1320.64
634.98	1313.57
635.32	1307.40
635.67	1301.90
636.01	1295.26
636.36	1289.21
636.70	1283.64
637.05	1277.81
637.39	1271.83
637.73	1266.64
638.08	1261.17
638.42	1255.74
638.77	1250.33
639.11	1245.36
639.45	1239.55
639.80	1232.55
640.14	1226.69
640.49	1220.10
640.83	1213.98
641.17	1207.93
641.52	1201.24
641.86	1195.12
642.20	1189.36
642.55	1182.10
642.89	1175.86
643.23	1169.69
643.58	1163.19
643.92	1155.74
644.26	1148.74
644.61	1142.57
644.95	1135.26
645.29	1127.88
645.64	1121.10
645.98	1113.79
646.32	1107.31
646.66	1100.12
647.01	1093.38
647.35	1087.64
647.69	1081.29
648.04	1076.14
648.38	1069.86
648.72	1063.45
649.06	1056.76
649.41	1049.86
649.75	1043.62
650.09	1037.00
650.43	1030.57
650.78	1023.38
651.12	1016.45
651.46	1010.05
651.80	1003.40
652.14	997.10
652.49	991.71
652.83	984.98
653.17	978.57
653.51	972.36
653.85	966.57
654.20	960.38
654.54	953.48
654.88	946.79
655.22	940.64
655.56	933.26
655.90	927.14
656.25	920.52
656.59	914.24
656.93	908.29
657.27	902.43
657.61	896.29
657.95	890.86
658.29	884.90
658.64	879.50
658.98	872.86
659.32	866.26
659.66	860.02
660.00	854.31
660.34	848.36
660.68	842.19
661.02	836.02
661.36	830.14
661.70	824.55
662.05	819.19
662.39	812.88
662.73	808.38
663.07	803.86
663.41	798.83
663.75	792.74
664.09	787.38
664.43	781.69
664.77	775.83
665.11	770.07
665.45	765.02
665.79	759.64
666.13	754.67
666.47	749.71
666.81	744.33
667.15	738.90
667.49	734.02
667.83	729.55
668.17	724.67
668.51	719.40
668.85	714.52
669.19	709.69
669.53	703.81
669.87	698.31
670.21	692.24
670.55	687.31
670.89	683.98
671.23	678.98
671.57	674.24
671.91	670.40
672.25	665.71
672.58	661.74
672.92	656.17
673.26	651.67
673.60	647.57
673.94	643.48
674.28	639.31
674.62	635.19
674.96	630.55
675.30	626.33
675.64	622.40
675.97	617.95
676.31	613.31
676.65	609.79
676.99	606.36
677.33	602.26
677.67	598.19
678.01	593.29
678.34	589.24
678.68	585.52
679.02	580.95
679.36	577.19
679.70	573.05
680.04	569.21
680.37	565.36
680.71	560.83
681.05	557.00
681.39	553.26
681.73	549.24
682.06	545.26
682.40	541.55
682.74	538.05
683.08	534.88
683.42	530.98
683.75	527.36
684.09	523.02
684.43	519.14
684.77	515.07
685.10	511.12
685.44	507.81
685.78	503.52
686.12	499.57
686.45	496.24
686.79	492.24
687.13	490.02
687.46	486.36
687.80	484.21
688.14	480.98
688.48	477.64
688.81	474.31
689.15	471.83
689.49	468.50
689.82	465.71
690.16	461.74
690.50	458.62
690.83	455.55
691.17	452.21
691.51	449.36
691.84	446.62
692.18	444.10
692.52	441.07
692.85	438.86
693.19	437.19
693.52	434.26
693.86	431.45
694.20	428.33
694.53	425.60
694.87	422.55
695.21	419.45
695.54	416.69
695.88	413.76
696.21	410.00
696.55	407.19
696.88	404.02
697.22	401.76
697.56	400.10
697.89	397.38
698.23	395.64
698.56	393.12
698.90	391.31
699.23	388.93
699.57	386.86
699.90	384.52
700.24	381.98
700.58	379.57
700.91	377.90
701.25	377.00
701.58	376.00
701.92	374.19
702.25	371.93
702.59	369.79
702.92	368.29
703.26	366.55
703.59	364.86
703.93	364.95
704.26	363.21
704.60	361.12
704.93	359.26
705.26	357.36
705.60	356.19
705.93	353.86
706.27	352.38
706.60	351.12
706.94	350.07
707.27	348.21
707.61	347.02
707.94	345.24
708.27	342.17
708.61	339.93
708.94	338.10
709.28	336.90
709.61	335.50
709.94	334.00
710.28	332.81
710.61	331.40
710.95	327.93
711.28	327.74
711.61	326.10
711.95	325.33
712.28	323.57
712.61	321.88
712.95	321.71
713.28	321.21
713.61	319.29
713.95	317.29
714.28	315.93
714.61	314.33
714.95	312.86
715.28	311.45
715.61	310.10
715.95	308.86
716.28	307.50
716.61	306.43
716.95	304.81
717.28	303.62
717.61	302.45
717.94	301.43
718.28	298.81
718.61	297.38
718.94	295.95
719.27	295.07
719.61	294.19
719.94	292.86
720.27	290.88
720.60	289.93
720.94	288.62
721.27	287.64
721.60	287.07
721.93	285.88
722.27	285.88
722.60	285.12
722.93	284.14
723.26	283.40
723.59	282.67
723.93	282.05
724.26	281.21
724.59	280.05
724.92	279.57
725.25	279.71
725.59	279.29
725.92	278.67
726.25	277.60
726.58	277.10
726.91	275.95
727.24	275.43
727.57	274.71
727.91	273.90
728.24	273.36
728.57	272.57
728.90	272.38
729.23	271.02
729.56	271.33
729.89	270.64
730.22	269.90
730.55	269.02
730.89	268.71
731.22	268.00
731.55	267.40
731.88	266.55
732.21	265.31
732.54	264.62
732.87	263.83
733.20	263.33
733.53	262.40
733.86	261.67
734.19	260.60
734.52	260.17
734.85	261.02
735.18	260.12
735.51	260.12
735.84	259.52
736.17	259.50
736.50	257.76
736.83	259.67
737.16	258.95
737.49	258.57
737.82	257.79
738.15	257.64
738.48	257.48
738.81	256.86
739.14	256.26
739.47	255.52
739.80	255.24
740.13	255.12
740.46	254.31
740.79	253.74
741.12	253.69
741.45	253.02
741.78	251.43
742.11	251.71
742.44	250.83
742.77	250.81
743.10	249.90
743.43	249.55
743.75	246.81
744.08	249.33
744.41	248.71
744.74	248.38
745.07	247.62
745.40	247.48
745.73	248.17
746.06	247.76
746.39	247.95
746.71	247.45
747.04	246.76
747.37	246.43
747.70	246.50
748.03	246.17
748.36	245.93
748.68	245.64
749.01	244.50
749.34	244.02
749.67	243.38
750.00	243.50
750.33	244.83
750.65	244.98
750.98	242.07
751.31	241.86
751.64	241.60
751.97	242.19
752.29	241.86
752.62	240.45
752.95	240.31
753.28	239.74
753.60	239.57
753.93	239.95
754.26	239.62
754.59	238.79
754.91	238.21
755.24	238.14
755.57	237.86
755.90	237.83
756.22	237.38
756.55	236.81
756.88	236.00
757.20	234.12
757.53	232.98
757.86	232.83
758.19	232.81
758.51	232.45
758.84	231.31
759.17	230.79
759.49	230.83
759.82	231.43
760.15	231.29
760.47	230.86
760.80	229.93
761.13	230.38
761.45	230.26
761.78	229.98
762.11	229.57
762.43	229.07
762.76	228.90
763.08	229.07
763.41	229.17
763.74	229.31
764.06	229.36
764.39	229.21
764.71	229.12
765.04	228.69
765.37	228.33
765.69	228.14
766.02	227.95
766.34	227.38
766.67	226.26
767.00	226.24
767.32	227.07
767.65	228.40
767.97	228.10
768.30	227.88
768.62	227.76
768.95	227.45
769.27	227.31
769.60	227.38
769.92	226.93
770.25	226.69
770.57	226.14
770.90	225.81
771.22	225.57
771.55	225.36
771.87	225.43
772.20	225.14
772.52	226.83
772.85	229.21
773.17	229.38
773.50	229.38
773.82	229.29
774.15	228.33
774.47	226.62
774.80	226.24
775.12	226.05
775.45	226.12
775.77	226.12
776.09	226.36
776.42	226.60
776.74	227.12
777.07	226.88
777.39	226.74
777.72	226.81
778.04	227.17
778.36	226.64
778.69	226.67
779.01	226.71
779.33	224.86
779.66	222.31
779.98	222.07
780.31	222.14
780.63	222.55
780.95	222.81
781.28	222.88
781.60	222.62
781.92	222.79
782.25	222.69
782.57	222.24
782.89	221.95
783.22	221.50
783.54	221.07
783.86	221.10
784.19	221.21
784.51	221.40
784.83	220.95
785.16	220.93
785.48	220.69
