SpectraSuite Data File
++++++++++++++++++++++++++++++++++++
Date: Tue Apr 02 18:46:47 EDT 2013
User: group
Dark Spectrum Present: No
Reference Spectrum Present: No
Number of Sampled Component Spectra: 1
Spectrometers: USB2E7196
Integration Time (usec): 580000 (USB2E7196)
Spectra Averaged: 2 (USB2E7196)
Boxcar Smoothing: 10 (USB2E7196)
Correct for Electrical Dark: No (USB2E7196)
Strobe/Lamp Enabled: No (USB2E7196)
Correct for Detector Non-linearity: No (USB2E7196)
Correct for Stray Light: No (USB2E7196)
Number of Pixels in Processed Spectrum: 2048
>>>>>Begin Processed Spectral Data<<<<<
339.09	0.00
339.48	192.00
339.86	197.50
340.24	194.00
340.63	196.50
341.01	234.50
341.39	204.00
341.78	208.00
342.16	210.00
342.54	206.50
342.93	198.52
343.31	208.21
343.69	208.74
344.07	209.10
344.46	210.05
344.84	210.71
345.22	209.29
345.60	209.64
345.99	209.71
346.37	209.81
346.75	209.95
347.13	210.24
347.52	210.24
347.90	210.64
348.28	210.60
348.66	211.14
349.05	210.60
349.43	210.71
349.81	210.81
350.19	210.69
350.57	210.52
350.96	210.79
351.34	211.17
351.72	211.26
352.10	211.38
352.48	211.26
352.87	211.14
353.25	211.26
353.63	210.98
354.01	210.88
354.39	211.00
354.77	210.83
355.15	211.26
355.54	211.05
355.92	210.43
356.30	210.62
356.68	211.76
357.06	211.79
357.44	211.48
357.82	211.57
358.20	212.69
358.58	212.52
358.97	212.60
359.35	213.02
359.73	213.62
360.11	213.67
360.49	213.64
360.87	213.79
361.25	214.07
361.63	215.02
362.01	215.21
362.39	215.14
362.77	215.24
363.15	215.14
363.53	215.19
363.91	215.36
364.29	215.07
364.67	213.19
365.05	213.19
365.43	213.62
365.81	213.86
366.19	213.98
366.57	215.02
366.95	214.81
367.33	214.33
367.71	214.19
368.09	214.50
368.47	214.69
368.85	214.52
369.23	214.90
369.61	214.14
369.99	214.79
370.37	214.83
370.75	216.12
371.13	215.79
371.51	215.64
371.89	215.74
372.27	216.07
372.65	216.45
373.03	216.69
373.41	216.52
373.78	216.29
374.16	215.26
374.54	214.74
374.92	214.50
375.30	214.40
375.68	214.31
376.06	214.64
376.44	214.33
376.82	214.43
377.19	214.48
377.57	214.21
377.95	213.62
378.33	213.45
378.71	212.12
379.09	212.40
379.47	212.50
379.84	212.40
380.22	212.24
380.60	211.69
380.98	211.86
381.36	211.90
381.73	211.64
382.11	212.07
382.49	211.90
382.87	211.64
383.25	211.79
383.62	214.19
384.00	213.60
384.38	213.64
384.76	214.38
385.13	215.07
385.51	215.43
385.89	214.95
386.27	215.21
386.64	215.52
387.02	215.29
387.40	215.31
387.78	215.64
388.15	215.71
388.53	215.64
388.91	215.36
389.29	215.12
389.66	215.79
390.04	215.21
390.42	215.60
390.79	215.74
391.17	215.69
391.55	213.10
391.92	213.19
392.30	213.64
392.68	213.07
393.05	212.76
393.43	212.60
393.81	212.98
394.18	212.50
394.56	212.67
394.94	213.24
395.31	213.10
395.69	213.40
396.06	213.62
396.44	213.81
396.82	213.83
397.19	214.98
397.57	214.48
397.95	215.10
398.32	214.67
398.70	215.17
399.07	215.76
399.45	215.93
399.82	215.88
400.20	215.43
400.58	215.24
400.95	214.48
401.33	214.98
401.70	216.50
402.08	216.81
402.45	216.83
402.83	217.17
403.20	217.21
403.58	217.05
403.95	217.52
404.33	218.05
404.71	218.07
405.08	219.14
405.46	219.52
405.83	219.81
406.21	220.17
406.58	220.33
406.96	220.62
407.33	221.19
407.70	222.12
408.08	224.26
408.45	225.36
408.83	226.45
409.20	226.81
409.58	226.29
409.95	227.60
410.33	228.19
410.70	228.45
411.08	230.02
411.45	231.14
411.82	231.88
412.20	233.69
412.57	236.07
412.95	235.81
413.32	237.57
413.69	238.67
414.07	240.60
414.44	242.40
414.82	244.31
415.19	246.55
415.56	248.55
415.94	249.71
416.31	252.43
416.68	255.12
417.06	258.40
417.43	262.02
417.81	265.26
418.18	269.14
418.55	273.00
418.93	277.07
419.30	281.43
419.67	286.00
420.04	290.07
420.42	294.14
420.79	301.29
421.16	306.93
421.54	313.98
421.91	319.74
422.28	325.98
422.66	332.26
423.03	340.43
423.40	347.36
423.77	354.36
424.15	361.33
424.52	368.83
424.89	377.50
425.26	385.07
425.64	392.48
426.01	400.45
426.38	408.98
426.75	418.24
427.13	427.00
427.50	436.45
427.87	446.33
428.24	456.24
428.61	464.48
428.99	475.57
429.36	485.79
429.73	497.31
430.10	508.67
430.47	520.33
430.85	530.50
431.22	542.90
431.59	558.24
431.96	570.88
432.33	585.19
432.70	598.74
433.08	614.79
433.45	630.60
433.82	645.98
434.19	662.86
434.56	679.43
434.93	694.98
435.30	710.76
435.68	728.29
436.05	745.55
436.42	762.45
436.79	777.90
437.16	795.60
437.53	813.07
437.90	831.24
438.27	849.00
438.64	866.76
439.01	884.21
439.38	897.48
439.75	912.55
440.13	929.21
440.50	945.10
440.87	957.98
441.24	970.60
441.61	985.38
441.98	996.14
442.35	1007.88
442.72	1021.29
443.09	1034.43
443.46	1041.95
443.83	1047.55
444.20	1051.83
444.57	1058.07
444.94	1060.33
445.31	1063.67
445.68	1068.88
446.05	1070.31
446.42	1069.88
446.79	1068.57
447.16	1066.88
447.53	1065.86
447.90	1059.38
448.27	1052.67
448.64	1043.29
449.01	1037.10
449.37	1025.79
449.74	1014.81
450.11	1003.52
450.48	988.62
450.85	973.48
451.22	960.57
451.59	948.57
451.96	937.76
452.33	922.14
452.70	909.05
453.07	892.40
453.43	872.86
453.80	856.31
454.17	840.02
454.54	823.93
454.91	807.64
455.28	791.19
455.65	776.48
456.02	764.86
456.38	752.50
456.75	737.43
457.12	724.21
457.49	711.40
457.86	697.33
458.23	687.81
458.59	675.67
458.96	663.95
459.33	653.36
459.70	643.33
460.07	635.26
460.43	625.00
460.80	616.21
461.17	609.29
461.54	600.76
461.91	592.74
462.27	585.26
462.64	578.67
463.01	571.40
463.38	564.64
463.74	554.48
464.11	548.17
464.48	542.67
464.85	536.52
465.21	532.67
465.58	528.02
465.95	521.31
466.32	516.36
466.68	511.60
467.05	506.95
467.42	501.52
467.78	496.00
468.15	491.86
468.52	488.60
468.88	482.71
469.25	478.71
469.62	475.45
469.98	471.40
470.35	467.62
470.72	464.43
471.08	460.00
471.45	456.83
471.82	454.36
472.18	450.83
472.55	448.52
472.92	444.79
473.28	441.83
473.65	439.02
474.02	436.52
474.38	434.40
474.75	432.31
475.11	429.76
475.48	428.31
475.85	425.93
476.21	423.52
476.58	422.14
476.94	421.31
477.31	419.95
477.67	418.76
478.04	417.83
478.41	416.57
478.77	418.33
479.14	417.26
479.50	416.26
479.87	415.81
480.23	414.93
480.60	414.69
480.96	414.52
481.33	414.95
481.69	415.17
482.06	415.21
482.42	415.33
482.79	416.14
483.15	416.45
483.52	417.76
483.88	418.36
484.25	419.10
484.61	419.21
484.98	419.79
485.34	421.79
485.71	423.12
486.07	424.71
486.44	423.81
486.80	425.60
487.17	427.00
487.53	429.24
487.90	431.52
488.26	434.26
488.62	436.93
488.99	439.10
489.35	441.12
489.72	443.95
490.08	446.60
490.44	449.29
490.81	452.69
491.17	455.24
491.54	458.98
491.90	462.74
492.26	466.90
492.63	470.81
492.99	473.93
493.36	478.10
493.72	482.50
494.08	487.00
494.45	491.88
494.81	496.79
495.17	501.48
495.54	506.88
495.90	511.52
496.26	516.55
496.63	522.38
496.99	527.90
497.35	533.40
497.72	539.29
498.08	545.29
498.44	551.14
498.80	557.95
499.17	564.02
499.53	569.98
499.89	576.55
500.26	583.74
500.62	590.36
500.98	597.45
501.34	604.31
501.71	612.02
502.07	618.98
502.43	625.88
502.79	632.57
503.16	639.57
503.52	646.79
503.88	653.60
504.24	660.81
504.60	668.64
504.97	676.31
505.33	683.57
505.69	692.07
506.05	700.45
506.41	707.81
506.78	715.38
507.14	723.21
507.50	730.93
507.86	738.26
508.22	746.24
508.59	752.95
508.95	761.21
509.31	769.74
509.67	777.33
510.03	785.12
510.39	793.45
510.75	801.36
511.12	808.98
511.48	817.31
511.84	824.90
512.20	831.95
512.56	840.12
512.92	847.83
513.28	854.36
513.64	861.02
514.00	868.43
514.37	876.62
514.73	884.67
515.09	892.31
515.45	899.69
515.81	906.48
516.17	913.93
516.53	920.02
516.89	925.98
517.25	932.64
517.61	940.14
517.97	946.21
518.33	953.07
518.69	960.24
519.05	965.98
519.41	972.48
519.77	980.50
520.13	986.26
520.49	992.05
520.85	997.88
521.21	1004.60
521.57	1010.62
521.93	1015.00
522.29	1020.43
522.65	1025.07
523.01	1030.31
523.37	1035.79
523.73	1041.55
524.09	1046.31
524.45	1051.05
524.81	1055.45
525.17	1059.76
525.53	1064.19
525.89	1068.29
526.25	1072.74
526.61	1077.10
526.97	1080.90
527.33	1084.90
527.68	1090.50
528.04	1094.67
528.40	1098.98
528.76	1102.67
529.12	1106.90
529.48	1111.69
529.84	1115.62
530.20	1119.50
530.56	1123.90
530.91	1127.86
531.27	1132.00
531.63	1137.21
531.99	1140.38
532.35	1144.83
532.71	1148.00
533.07	1153.12
533.42	1159.83
533.78	1164.00
534.14	1168.38
534.50	1172.31
534.86	1176.62
535.21	1178.62
535.57	1183.07
535.93	1186.88
536.29	1191.17
536.65	1194.79
537.00	1198.64
537.36	1202.26
537.72	1206.26
538.08	1209.24
538.44	1212.17
538.79	1215.48
539.15	1217.98
539.51	1222.43
539.87	1225.86
540.22	1230.38
540.58	1233.19
540.94	1234.43
541.29	1237.60
541.65	1239.86
542.01	1243.57
542.37	1246.36
542.72	1249.17
543.08	1251.40
543.44	1254.14
543.79	1255.40
544.15	1258.21
544.51	1261.26
544.87	1264.17
545.22	1267.10
545.58	1269.83
545.94	1272.36
546.29	1274.26
546.65	1276.90
547.01	1279.12
547.36	1282.05
547.72	1284.14
548.07	1286.52
548.43	1288.64
548.79	1290.33
549.14	1293.64
549.50	1295.74
549.86	1296.38
550.21	1298.48
550.57	1301.98
550.92	1304.14
551.28	1308.02
551.64	1310.31
551.99	1312.69
552.35	1314.81
552.70	1317.48
553.06	1321.17
553.41	1324.40
553.77	1328.50
554.13	1332.40
554.48	1336.31
554.84	1339.95
555.19	1343.90
555.55	1349.07
555.90	1352.17
556.26	1355.40
556.61	1358.71
556.97	1361.93
557.32	1366.71
557.68	1370.90
558.03	1374.26
558.39	1378.36
558.74	1381.50
559.10	1385.76
559.45	1390.07
559.81	1393.88
560.16	1397.62
560.52	1400.81
560.87	1406.17
561.23	1409.83
561.58	1415.43
561.94	1418.33
562.29	1422.07
562.64	1426.38
563.00	1429.76
563.35	1434.26
563.71	1439.57
564.06	1444.40
564.42	1449.90
564.77	1456.02
565.12	1461.93
565.48	1469.45
565.83	1475.86
566.19	1482.05
566.54	1487.29
566.89	1491.90
567.25	1499.02
567.60	1506.19
567.96	1514.17
568.31	1520.69
568.66	1526.19
569.02	1530.24
569.37	1536.14
569.72	1542.45
570.08	1547.00
570.43	1551.74
570.78	1558.60
571.14	1564.29
571.49	1569.55
571.84	1575.79
572.20	1579.62
572.55	1584.67
572.90	1586.69
573.26	1590.17
573.61	1593.93
573.96	1598.55
574.31	1603.17
574.67	1607.17
575.02	1610.36
575.37	1612.40
575.72	1614.43
576.08	1618.57
576.43	1621.76
576.78	1625.36
577.13	1628.52
577.49	1633.36
577.84	1637.93
578.19	1641.19
578.54	1645.55
578.90	1649.67
579.25	1652.38
579.60	1656.38
579.95	1659.52
580.30	1664.26
580.66	1668.55
581.01	1672.93
581.36	1676.10
581.71	1679.40
582.06	1683.40
582.42	1687.05
582.77	1690.55
583.12	1694.45
583.47	1698.21
583.82	1702.40
584.17	1706.33
584.53	1710.12
584.88	1712.67
585.23	1716.50
585.58	1719.57
585.93	1720.98
586.28	1724.38
586.63	1727.31
586.98	1730.50
587.34	1733.90
587.69	1736.45
588.04	1739.12
588.39	1741.12
588.74	1742.69
589.09	1746.10
589.44	1746.17
589.79	1748.83
590.14	1750.86
590.49	1752.40
590.84	1753.43
591.19	1755.12
591.54	1757.10
591.89	1758.12
592.25	1762.31
592.60	1762.62
592.95	1764.14
593.30	1766.33
593.65	1767.48
594.00	1767.69
594.35	1773.86
594.70	1773.76
595.05	1774.10
595.40	1774.71
595.75	1775.90
596.10	1778.43
596.45	1779.29
596.80	1781.50
597.15	1782.57
597.50	1783.90
597.85	1786.02
598.19	1786.40
598.54	1787.12
598.89	1787.12
599.24	1788.36
599.59	1787.38
599.94	1788.31
600.29	1788.38
600.64	1788.88
600.99	1788.81
601.34	1790.10
601.69	1784.86
602.04	1785.14
602.39	1785.79
602.74	1786.81
603.08	1787.81
603.43	1788.74
603.78	1787.93
604.13	1787.79
604.48	1786.90
604.83	1786.88
605.18	1786.45
605.53	1787.12
605.87	1786.98
606.22	1786.62
606.57	1784.76
606.92	1782.98
607.27	1781.76
607.62	1781.50
607.96	1781.93
608.31	1782.05
608.66	1781.45
609.01	1779.83
609.36	1779.60
609.70	1778.31
610.05	1775.45
610.40	1774.10
610.75	1771.38
611.10	1770.62
611.44	1768.33
611.79	1765.79
612.14	1764.00
612.49	1760.93
612.83	1758.45
613.18	1755.40
613.53	1752.98
613.88	1751.21
614.22	1748.00
614.57	1744.17
614.92	1739.90
615.27	1735.57
615.61	1731.12
615.96	1727.36
616.31	1724.60
616.65	1721.71
617.00	1718.79
617.35	1716.62
617.70	1711.55
618.04	1707.79
618.39	1704.07
618.74	1700.79
619.08	1697.64
619.43	1692.95
619.78	1689.83
620.12	1686.52
620.47	1682.60
620.82	1678.38
621.16	1673.38
621.51	1671.45
621.85	1667.33
622.20	1663.81
622.55	1659.38
622.89	1656.67
623.24	1653.98
623.59	1649.98
623.93	1645.67
624.28	1640.88
624.62	1637.93
624.97	1635.81
625.32	1631.95
625.66	1627.71
626.01	1623.81
626.35	1619.86
626.70	1615.67
627.04	1612.33
627.39	1607.90
627.73	1605.33
628.08	1602.14
628.43	1598.40
628.77	1593.33
629.12	1590.57
629.46	1587.64
629.81	1583.38
630.15	1578.14
630.50	1572.60
630.84	1568.14
631.19	1563.79
631.53	1559.60
631.88	1553.07
632.22	1546.93
632.57	1542.79
632.91	1537.74
633.26	1533.50
633.60	1528.62
633.95	1524.07
634.29	1518.02
634.64	1513.50
634.98	1507.71
635.32	1504.02
635.67	1501.05
636.01	1497.55
636.36	1492.52
636.70	1488.05
637.05	1483.83
637.39	1479.86
637.73	1475.83
638.08	1471.90
638.42	1466.88
638.77	1462.67
639.11	1458.17
639.45	1453.79
639.80	1448.69
640.14	1444.12
640.49	1439.07
640.83	1434.07
641.17	1430.40
641.52	1425.67
641.86	1420.79
642.20	1417.10
642.55	1411.38
642.89	1405.69
643.23	1399.38
643.58	1395.67
643.92	1389.62
644.26	1384.67
644.61	1379.45
644.95	1373.88
645.29	1368.05
645.64	1363.17
645.98	1357.79
646.32	1353.86
646.66	1347.90
647.01	1342.02
647.35	1336.19
647.69	1330.62
648.04	1325.40
648.38	1319.64
648.72	1313.81
649.06	1308.36
649.41	1301.81
649.75	1295.67
650.09	1289.12
650.43	1282.88
650.78	1275.64
651.12	1269.31
651.46	1262.81
651.80	1256.26
652.14	1250.12
652.49	1244.36
652.83	1237.88
653.17	1231.60
653.51	1224.52
653.85	1219.19
654.20	1213.55
654.54	1206.98
654.88	1200.33
655.22	1194.57
655.56	1187.36
655.90	1181.02
656.25	1173.90
656.59	1167.76
656.93	1161.86
657.27	1157.55
657.61	1151.90
657.95	1146.88
658.29	1140.88
658.64	1135.76
658.98	1129.26
659.32	1121.93
659.66	1115.24
660.00	1108.90
660.34	1102.55
660.68	1096.48
661.02	1089.67
661.36	1083.33
661.70	1078.05
662.05	1072.17
662.39	1065.88
662.73	1060.48
663.07	1056.50
663.41	1051.36
663.75	1044.83
664.09	1038.88
664.43	1031.29
664.77	1025.88
665.11	1019.05
665.45	1012.90
665.79	1006.86
666.13	1001.29
666.47	996.67
666.81	991.64
667.15	986.50
667.49	981.81
667.83	976.38
668.17	971.02
668.51	965.64
668.85	960.10
669.19	955.93
669.53	950.00
669.87	944.36
670.21	937.83
670.55	931.67
670.89	928.40
671.23	922.50
671.57	917.60
671.91	911.69
672.25	906.86
672.58	903.02
672.92	897.45
673.26	892.29
673.60	887.14
673.94	881.48
674.28	876.33
674.62	870.83
674.96	865.71
675.30	860.52
675.64	855.62
675.97	850.60
676.31	844.24
676.65	839.26
676.99	835.69
677.33	830.90
677.67	826.98
678.01	820.50
678.34	816.05
678.68	811.45
679.02	806.21
679.36	800.95
679.70	794.69
680.04	789.50
680.37	785.17
680.71	779.90
681.05	775.83
681.39	771.12
681.73	766.33
682.06	761.40
682.40	757.17
682.74	752.86
683.08	748.93
683.42	743.95
683.75	739.64
684.09	733.40
684.43	728.55
684.77	722.88
685.10	717.86
685.44	713.10
685.78	708.14
686.12	704.19
686.45	699.57
686.79	695.57
687.13	691.45
687.46	686.21
687.80	682.17
688.14	676.79
688.48	672.05
688.81	667.12
689.15	663.17
689.49	658.14
689.82	653.02
690.16	647.36
690.50	643.38
690.83	638.95
691.17	634.26
691.51	629.29
691.84	625.48
692.18	621.57
692.52	617.24
692.85	613.50
693.19	610.10
693.52	605.69
693.86	600.90
694.20	596.43
694.53	592.57
694.87	588.24
695.21	584.19
695.54	580.57
695.88	576.40
696.21	571.12
696.55	567.31
696.88	563.86
697.22	560.33
697.56	556.62
697.89	552.05
698.23	548.98
698.56	544.95
698.90	541.33
699.23	537.12
699.57	533.48
699.90	529.31
700.24	524.71
700.58	520.88
700.91	517.62
701.25	515.98
701.58	513.29
701.92	510.71
702.25	507.55
702.59	503.90
702.92	500.86
703.26	498.40
703.59	494.93
703.93	493.24
704.26	490.02
704.60	486.90
704.93	484.24
705.26	481.12
705.60	479.07
705.93	475.55
706.27	473.29
706.60	470.67
706.94	468.64
707.27	465.71
707.61	463.43
707.94	460.64
708.27	456.02
708.61	452.12
708.94	449.17
709.28	446.57
709.61	443.67
709.94	440.81
710.28	438.05
710.61	435.83
710.95	431.21
711.28	430.14
711.61	427.62
711.95	425.55
712.28	422.55
712.61	419.48
712.95	418.52
713.28	417.24
713.61	414.40
713.95	411.17
714.28	408.76
714.61	406.33
714.95	403.74
715.28	401.52
715.61	399.36
715.95	396.88
716.28	394.19
716.61	392.36
716.95	390.17
717.28	387.83
717.61	385.57
717.94	383.48
718.28	380.00
718.61	377.55
718.94	375.05
719.27	373.00
719.61	370.98
719.94	367.98
720.27	364.43
720.60	362.64
720.94	360.74
721.27	359.00
721.60	357.36
721.93	355.79
722.27	354.83
722.60	353.57
722.93	351.48
723.26	350.10
723.59	348.10
723.93	346.50
724.26	345.19
724.59	343.40
724.92	342.21
725.25	341.14
725.59	339.79
725.92	338.50
726.25	337.19
726.58	335.93
726.91	334.50
727.24	333.29
727.57	331.98
727.91	330.57
728.24	329.45
728.57	328.12
728.90	326.67
729.23	324.40
729.56	323.67
729.89	322.52
730.22	320.81
730.55	319.29
730.89	318.10
731.22	316.67
731.55	315.29
731.88	314.24
732.21	312.88
732.54	311.57
732.87	310.50
733.20	309.67
733.53	308.64
733.86	307.93
734.19	306.81
734.52	305.60
734.85	305.90
735.18	304.60
735.51	303.95
735.84	303.31
736.17	302.76
736.50	300.88
736.83	302.29
737.16	301.81
737.49	301.07
737.82	300.07
738.15	299.50
738.48	298.74
738.81	297.38
739.14	296.21
739.47	295.10
739.80	293.93
740.13	293.10
740.46	291.95
740.79	290.83
741.12	289.83
741.45	288.83
741.78	286.86
742.11	286.55
742.44	285.21
742.77	284.69
743.10	283.40
743.43	282.55
743.75	279.48
744.08	281.05
744.41	280.02
744.74	278.95
745.07	277.74
745.40	277.38
745.73	277.55
746.06	276.81
746.39	276.57
746.71	275.76
747.04	274.52
747.37	273.79
747.70	273.05
748.03	272.33
748.36	271.90
748.68	271.17
749.01	269.76
749.34	269.17
749.67	268.21
750.00	268.29
750.33	269.17
750.65	269.05
750.98	265.81
751.31	265.05
751.64	264.55
751.97	264.88
752.29	264.21
752.62	262.43
752.95	261.64
753.28	260.60
753.60	259.95
753.93	260.10
754.26	259.62
754.59	258.64
754.91	257.88
755.24	257.14
755.57	256.55
755.90	256.10
756.22	255.24
756.55	254.31
756.88	253.14
757.20	251.38
757.53	250.07
757.86	249.74
758.19	249.52
758.51	248.98
758.84	247.67
759.17	246.88
759.49	246.62
759.82	247.12
760.15	247.07
760.47	246.24
760.80	245.10
761.13	244.88
761.45	244.43
761.78	244.07
762.11	243.93
762.43	243.40
762.76	242.86
763.08	242.60
763.41	242.45
763.74	242.00
764.06	241.67
764.39	241.29
764.71	240.93
765.04	240.43
765.37	239.86
765.69	239.19
766.02	238.86
766.34	238.55
766.67	237.57
767.00	237.60
767.32	238.76
767.65	239.60
767.97	239.19
768.30	238.86
768.62	238.81
768.95	238.24
769.27	237.83
769.60	237.83
769.92	237.50
770.25	237.14
770.57	236.69
770.90	236.21
771.22	235.71
771.55	235.43
771.87	235.12
772.20	235.31
772.52	236.90
772.85	239.40
773.17	239.26
773.50	238.88
773.82	238.33
774.15	237.21
774.47	235.81
774.80	235.38
775.12	235.36
775.45	235.00
775.77	235.02
776.09	235.07
776.42	234.64
776.74	234.81
777.07	234.57
777.39	234.67
777.72	234.38
778.04	234.57
778.36	234.10
778.69	234.10
779.01	233.62
779.33	231.74
779.66	228.95
779.98	228.50
780.31	228.31
780.63	229.00
780.95	229.24
781.28	229.43
781.60	229.31
781.92	229.02
782.25	228.88
782.57	228.62
782.89	228.52
783.22	228.50
783.54	228.00
783.86	228.05
784.19	227.52
784.51	227.90
784.83	227.40
