SpectraSuite Data File
++++++++++++++++++++++++++++++++++++
Date: Tue Apr 02 18:37:24 EDT 2013
User: group
Dark Spectrum Present: No
Reference Spectrum Present: No
Number of Sampled Component Spectra: 1
Spectrometers: USB2E7196
Integration Time (usec): 580000 (USB2E7196)
Spectra Averaged: 2 (USB2E7196)
Boxcar Smoothing: 10 (USB2E7196)
Correct for Electrical Dark: No (USB2E7196)
Strobe/Lamp Enabled: No (USB2E7196)
Correct for Detector Non-linearity: No (USB2E7196)
Correct for Stray Light: No (USB2E7196)
Number of Pixels in Processed Spectrum: 2048
>>>>>Begin Processed Spectral Data<<<<<
339.09	0.00
339.48	197.00
339.86	192.50
340.24	196.50
340.63	199.50
341.01	232.50
341.39	202.50
341.78	209.00
342.16	213.50
342.54	214.00
342.93	200.10
343.31	210.19
343.69	210.64
344.07	211.21
344.46	212.31
344.84	212.98
345.22	211.81
345.60	212.40
345.99	212.67
346.37	212.60
346.75	212.26
347.13	212.26
347.52	212.36
347.90	213.00
348.28	213.02
348.66	213.24
349.05	212.33
349.43	212.55
349.81	212.55
350.19	212.43
350.57	212.21
350.96	212.40
351.34	212.36
351.72	212.26
352.10	212.50
352.48	212.14
352.87	211.74
353.25	211.69
353.63	211.38
354.01	211.05
354.39	211.17
354.77	211.29
355.15	211.79
355.54	211.81
355.92	210.90
356.30	210.71
356.68	212.21
357.06	212.14
357.44	211.86
357.82	211.81
358.20	212.76
358.58	212.62
358.97	212.50
359.35	213.00
359.73	213.57
360.11	213.52
360.49	213.33
360.87	213.43
361.25	213.62
361.63	214.00
362.01	214.17
362.39	213.88
362.77	214.10
363.15	213.95
363.53	213.74
363.91	214.07
364.29	214.24
364.67	212.19
365.05	212.48
365.43	212.69
365.81	212.98
366.19	212.90
366.57	213.76
366.95	213.60
367.33	212.95
367.71	212.98
368.09	213.10
368.47	213.33
368.85	213.43
369.23	214.00
369.61	213.45
369.99	214.17
370.37	214.50
370.75	215.57
371.13	215.31
371.51	215.02
371.89	215.24
372.27	215.38
372.65	215.24
373.03	215.12
373.41	215.02
373.78	214.83
374.16	213.81
374.54	213.36
374.92	213.40
375.30	213.48
375.68	213.10
376.06	213.50
376.44	213.26
376.82	213.38
377.19	213.10
377.57	213.10
377.95	212.57
378.33	212.29
378.71	210.83
379.09	211.26
379.47	211.79
379.84	211.55
380.22	211.40
380.60	211.67
380.98	211.81
381.36	212.00
381.73	211.79
382.11	212.36
382.49	212.55
382.87	212.40
383.25	212.67
383.62	215.17
384.00	214.71
384.38	215.02
384.76	215.52
385.13	216.29
385.51	216.48
385.89	216.29
386.27	216.40
386.64	216.83
387.02	216.60
387.40	216.29
387.78	216.62
388.15	216.60
388.53	216.24
388.91	216.33
389.29	215.98
389.66	216.38
390.04	215.93
390.42	216.05
390.79	216.29
391.17	216.00
391.55	213.69
391.92	213.81
392.30	214.05
392.68	213.60
393.05	213.48
393.43	213.57
393.81	213.43
394.18	213.33
394.56	213.38
394.94	213.71
395.31	213.71
395.69	214.48
396.06	214.62
396.44	215.12
396.82	214.79
397.19	216.14
397.57	215.90
397.95	216.48
398.32	215.93
398.70	215.93
399.07	216.43
399.45	216.21
399.82	216.19
400.20	215.83
400.58	215.69
400.95	215.07
401.33	215.36
401.70	217.31
402.08	217.57
402.45	217.67
402.83	218.26
403.20	218.55
403.58	218.10
403.95	218.71
404.33	218.95
404.71	219.43
405.08	220.55
405.46	221.33
405.83	221.71
406.21	222.45
406.58	223.17
406.96	223.60
407.33	224.55
407.70	225.19
408.08	227.40
408.45	228.76
408.83	230.05
409.20	230.81
409.58	230.19
409.95	231.50
410.33	232.71
410.70	232.83
411.08	234.14
411.45	235.48
411.82	236.55
412.20	238.17
412.57	240.64
412.95	240.40
413.32	242.26
413.69	243.69
414.07	245.64
414.44	247.55
414.82	249.98
415.19	252.69
415.56	255.48
415.94	257.10
416.31	260.02
416.68	263.02
417.06	266.79
417.43	270.98
417.81	274.93
418.18	279.00
418.55	283.50
418.93	288.19
419.30	293.07
419.67	298.19
420.04	303.50
420.42	308.93
420.79	316.83
421.16	323.12
421.54	331.26
421.91	338.57
422.28	345.57
422.66	353.19
423.03	362.07
423.40	370.02
423.77	378.60
424.15	387.05
424.52	396.21
424.89	406.60
425.26	415.50
425.64	424.50
426.01	434.21
426.38	444.71
426.75	456.17
427.13	466.81
427.50	478.14
427.87	489.74
428.24	501.26
428.61	511.88
428.99	524.83
429.36	537.48
429.73	550.45
430.10	564.33
430.47	578.17
430.85	591.07
431.22	605.81
431.59	623.19
431.96	638.57
432.33	655.10
432.70	671.07
433.08	690.60
433.45	708.79
433.82	726.98
434.19	747.12
434.56	767.19
434.93	786.62
435.30	805.86
435.68	827.48
436.05	847.95
436.42	868.57
436.79	888.67
437.16	909.38
437.53	930.79
437.90	952.26
438.27	974.02
438.64	995.86
439.01	1017.60
439.38	1034.50
439.75	1053.21
440.13	1073.69
440.50	1092.50
440.87	1107.95
441.24	1123.45
441.61	1142.02
441.98	1155.14
442.35	1170.14
442.72	1185.64
443.09	1201.88
443.46	1211.26
443.83	1218.67
444.20	1224.17
444.57	1231.90
444.94	1236.07
445.31	1240.64
445.68	1247.26
446.05	1249.24
446.42	1248.33
446.79	1246.57
447.16	1244.50
447.53	1242.38
447.90	1234.90
448.27	1227.55
448.64	1217.26
449.01	1210.64
449.37	1196.50
449.74	1184.02
450.11	1170.10
450.48	1152.67
450.85	1133.95
451.22	1118.79
451.59	1104.43
451.96	1091.12
452.33	1071.90
452.70	1055.71
453.07	1035.71
453.43	1013.14
453.80	992.81
454.17	974.24
454.54	955.40
454.91	936.12
455.28	917.26
455.65	899.45
456.02	885.21
456.38	869.90
456.75	851.55
457.12	836.07
457.49	820.79
457.86	803.24
458.23	791.29
458.59	777.33
458.96	763.10
459.33	750.12
459.70	737.10
460.07	726.90
460.43	714.48
460.80	704.19
461.17	695.00
461.54	685.83
461.91	675.45
462.27	666.00
462.64	657.90
463.01	648.90
463.38	641.40
463.74	629.17
464.11	621.48
464.48	614.50
464.85	607.33
465.21	602.00
465.58	596.55
465.95	588.71
466.32	582.69
466.68	576.57
467.05	570.83
467.42	565.36
467.78	559.24
468.15	553.52
468.52	549.07
468.88	542.43
469.25	536.45
469.62	532.81
469.98	528.24
470.35	523.90
470.72	519.83
471.08	514.17
471.45	511.19
471.82	508.10
472.18	504.17
472.55	501.45
472.92	496.81
473.28	493.14
473.65	489.69
474.02	486.76
474.38	484.40
474.75	481.88
475.11	478.64
475.48	476.38
475.85	474.50
476.21	472.19
476.58	471.02
476.94	469.83
477.31	468.31
477.67	466.76
478.04	465.67
478.41	465.00
478.77	466.95
479.14	465.52
479.50	464.67
479.87	464.67
480.23	463.95
480.60	463.98
480.96	464.05
481.33	465.26
481.69	465.45
482.06	465.79
482.42	466.29
482.79	467.24
483.15	467.69
483.52	468.76
483.88	469.43
484.25	470.24
484.61	471.67
484.98	472.60
485.34	474.60
485.71	476.71
486.07	478.71
486.44	478.14
486.80	480.52
487.17	482.90
487.53	485.50
487.90	488.57
488.26	492.48
488.62	496.26
488.99	498.81
489.35	502.07
489.72	505.48
490.08	509.19
490.44	512.76
490.81	517.60
491.17	521.74
491.54	526.76
491.90	531.81
492.26	536.43
492.63	541.79
492.99	546.50
493.36	551.67
493.72	556.79
494.08	562.95
494.45	568.88
494.81	575.40
495.17	581.33
495.54	588.12
495.90	594.55
496.26	600.98
496.63	608.40
496.99	615.40
497.35	622.50
497.72	630.17
498.08	638.55
498.44	646.05
498.80	654.05
499.17	661.93
499.53	669.90
499.89	679.07
500.26	687.81
500.62	696.50
500.98	705.81
501.34	715.29
501.71	725.19
502.07	734.57
502.43	743.76
502.79	753.19
503.16	763.10
503.52	772.40
503.88	781.83
504.24	791.19
504.60	801.98
504.97	812.69
505.33	822.40
505.69	832.79
506.05	843.69
506.41	853.45
506.78	863.90
507.14	873.98
507.50	884.17
507.86	894.57
508.22	905.33
508.59	914.76
508.95	924.43
509.31	935.14
509.67	945.60
510.03	955.36
510.39	965.93
510.75	975.36
511.12	985.64
511.48	995.60
511.84	1005.21
512.20	1014.48
512.56	1024.24
512.92	1034.55
513.28	1043.90
513.64	1053.36
514.00	1064.05
514.37	1073.43
514.73	1083.36
515.09	1092.02
515.45	1100.98
515.81	1110.50
516.17	1119.81
516.53	1129.14
516.89	1137.07
517.25	1145.10
517.61	1154.24
517.97	1161.95
518.33	1169.79
518.69	1177.52
519.05	1186.26
519.41	1194.36
519.77	1203.38
520.13	1210.60
520.49	1217.45
520.85	1224.62
521.21	1231.48
521.57	1238.33
521.93	1244.76
522.29	1252.12
522.65	1259.05
523.01	1266.31
523.37	1271.81
523.73	1278.26
524.09	1283.90
524.45	1289.26
524.81	1295.10
525.17	1301.33
525.53	1307.19
525.89	1313.40
526.25	1319.36
526.61	1324.14
526.97	1329.38
527.33	1333.29
527.68	1339.81
528.04	1343.67
528.40	1347.90
528.76	1352.38
529.12	1356.05
529.48	1360.48
529.84	1363.48
530.20	1367.12
530.56	1369.98
530.91	1373.98
531.27	1377.38
531.63	1381.88
531.99	1385.24
532.35	1388.05
532.71	1390.95
533.07	1394.48
533.42	1399.62
533.78	1402.40
534.14	1405.31
534.50	1408.60
534.86	1412.79
535.21	1414.19
535.57	1418.19
535.93	1420.74
536.29	1423.86
536.65	1427.14
537.00	1429.67
537.36	1432.40
537.72	1434.90
538.08	1437.24
538.44	1439.12
538.79	1441.33
539.15	1442.62
539.51	1445.10
539.87	1447.57
540.22	1449.07
540.58	1451.29
540.94	1451.00
541.29	1452.19
541.65	1452.21
542.01	1453.17
542.37	1452.93
542.72	1452.24
543.08	1452.19
543.44	1452.62
543.79	1451.14
544.15	1451.71
544.51	1453.10
544.87	1453.29
545.22	1453.33
545.58	1453.21
545.94	1453.33
546.29	1453.10
546.65	1452.19
547.01	1451.43
547.36	1450.76
547.72	1449.02
548.07	1447.88
548.43	1446.19
548.79	1444.76
549.14	1444.50
549.50	1443.10
549.86	1441.05
550.21	1441.24
550.57	1441.05
550.92	1439.76
551.28	1439.40
551.64	1437.83
551.99	1435.90
552.35	1434.26
552.70	1432.48
553.06	1432.19
553.41	1430.48
553.77	1430.64
554.13	1430.19
554.48	1429.07
554.84	1428.38
555.19	1428.24
555.55	1427.33
555.90	1425.55
556.26	1424.90
556.61	1423.40
556.97	1421.50
557.32	1420.64
557.68	1419.12
558.03	1416.67
558.39	1415.40
558.74	1413.74
559.10	1412.36
559.45	1410.64
559.81	1408.81
560.16	1407.98
560.52	1405.33
560.87	1404.26
561.23	1401.02
561.58	1399.86
561.94	1397.67
562.29	1396.00
562.64	1394.45
563.00	1391.24
563.35	1389.31
563.71	1387.74
564.06	1386.71
564.42	1385.98
564.77	1385.02
565.12	1383.83
565.48	1384.48
565.83	1384.33
566.19	1384.10
566.54	1382.24
566.89	1380.86
567.25	1380.48
567.60	1379.50
567.96	1380.24
568.31	1378.83
568.66	1377.55
569.02	1374.98
569.37	1372.98
569.72	1371.17
570.08	1368.50
570.43	1367.62
570.78	1366.14
571.14	1364.21
571.49	1361.86
571.84	1359.31
572.20	1356.19
572.55	1354.31
572.90	1350.26
573.26	1346.14
573.61	1342.38
573.96	1339.79
574.31	1336.40
574.67	1332.60
575.02	1329.07
575.37	1323.67
575.72	1319.45
576.08	1315.93
576.43	1312.79
576.78	1309.19
577.13	1305.05
577.49	1301.69
577.84	1297.88
578.19	1295.10
578.54	1291.26
578.90	1287.86
579.25	1283.95
579.60	1280.26
579.95	1275.64
580.30	1272.38
580.66	1269.07
581.01	1265.88
581.36	1261.50
581.71	1257.79
582.06	1255.17
582.42	1250.98
582.77	1247.31
583.12	1244.12
583.47	1240.40
583.82	1235.79
584.17	1232.71
584.53	1229.79
584.88	1226.26
585.23	1223.02
585.58	1217.98
585.93	1213.43
586.28	1208.81
586.63	1205.57
586.98	1202.43
587.34	1198.29
587.69	1193.57
588.04	1189.17
588.39	1184.45
588.74	1179.55
589.09	1174.88
589.44	1169.45
589.79	1165.48
590.14	1160.98
590.49	1156.12
590.84	1151.74
591.19	1147.64
591.54	1143.17
591.89	1137.29
592.25	1134.31
592.60	1128.40
592.95	1124.36
593.30	1120.26
593.65	1115.60
594.00	1110.64
594.35	1111.62
594.70	1107.50
595.05	1102.95
595.40	1098.05
595.75	1093.95
596.10	1090.60
596.45	1087.02
596.80	1082.95
597.15	1078.36
597.50	1074.00
597.85	1070.55
598.19	1065.88
598.54	1061.55
598.89	1056.67
599.24	1052.88
599.59	1046.86
599.94	1042.88
600.29	1038.69
600.64	1034.50
600.99	1031.29
601.34	1027.14
601.69	1016.33
602.04	1010.95
602.39	1006.14
602.74	1002.98
603.08	998.36
603.43	994.31
603.78	989.00
604.13	984.10
604.48	978.74
604.83	974.95
605.18	970.83
605.53	966.29
605.87	962.45
606.22	958.17
606.57	953.93
606.92	949.10
607.27	945.14
607.62	940.64
607.96	936.24
608.31	931.29
608.66	926.79
609.01	922.69
609.36	918.81
609.70	915.29
610.05	910.71
610.40	906.29
610.75	901.43
611.10	897.79
611.44	893.64
611.79	889.81
612.14	885.19
612.49	880.17
612.83	875.67
613.18	870.79
613.53	866.33
613.88	861.40
614.22	856.55
614.57	852.05
614.92	847.29
615.27	842.79
615.61	838.48
615.96	833.90
616.31	828.83
616.65	825.43
617.00	820.43
617.35	816.02
617.70	811.88
618.04	807.36
618.39	802.50
618.74	798.21
619.08	794.07
619.43	789.74
619.78	785.21
620.12	781.26
620.47	777.10
620.82	772.98
621.16	769.12
621.51	766.33
621.85	761.83
622.20	757.62
622.55	753.24
622.89	748.81
623.24	745.67
623.59	742.19
623.93	738.19
624.28	735.00
624.62	733.31
624.97	731.05
625.32	727.29
625.66	723.79
626.01	720.02
626.35	716.76
626.70	713.10
627.04	710.40
627.39	706.90
627.73	704.21
628.08	701.21
628.43	698.26
628.77	694.24
629.12	691.45
629.46	689.24
629.81	686.14
630.15	682.95
630.50	678.57
630.84	675.67
631.19	671.76
631.53	667.76
631.88	661.55
632.22	656.02
632.57	653.29
632.91	649.86
633.26	646.43
633.60	642.62
633.95	638.76
634.29	634.69
634.64	631.36
634.98	627.02
635.32	624.14
635.67	621.33
636.01	618.60
636.36	614.74
636.70	611.43
637.05	608.00
637.39	604.64
637.73	602.36
638.08	599.43
638.42	596.07
638.77	593.74
639.11	591.24
639.45	588.60
639.80	585.17
640.14	582.05
640.49	578.93
640.83	575.95
641.17	573.48
641.52	570.24
641.86	567.40
642.20	565.55
642.55	561.95
642.89	558.36
643.23	554.62
643.58	552.71
643.92	549.31
644.26	546.29
644.61	543.79
644.95	540.48
645.29	537.31
645.64	535.24
645.98	531.64
646.32	529.00
646.66	526.05
647.01	522.60
647.35	520.26
647.69	517.81
648.04	515.45
648.38	512.69
648.72	510.21
649.06	507.29
649.41	503.79
649.75	500.83
650.09	498.43
650.43	496.36
650.78	492.93
651.12	490.19
651.46	487.48
651.80	484.95
652.14	482.31
652.49	480.19
652.83	476.88
653.17	474.90
653.51	472.07
653.85	469.67
654.20	467.62
654.54	464.64
654.88	461.98
655.22	460.26
655.56	457.60
655.90	455.10
656.25	452.74
656.59	450.45
656.93	448.83
657.27	446.79
657.61	443.90
657.95	442.17
658.29	440.07
658.64	438.60
658.98	436.26
659.32	434.19
659.66	432.00
660.00	430.50
660.34	427.90
660.68	425.81
661.02	423.76
661.36	421.93
661.70	420.29
662.05	418.57
662.39	416.14
662.73	414.95
663.07	414.43
663.41	412.64
663.75	410.76
664.09	408.74
664.43	406.31
664.77	404.52
665.11	402.12
665.45	400.29
665.79	398.95
666.13	396.76
666.47	394.90
666.81	392.86
667.15	390.57
667.49	389.64
667.83	388.74
668.17	387.21
668.51	385.50
668.85	384.07
669.19	383.26
669.53	381.05
669.87	379.31
670.21	376.81
670.55	375.71
670.89	375.31
671.23	373.79
671.57	372.62
671.91	371.67
672.25	370.52
672.58	370.00
672.92	367.48
673.26	366.74
673.60	365.57
673.94	364.38
674.28	363.48
674.62	362.10
674.96	360.52
675.30	359.64
675.64	358.31
675.97	357.05
676.31	355.36
676.65	354.45
676.99	353.69
677.33	352.19
677.67	350.74
678.01	348.57
678.34	346.90
678.68	346.05
679.02	344.52
679.36	343.21
679.70	341.31
680.04	340.55
680.37	339.36
680.71	338.02
681.05	337.10
681.39	335.81
681.73	334.60
682.06	333.29
682.40	331.83
682.74	331.33
683.08	331.12
683.42	329.76
683.75	328.60
684.09	326.71
684.43	325.90
684.77	324.50
685.10	323.50
685.44	322.79
685.78	321.43
686.12	320.50
686.45	319.52
686.79	318.57
687.13	317.81
687.46	316.79
687.80	316.26
688.14	314.86
688.48	314.14
688.81	313.00
689.15	312.55
689.49	311.60
689.82	310.40
690.16	308.17
690.50	307.38
690.83	306.64
691.17	305.45
691.51	304.26
691.84	303.48
692.18	302.48
692.52	301.48
692.85	300.90
693.19	301.07
693.52	299.93
693.86	298.76
694.20	297.74
694.53	296.88
694.87	295.64
695.21	294.69
695.54	293.74
695.88	292.45
696.21	290.90
696.55	290.07
696.88	289.10
697.22	288.40
697.56	287.88
697.89	286.43
698.23	286.10
698.56	285.26
698.90	284.90
699.23	284.19
699.57	283.43
699.90	282.10
700.24	280.52
700.58	280.21
700.91	279.79
701.25	280.83
701.58	280.86
701.92	280.79
702.25	280.17
702.59	279.21
702.92	279.10
703.26	278.67
703.59	278.26
703.93	279.24
704.26	278.74
704.60	278.00
704.93	277.67
705.26	276.64
705.60	276.21
705.93	275.12
706.27	274.98
706.60	275.24
706.94	275.86
707.27	275.17
707.61	274.43
707.94	273.81
708.27	271.60
708.61	270.10
708.94	269.29
709.28	268.81
709.61	268.24
709.94	267.64
710.28	266.98
710.61	266.33
710.95	263.81
711.28	265.00
711.61	263.76
711.95	264.02
712.28	263.57
712.61	263.31
712.95	263.74
713.28	264.02
713.61	262.81
713.95	261.50
714.28	260.81
714.61	260.24
714.95	259.79
715.28	259.05
715.61	258.60
715.95	258.24
716.28	257.69
716.61	257.50
716.95	256.64
717.28	256.48
717.61	255.86
717.94	255.76
718.28	253.74
718.61	253.67
718.94	252.57
719.27	252.17
719.61	251.52
719.94	250.69
720.27	249.21
720.60	248.64
720.94	248.29
721.27	248.33
721.60	248.14
721.93	247.69
722.27	248.33
722.60	248.26
722.93	247.33
723.26	247.02
723.59	246.43
723.93	246.50
724.26	246.24
724.59	245.98
724.92	245.83
725.25	246.05
725.59	245.74
725.92	246.00
726.25	245.83
726.58	245.62
726.91	245.07
727.24	245.00
727.57	244.74
727.91	244.17
728.24	244.00
728.57	243.40
728.90	243.69
729.23	242.45
729.56	243.05
729.89	243.00
730.22	242.64
730.55	242.26
730.89	242.10
731.22	241.57
731.55	241.12
731.88	240.88
732.21	240.05
732.54	239.76
732.87	239.12
733.20	239.00
733.53	238.93
733.86	238.95
734.19	238.52
734.52	238.62
734.85	239.64
735.18	238.93
735.51	239.52
735.84	239.21
736.17	239.69
736.50	238.55
736.83	240.57
737.16	240.26
737.49	240.38
737.82	239.98
738.15	240.14
738.48	239.98
738.81	239.74
739.14	239.33
739.47	239.12
739.80	238.76
740.13	238.71
740.46	238.14
740.79	237.57
741.12	237.36
741.45	236.67
741.78	235.17
742.11	235.86
742.44	235.07
742.77	234.93
743.10	234.29
743.43	234.07
743.75	231.86
744.08	234.50
744.41	234.00
744.74	233.69
745.07	233.05
745.40	233.40
745.73	233.93
746.06	233.81
746.39	233.90
746.71	233.71
747.04	233.21
747.37	232.98
747.70	233.29
748.03	233.14
748.36	233.60
748.68	233.79
749.01	232.52
749.34	232.31
749.67	232.05
750.00	232.17
750.33	233.52
750.65	233.57
750.98	230.76
751.31	230.74
751.64	230.71
751.97	231.69
752.29	231.19
752.62	230.21
752.95	230.10
753.28	229.48
753.60	229.38
753.93	229.71
754.26	229.74
754.59	228.86
754.91	228.31
755.24	227.95
755.57	227.57
755.90	227.79
756.22	227.64
756.55	227.14
756.88	226.43
757.20	224.52
757.53	223.57
757.86	223.50
758.19	223.57
758.51	223.31
758.84	222.00
759.17	221.71
759.49	221.86
759.82	222.62
760.15	222.86
760.47	222.71
760.80	222.19
761.13	222.50
761.45	222.48
761.78	222.81
762.11	222.74
762.43	222.62
762.76	222.24
763.08	222.57
763.41	222.57
763.74	222.95
764.06	223.17
764.39	223.38
764.71	223.17
765.04	222.83
765.37	222.57
765.69	222.69
766.02	222.62
766.34	222.36
766.67	221.71
767.00	221.88
767.32	223.14
767.65	224.24
767.97	223.90
768.30	224.05
768.62	223.74
768.95	223.45
769.27	223.43
769.60	223.64
769.92	223.05
770.25	222.95
770.57	222.40
770.90	222.19
771.22	221.88
771.55	221.90
771.87	221.81
772.20	221.76
772.52	223.29
772.85	225.48
773.17	225.29
773.50	225.12
773.82	224.48
774.15	223.02
774.47	221.52
774.80	221.12
775.12	221.10
775.45	221.05
775.77	221.10
776.09	221.29
776.42	221.45
776.74	222.05
777.07	221.76
777.39	222.02
777.72	221.81
778.04	221.95
778.36	221.95
778.69	221.83
779.01	222.00
779.33	220.33
779.66	218.19
779.98	217.95
780.31	218.02
780.63	218.81
780.95	219.19
781.28	219.26
781.60	219.38
781.92	219.24
782.25	219.14
782.57	219.21
782.89	218.81
783.22	218.50
783.54	217.83
783.86	218.12
784.19	217.95
784.51	218.52
784.83	218.10
785.16	217.86
785.48	217.86
785.80	217.79
786.12	218.07
786.45	218.00
786.77	218.00
787.09	217.79
787.42	217.26
787.74	217.05
788.06	217.10
