SpectraSuite Data File
++++++++++++++++++++++++++++++++++++
Date: Tue Apr 02 18:37:50 EDT 2013
User: group
Dark Spectrum Present: No
Reference Spectrum Present: No
Number of Sampled Component Spectra: 1
Spectrometers: USB2E7196
Integration Time (usec): 580000 (USB2E7196)
Spectra Averaged: 2 (USB2E7196)
Boxcar Smoothing: 10 (USB2E7196)
Correct for Electrical Dark: No (USB2E7196)
Strobe/Lamp Enabled: No (USB2E7196)
Correct for Detector Non-linearity: No (USB2E7196)
Correct for Stray Light: No (USB2E7196)
Number of Pixels in Processed Spectrum: 2048
>>>>>Begin Processed Spectral Data<<<<<
339.09	0.00
339.48	195.00
339.86	193.50
340.24	198.50
340.63	198.00
341.01	229.00
341.39	200.50
341.78	211.50
342.16	213.50
342.54	205.00
342.93	198.79
343.31	208.45
343.69	208.81
344.07	209.33
344.46	209.95
344.84	210.79
345.22	209.79
345.60	210.43
345.99	210.36
346.37	210.36
346.75	210.40
347.13	210.45
347.52	210.69
347.90	211.29
348.28	211.31
348.66	211.81
349.05	211.14
349.43	211.43
349.81	211.79
350.19	211.86
350.57	211.90
350.96	211.98
351.34	212.43
351.72	212.90
352.10	213.14
352.48	213.26
352.87	213.02
353.25	213.17
353.63	212.93
354.01	212.74
354.39	212.64
354.77	212.76
355.15	213.29
355.54	213.05
355.92	212.52
356.30	212.60
356.68	214.00
357.06	214.07
357.44	213.62
357.82	213.45
358.20	214.40
358.58	214.24
358.97	214.52
359.35	214.90
359.73	215.19
360.11	215.14
360.49	215.14
360.87	215.19
361.25	215.60
361.63	216.05
362.01	216.38
362.39	216.26
362.77	216.52
363.15	216.38
363.53	216.45
363.91	216.45
364.29	216.52
364.67	214.50
365.05	214.60
365.43	214.95
365.81	215.38
366.19	215.26
366.57	216.24
366.95	215.98
367.33	215.48
367.71	215.33
368.09	215.95
368.47	215.60
368.85	215.50
369.23	215.81
369.61	215.45
369.99	216.10
370.37	216.45
370.75	217.36
371.13	217.00
371.51	216.76
371.89	217.14
372.27	217.10
372.65	217.36
373.03	217.52
373.41	217.36
373.78	216.98
374.16	216.21
374.54	215.38
374.92	215.19
375.30	215.19
375.68	215.02
376.06	214.93
376.44	215.05
376.82	215.02
377.19	214.74
377.57	214.40
377.95	213.64
378.33	213.45
378.71	212.36
379.09	212.76
379.47	212.93
379.84	212.40
380.22	212.31
380.60	212.00
380.98	211.81
381.36	211.86
381.73	211.57
382.11	211.93
382.49	211.98
382.87	211.69
383.25	211.93
383.62	214.14
384.00	213.64
384.38	213.76
384.76	214.57
385.13	215.38
385.51	215.60
385.89	215.52
386.27	215.43
386.64	215.62
387.02	215.45
387.40	215.40
387.78	215.64
388.15	215.71
388.53	215.69
388.91	215.81
389.29	215.60
389.66	216.07
390.04	215.90
390.42	216.38
390.79	216.71
391.17	216.43
391.55	214.45
391.92	214.50
392.30	214.74
392.68	214.50
393.05	214.21
393.43	214.52
393.81	214.81
394.18	214.69
394.56	214.81
394.94	215.38
395.31	215.33
395.69	215.86
396.06	216.19
396.44	216.57
396.82	216.43
397.19	217.57
397.57	217.24
397.95	217.50
398.32	216.95
398.70	217.14
399.07	217.69
399.45	217.62
399.82	217.74
400.20	217.43
400.58	217.02
400.95	216.17
401.33	216.36
401.70	217.81
402.08	218.02
402.45	218.05
402.83	218.33
403.20	218.57
403.58	218.36
403.95	218.83
404.33	218.98
404.71	219.40
405.08	220.86
405.46	221.36
405.83	221.64
406.21	222.05
406.58	222.50
406.96	223.05
407.33	223.81
407.70	224.55
408.08	226.86
408.45	227.81
408.83	229.17
409.20	229.74
409.58	229.26
409.95	230.50
410.33	231.86
410.70	232.36
411.08	233.71
411.45	235.19
411.82	236.29
412.20	238.05
412.57	240.55
412.95	240.10
413.32	242.07
413.69	243.95
414.07	245.86
414.44	248.02
414.82	250.19
415.19	252.62
415.56	255.19
415.94	257.02
416.31	260.26
416.68	263.12
417.06	267.19
417.43	271.26
417.81	275.19
418.18	279.02
418.55	283.36
418.93	287.98
419.30	292.69
419.67	297.81
420.04	303.02
420.42	308.00
420.79	316.07
421.16	322.64
421.54	330.36
421.91	337.60
422.28	344.86
422.66	352.26
423.03	361.29
423.40	369.40
423.77	377.88
424.15	386.24
424.52	395.21
424.89	404.81
425.26	413.90
425.64	422.83
426.01	432.55
426.38	442.95
426.75	454.02
427.13	465.36
427.50	476.36
427.87	488.00
428.24	499.95
428.61	510.26
428.99	523.31
429.36	535.88
429.73	549.45
430.10	562.67
430.47	577.07
430.85	590.00
431.22	605.52
431.59	622.57
431.96	637.57
432.33	654.95
432.70	671.71
433.08	691.12
433.45	709.57
433.82	728.05
434.19	748.55
434.56	768.52
434.93	786.95
435.30	806.31
435.68	827.62
436.05	848.21
436.42	868.69
436.79	887.81
437.16	908.76
437.53	930.07
437.90	952.07
438.27	973.71
438.64	995.33
439.01	1015.40
439.38	1032.45
439.75	1051.12
440.13	1070.71
440.50	1090.00
440.87	1105.81
441.24	1122.05
441.61	1139.90
441.98	1153.31
442.35	1168.17
442.72	1184.31
443.09	1200.67
443.46	1210.74
443.83	1216.74
444.20	1222.60
444.57	1230.10
444.94	1233.88
445.31	1238.36
445.68	1244.83
446.05	1246.40
446.42	1246.19
446.79	1244.52
447.16	1243.19
447.53	1242.10
447.90	1234.62
448.27	1226.64
448.64	1216.55
449.01	1209.07
449.37	1195.45
449.74	1182.48
450.11	1169.26
450.48	1151.21
450.85	1133.05
451.22	1116.98
451.59	1103.29
451.96	1089.64
452.33	1071.17
452.70	1054.74
453.07	1034.43
453.43	1011.10
453.80	991.43
454.17	971.88
454.54	953.86
454.91	933.57
455.28	914.00
455.65	896.83
456.02	882.36
456.38	867.00
456.75	848.88
457.12	833.79
457.49	818.19
457.86	800.79
458.23	789.17
458.59	774.26
458.96	760.69
459.33	747.69
459.70	734.79
460.07	725.12
460.43	713.07
460.80	702.36
461.17	693.86
461.54	683.81
461.91	674.24
462.27	664.71
462.64	656.74
463.01	648.00
463.38	640.07
463.74	627.64
464.11	619.31
464.48	611.79
464.85	604.21
465.21	598.98
465.58	593.10
465.95	585.14
466.32	579.60
466.68	573.33
467.05	567.62
467.42	561.95
467.78	555.00
468.15	549.33
468.52	545.14
468.88	538.71
469.25	533.19
469.62	528.98
469.98	524.14
470.35	519.57
470.72	515.31
471.08	510.10
471.45	507.33
471.82	504.19
472.18	500.48
472.55	497.45
472.92	493.29
473.28	490.50
473.65	487.48
474.02	483.90
474.38	481.67
474.75	479.55
475.11	477.05
475.48	475.64
475.85	473.69
476.21	471.86
476.58	470.17
476.94	469.10
477.31	467.62
477.67	466.14
478.04	465.40
478.41	464.86
478.77	466.12
479.14	464.98
479.50	464.74
479.87	464.33
480.23	464.14
480.60	463.69
480.96	463.17
481.33	464.02
481.69	464.74
482.06	464.83
482.42	465.62
482.79	466.38
483.15	466.62
483.52	468.00
483.88	468.98
484.25	470.17
484.61	470.95
484.98	471.79
485.34	474.14
485.71	476.10
486.07	477.86
486.44	477.98
486.80	480.31
487.17	482.29
487.53	485.98
487.90	488.62
488.26	492.43
488.62	495.69
488.99	498.26
489.35	501.98
489.72	505.21
490.08	508.55
490.44	511.90
490.81	516.57
491.17	520.40
491.54	524.57
491.90	529.33
492.26	534.45
492.63	539.98
492.99	544.81
493.36	549.93
493.72	555.67
494.08	561.33
494.45	566.93
494.81	573.26
495.17	579.14
495.54	585.98
495.90	592.02
496.26	598.81
496.63	606.24
496.99	613.26
497.35	620.79
497.72	628.62
498.08	636.48
498.44	644.38
498.80	653.07
499.17	661.29
499.53	669.17
499.89	678.21
500.26	686.98
500.62	695.98
500.98	705.64
501.34	714.29
501.71	723.81
502.07	732.86
502.43	741.98
502.79	751.36
503.16	760.21
503.52	769.86
503.88	779.19
504.24	789.43
504.60	799.81
504.97	810.14
505.33	819.86
505.69	830.90
506.05	841.14
506.41	850.81
506.78	860.36
507.14	870.21
507.50	880.33
507.86	890.55
508.22	900.12
508.59	909.14
508.95	919.69
509.31	931.52
509.67	942.10
510.03	952.12
510.39	962.33
510.75	972.62
511.12	982.71
511.48	992.76
511.84	1001.62
512.20	1011.02
512.56	1020.74
512.92	1030.83
513.28	1039.93
513.64	1049.45
514.00	1058.79
514.37	1069.21
514.73	1079.55
515.09	1088.69
515.45	1097.36
515.81	1106.88
516.17	1116.76
516.53	1125.36
516.89	1132.52
517.25	1140.95
517.61	1150.26
517.97	1158.38
518.33	1166.81
518.69	1175.81
519.05	1183.64
519.41	1192.76
519.77	1202.05
520.13	1209.64
520.49	1216.69
520.85	1223.43
521.21	1230.71
521.57	1238.45
521.93	1244.83
522.29	1251.90
522.65	1257.81
523.01	1264.81
523.37	1271.26
523.73	1277.64
524.09	1283.36
524.45	1289.31
524.81	1294.98
525.17	1300.60
525.53	1306.14
525.89	1312.10
526.25	1318.05
526.61	1323.55
526.97	1327.14
527.33	1330.33
527.68	1336.67
528.04	1341.83
528.40	1346.86
528.76	1350.79
529.12	1355.31
529.48	1360.17
529.84	1363.64
530.20	1368.14
530.56	1371.98
530.91	1375.95
531.27	1379.17
531.63	1383.33
531.99	1385.62
532.35	1389.00
532.71	1390.93
533.07	1394.26
533.42	1399.93
533.78	1401.86
534.14	1405.90
534.50	1409.31
534.86	1413.67
535.21	1414.33
535.57	1417.62
535.93	1420.52
536.29	1424.69
536.65	1427.50
537.00	1429.83
537.36	1432.50
537.72	1434.83
538.08	1437.36
538.44	1438.81
538.79	1441.05
539.15	1442.24
539.51	1445.57
539.87	1447.95
540.22	1450.24
540.58	1452.17
540.94	1451.64
541.29	1453.33
541.65	1452.50
542.01	1454.02
542.37	1453.29
542.72	1453.29
543.08	1452.69
543.44	1453.12
543.79	1451.12
544.15	1450.88
544.51	1452.24
544.87	1452.95
545.22	1452.95
545.58	1452.67
545.94	1452.93
546.29	1452.02
546.65	1452.52
547.01	1451.45
547.36	1450.60
547.72	1450.31
548.07	1448.93
548.43	1446.90
548.79	1445.24
549.14	1444.79
549.50	1443.36
549.86	1441.52
550.21	1441.52
550.57	1440.50
550.92	1438.71
551.28	1437.98
551.64	1436.10
551.99	1433.86
552.35	1432.10
552.70	1430.88
553.06	1429.67
553.41	1428.29
553.77	1428.48
554.13	1427.12
554.48	1426.57
554.84	1425.83
555.19	1423.86
555.55	1424.19
555.90	1423.07
556.26	1422.00
556.61	1421.07
556.97	1419.69
557.32	1419.05
557.68	1418.02
558.03	1416.71
558.39	1415.17
558.74	1413.69
559.10	1412.71
559.45	1410.95
559.81	1408.71
560.16	1406.24
560.52	1404.57
560.87	1403.31
561.23	1400.31
561.58	1399.48
561.94	1396.71
562.29	1394.31
562.64	1393.76
563.00	1389.88
563.35	1387.71
563.71	1385.43
564.06	1383.86
564.42	1382.24
564.77	1381.38
565.12	1380.07
565.48	1380.50
565.83	1379.83
566.19	1379.62
566.54	1377.36
566.89	1374.71
567.25	1373.74
567.60	1374.10
567.96	1373.93
568.31	1373.31
568.66	1372.86
569.02	1369.90
569.37	1368.38
569.72	1367.64
570.08	1365.17
570.43	1363.43
570.78	1361.69
571.14	1360.62
571.49	1358.17
571.84	1356.69
572.20	1353.69
572.55	1351.50
572.90	1347.26
573.26	1344.07
573.61	1340.40
573.96	1338.26
574.31	1335.93
574.67	1332.71
575.02	1328.76
575.37	1323.71
575.72	1318.98
576.08	1315.14
576.43	1312.10
576.78	1308.74
577.13	1304.62
577.49	1301.67
577.84	1299.07
578.19	1295.48
578.54	1292.02
578.90	1288.67
579.25	1284.76
579.60	1280.93
579.95	1276.26
580.30	1272.50
580.66	1269.02
581.01	1264.81
581.36	1260.52
581.71	1256.43
582.06	1254.79
582.42	1250.93
582.77	1247.14
583.12	1243.19
583.47	1239.26
583.82	1235.14
584.17	1231.19
584.53	1228.24
584.88	1224.05
585.23	1220.21
585.58	1215.71
585.93	1210.52
586.28	1207.21
586.63	1203.14
586.98	1200.02
587.34	1197.60
587.69	1193.74
588.04	1189.48
588.39	1185.93
588.74	1181.05
589.09	1177.07
589.44	1170.10
589.79	1165.88
590.14	1161.57
590.49	1157.29
590.84	1152.45
591.19	1148.12
591.54	1143.93
591.89	1138.29
592.25	1135.05
592.60	1129.52
592.95	1125.83
593.30	1122.48
593.65	1117.33
594.00	1112.10
594.35	1113.02
594.70	1107.12
595.05	1102.38
595.40	1097.57
595.75	1092.79
596.10	1089.07
596.45	1085.14
596.80	1081.81
597.15	1077.19
597.50	1071.93
597.85	1068.55
598.19	1064.36
598.54	1059.57
598.89	1055.52
599.24	1051.60
599.59	1045.81
599.94	1041.76
600.29	1037.31
600.64	1032.33
600.99	1028.60
601.34	1024.88
601.69	1014.38
602.04	1009.38
602.39	1004.79
602.74	1001.48
603.08	996.76
603.43	993.71
603.78	989.55
604.13	984.05
604.48	979.33
604.83	976.05
605.18	971.36
605.53	967.36
605.87	963.40
606.22	958.50
606.57	954.05
606.92	949.19
607.27	945.17
607.62	940.98
607.96	937.10
608.31	932.52
608.66	928.19
609.01	924.14
609.36	920.57
609.70	916.21
610.05	910.90
610.40	907.71
610.75	902.81
611.10	898.36
611.44	894.67
611.79	891.33
612.14	887.43
612.49	881.88
612.83	876.62
613.18	872.31
613.53	867.62
613.88	862.57
614.22	858.31
614.57	853.50
614.92	848.76
615.27	844.14
615.61	839.17
615.96	834.31
616.31	829.71
616.65	825.45
617.00	821.43
617.35	817.69
617.70	811.95
618.04	807.00
618.39	802.33
618.74	798.07
619.08	793.10
619.43	788.52
619.78	784.67
620.12	780.60
620.47	776.71
620.82	772.86
621.16	768.79
621.51	765.67
621.85	761.45
622.20	757.57
622.55	753.38
622.89	749.48
623.24	746.52
623.59	742.79
623.93	739.02
624.28	735.40
624.62	733.43
624.97	731.93
625.32	728.60
625.66	724.71
626.01	720.83
626.35	717.40
626.70	713.90
627.04	711.10
627.39	707.76
627.73	704.74
628.08	701.38
628.43	697.95
628.77	694.12
629.12	691.02
629.46	688.76
629.81	685.19
630.15	681.57
630.50	677.07
630.84	673.33
631.19	669.83
631.53	665.79
631.88	659.88
632.22	654.90
632.57	651.83
632.91	648.57
633.26	645.45
633.60	641.31
633.95	637.76
634.29	633.67
634.64	630.88
634.98	626.43
635.32	624.10
635.67	621.40
636.01	617.48
636.36	614.38
636.70	610.67
637.05	607.79
637.39	604.83
637.73	601.48
638.08	599.24
638.42	595.90
638.77	593.36
639.11	590.67
639.45	588.02
639.80	584.14
640.14	581.55
640.49	577.93
640.83	575.00
641.17	571.88
641.52	569.05
641.86	565.60
642.20	563.76
642.55	559.98
642.89	556.79
643.23	554.33
643.58	551.45
643.92	547.88
644.26	544.71
644.61	542.17
644.95	539.60
645.29	535.86
645.64	533.40
645.98	530.50
646.32	527.74
646.66	524.36
647.01	522.19
647.35	519.36
647.69	517.21
648.04	514.74
648.38	512.36
648.72	509.62
649.06	506.74
649.41	503.31
649.75	500.55
650.09	498.05
650.43	495.48
650.78	492.60
651.12	489.71
651.46	487.17
651.80	484.31
652.14	481.95
652.49	480.29
652.83	477.64
653.17	475.05
653.51	472.24
653.85	470.38
654.20	467.71
654.54	464.76
654.88	462.07
655.22	461.07
655.56	458.50
655.90	456.00
656.25	454.40
656.59	452.36
656.93	450.12
657.27	448.48
657.61	445.62
657.95	443.55
658.29	441.48
658.64	439.93
658.98	437.69
659.32	435.45
659.66	433.00
660.00	430.83
660.34	428.76
660.68	426.98
661.02	424.69
661.36	422.62
661.70	420.95
662.05	418.98
662.39	416.36
662.73	415.36
663.07	414.74
663.41	412.69
663.75	410.50
664.09	408.55
664.43	405.88
664.77	404.50
665.11	402.43
665.45	400.93
665.79	399.26
666.13	397.24
666.47	395.55
666.81	393.45
667.15	391.76
667.49	390.29
667.83	389.43
668.17	387.60
668.51	385.86
668.85	384.81
669.19	384.33
669.53	382.12
669.87	379.64
670.21	377.19
670.55	375.64
670.89	375.17
671.23	373.74
671.57	372.81
671.91	371.62
672.25	370.50
672.58	369.95
672.92	367.76
673.26	366.50
673.60	364.95
673.94	363.71
674.28	362.45
674.62	361.38
674.96	359.36
675.30	358.52
675.64	357.45
675.97	355.93
676.31	353.81
676.65	352.81
676.99	352.40
677.33	350.83
677.67	349.43
678.01	346.76
678.34	345.67
678.68	344.67
679.02	343.14
679.36	341.71
679.70	339.50
680.04	338.60
680.37	337.40
680.71	336.10
681.05	335.17
681.39	333.86
681.73	332.17
682.06	331.07
682.40	329.76
682.74	328.93
683.08	328.24
683.42	326.90
683.75	326.21
684.09	324.38
684.43	323.60
684.77	322.36
685.10	322.05
685.44	320.81
685.78	319.36
686.12	318.43
686.45	317.50
686.79	316.57
687.13	315.69
687.46	314.55
687.80	314.48
688.14	313.50
688.48	312.74
688.81	312.14
689.15	311.76
689.49	310.48
689.82	309.45
690.16	307.76
690.50	307.00
690.83	305.52
691.17	304.45
691.51	303.64
691.84	302.95
692.18	301.90
692.52	301.31
692.85	300.76
693.19	300.71
693.52	299.71
693.86	298.98
694.20	298.07
694.53	297.64
694.87	296.26
695.21	295.05
695.54	294.19
695.88	293.07
696.21	291.38
696.55	290.83
696.88	289.88
697.22	288.76
697.56	287.90
697.89	287.21
698.23	286.86
698.56	285.81
698.90	284.90
699.23	284.02
699.57	283.14
699.90	281.83
700.24	280.31
700.58	279.74
700.91	279.19
701.25	280.05
701.58	279.79
701.92	279.62
702.25	278.95
702.59	278.14
702.92	277.48
703.26	277.26
703.59	276.57
703.93	277.67
704.26	277.69
704.60	277.50
704.93	276.90
705.26	276.12
705.60	276.02
705.93	275.36
706.27	275.33
706.60	275.29
706.94	275.71
707.27	275.05
707.61	274.67
707.94	273.93
708.27	271.76
708.61	270.26
708.94	269.31
709.28	269.07
709.61	268.36
709.94	267.98
710.28	267.24
710.61	266.71
710.95	264.50
711.28	265.36
711.61	264.52
711.95	264.43
712.28	263.71
712.61	262.88
712.95	263.48
713.28	263.62
713.61	262.79
713.95	261.43
714.28	260.95
714.61	260.12
714.95	259.62
715.28	258.98
715.61	258.79
715.95	258.74
716.28	258.14
716.61	257.93
716.95	257.12
717.28	256.83
717.61	256.55
717.94	255.90
718.28	253.86
718.61	253.40
718.94	252.40
719.27	252.00
719.61	251.69
719.94	250.76
720.27	249.33
720.60	248.79
720.94	248.52
721.27	248.29
721.60	248.71
721.93	248.14
722.27	248.43
722.60	248.45
722.93	247.50
723.26	247.26
723.59	246.60
723.93	246.69
724.26	246.31
724.59	245.67
724.92	245.60
725.25	246.07
725.59	245.76
725.92	245.69
726.25	245.48
726.58	245.17
726.91	244.79
727.24	244.64
727.57	244.43
727.91	244.00
728.24	243.95
728.57	242.81
728.90	242.98
729.23	242.05
729.56	242.60
729.89	242.52
730.22	242.12
730.55	241.98
730.89	241.71
731.22	241.43
731.55	241.24
731.88	240.90
732.21	239.93
732.54	239.38
732.87	239.14
733.20	238.93
733.53	238.83
733.86	238.74
734.19	238.29
734.52	238.17
734.85	239.14
735.18	238.57
735.51	239.24
735.84	238.95
736.17	239.24
736.50	237.90
736.83	239.90
737.16	239.74
737.49	239.76
737.82	239.48
738.15	239.74
738.48	239.55
738.81	239.38
739.14	239.12
739.47	239.26
739.80	239.12
740.13	239.12
740.46	238.52
740.79	237.71
741.12	237.50
741.45	236.88
741.78	235.52
742.11	236.10
742.44	235.50
742.77	235.50
743.10	235.00
743.43	234.67
743.75	232.48
744.08	234.67
744.41	234.10
744.74	233.76
745.07	232.83
745.40	232.93
745.73	233.45
746.06	233.10
746.39	232.86
746.71	232.52
747.04	231.93
747.37	231.79
747.70	232.26
748.03	232.21
748.36	232.60
748.68	232.52
749.01	231.64
749.34	231.50
749.67	231.26
750.00	231.38
750.33	232.74
750.65	232.81
750.98	230.52
751.31	230.62
751.64	230.50
751.97	231.71
752.29	231.26
752.62	230.10
752.95	230.17
753.28	229.86
753.60	229.60
753.93	230.17
754.26	230.19
754.59	229.40
754.91	229.19
755.24	228.69
755.57	228.62
755.90	228.29
756.22	227.95
756.55	227.57
756.88	227.02
757.20	225.76
757.53	225.02
757.86	224.74
758.19	224.57
758.51	224.43
758.84	223.17
759.17	223.00
759.49	223.21
759.82	224.05
760.15	224.19
760.47	224.12
760.80	223.45
761.13	223.71
761.45	223.74
761.78	223.64
762.11	223.48
762.43	223.21
762.76	223.14
763.08	223.38
763.41	223.36
763.74	223.57
764.06	223.33
764.39	223.43
764.71	223.19
765.04	222.93
765.37	222.79
765.69	222.74
766.02	222.71
766.34	222.33
766.67	221.55
767.00	221.88
767.32	222.76
767.65	223.93
767.97	223.74
768.30	223.71
768.62	223.67
768.95	223.38
769.27	223.33
769.60	223.62
769.92	223.17
770.25	222.95
770.57	222.45
770.90	222.38
771.22	222.17
771.55	222.14
771.87	222.10
772.20	222.07
772.52	223.76
772.85	226.10
773.17	226.38
773.50	226.05
773.82	225.62
774.15	224.67
774.47	223.07
774.80	222.71
775.12	222.71
775.45	222.43
775.77	222.64
776.09	222.81
776.42	222.67
776.74	223.12
777.07	223.02
777.39	223.10
777.72	222.93
778.04	222.90
778.36	222.57
778.69	222.79
779.01	222.79
779.33	220.86
779.66	218.57
779.98	218.14
780.31	218.19
780.63	218.83
780.95	219.10
781.28	219.31
781.60	219.17
781.92	218.81
782.25	218.83
782.57	218.86
782.89	218.17
783.22	217.95
783.54	217.57
783.86	217.38
784.19	217.02
784.51	217.76
784.83	217.60
785.16	217.74
785.48	217.52
785.80	217.33
786.12	217.57
786.45	217.29
786.77	217.48
787.09	217.31
787.42	216.69
787.74	216.60
788.06	216.60
