SpectraSuite Data File
++++++++++++++++++++++++++++++++++++
Date: Tue Apr 02 18:44:34 EDT 2013
User: group
Dark Spectrum Present: No
Reference Spectrum Present: No
Number of Sampled Component Spectra: 1
Spectrometers: USB2E7196
Integration Time (usec): 580000 (USB2E7196)
Spectra Averaged: 2 (USB2E7196)
Boxcar Smoothing: 10 (USB2E7196)
Correct for Electrical Dark: No (USB2E7196)
Strobe/Lamp Enabled: No (USB2E7196)
Correct for Detector Non-linearity: No (USB2E7196)
Correct for Stray Light: No (USB2E7196)
Number of Pixels in Processed Spectrum: 2048
>>>>>Begin Processed Spectral Data<<<<<
339.09	0.00
339.48	193.00
339.86	191.00
340.24	196.50
340.63	195.50
341.01	233.00
341.39	200.00
341.78	203.00
342.16	207.50
342.54	202.50
342.93	196.93
343.31	206.93
343.69	207.67
344.07	208.48
344.46	209.19
344.84	209.88
345.22	208.50
345.60	208.98
345.99	209.62
346.37	209.90
346.75	210.19
347.13	210.43
347.52	210.38
347.90	211.21
348.28	211.02
348.66	211.45
349.05	211.17
349.43	211.60
349.81	212.26
350.19	212.43
350.57	212.57
350.96	212.95
351.34	213.00
351.72	213.00
352.10	213.17
352.48	213.14
352.87	213.21
353.25	213.45
353.63	213.43
354.01	213.12
354.39	213.14
354.77	213.19
355.15	213.52
355.54	213.62
355.92	212.88
356.30	213.24
356.68	214.60
357.06	214.79
357.44	214.43
357.82	214.07
358.20	214.95
358.58	215.05
358.97	215.05
359.35	215.62
359.73	216.02
360.11	215.98
360.49	216.26
360.87	216.24
361.25	216.50
361.63	217.43
362.01	217.60
362.39	217.33
362.77	217.52
363.15	217.50
363.53	217.62
363.91	217.74
364.29	217.50
364.67	215.45
365.05	215.17
365.43	215.26
365.81	215.26
366.19	215.38
366.57	216.26
366.95	215.90
367.33	215.31
367.71	215.29
368.09	215.67
368.47	215.43
368.85	215.40
369.23	216.05
369.61	215.17
369.99	215.93
370.37	216.57
370.75	217.50
371.13	217.12
371.51	216.55
371.89	216.83
372.27	217.02
372.65	217.17
373.03	217.31
373.41	217.14
373.78	217.14
374.16	216.02
374.54	215.14
374.92	215.12
375.30	214.93
375.68	214.43
376.06	214.50
376.44	214.45
376.82	214.40
377.19	213.98
377.57	213.64
377.95	212.86
378.33	212.48
378.71	211.26
379.09	211.48
379.47	211.74
379.84	211.38
380.22	211.14
380.60	210.83
380.98	211.02
381.36	211.00
381.73	210.76
382.11	211.14
382.49	211.38
382.87	211.31
383.25	211.48
383.62	214.07
384.00	213.57
384.38	213.50
384.76	214.12
385.13	215.05
385.51	215.17
385.89	215.02
386.27	215.02
386.64	215.24
387.02	215.17
387.40	215.14
387.78	215.43
388.15	215.69
388.53	215.74
388.91	215.55
389.29	215.57
389.66	215.98
390.04	215.67
390.42	215.98
390.79	216.36
391.17	216.38
391.55	214.07
391.92	214.07
392.30	214.60
392.68	214.07
393.05	213.57
393.43	213.83
393.81	213.95
394.18	213.62
394.56	213.81
394.94	214.10
395.31	214.00
395.69	214.57
396.06	214.88
396.44	215.12
396.82	214.90
397.19	216.14
397.57	215.81
397.95	216.38
398.32	215.74
398.70	215.76
399.07	216.29
399.45	216.21
399.82	216.40
400.20	215.90
400.58	215.81
400.95	215.05
401.33	215.48
401.70	216.71
402.08	217.17
402.45	217.21
402.83	217.69
403.20	217.93
403.58	217.69
403.95	218.10
404.33	218.57
404.71	218.83
405.08	219.76
405.46	220.17
405.83	220.45
406.21	220.93
406.58	221.36
406.96	221.64
407.33	222.05
407.70	222.81
408.08	225.12
408.45	226.19
408.83	227.55
409.20	228.02
409.58	227.81
409.95	228.74
410.33	229.57
410.70	230.17
411.08	231.55
411.45	232.74
411.82	233.38
412.20	235.02
412.57	237.52
412.95	237.33
413.32	239.36
413.69	240.64
414.07	242.43
414.44	244.26
414.82	246.19
415.19	248.64
415.56	250.81
415.94	251.88
416.31	254.55
416.68	257.43
417.06	260.62
417.43	264.12
417.81	267.64
418.18	271.52
418.55	274.98
418.93	278.55
419.30	282.55
419.67	287.12
420.04	291.33
420.42	295.79
420.79	302.83
421.16	308.21
421.54	314.95
421.91	321.02
422.28	327.12
422.66	333.69
423.03	341.67
423.40	348.12
423.77	354.95
424.15	361.93
424.52	369.07
424.89	377.86
425.26	385.69
425.64	392.98
426.01	401.07
426.38	410.14
426.75	419.64
427.13	429.43
427.50	438.98
427.87	448.86
428.24	458.90
428.61	467.10
428.99	478.29
429.36	488.62
429.73	499.90
430.10	511.33
430.47	522.86
430.85	532.98
431.22	545.71
431.59	560.86
431.96	573.76
432.33	587.90
432.70	600.90
433.08	616.57
433.45	631.93
433.82	647.48
434.19	664.62
434.56	681.10
434.93	696.07
435.30	711.90
435.68	728.86
436.05	745.62
436.42	762.45
436.79	777.86
437.16	794.88
437.53	813.07
437.90	830.21
438.27	847.88
438.64	866.79
439.01	884.50
439.38	898.93
439.75	913.33
440.13	929.90
440.50	945.67
440.87	958.21
441.24	971.33
441.61	985.79
441.98	996.10
442.35	1008.38
442.72	1021.24
443.09	1035.50
443.46	1043.52
443.83	1048.90
444.20	1053.60
444.57	1059.64
444.94	1062.64
445.31	1065.43
445.68	1071.55
446.05	1073.07
446.42	1071.12
446.79	1069.38
447.16	1067.14
447.53	1066.60
447.90	1060.69
448.27	1055.02
448.64	1046.60
449.01	1040.71
449.37	1029.55
449.74	1018.76
450.11	1007.71
450.48	993.21
450.85	976.38
451.22	963.81
451.59	951.19
451.96	939.38
452.33	924.07
452.70	910.55
453.07	893.14
453.43	873.76
453.80	857.52
454.17	841.64
454.54	826.12
454.91	809.55
455.28	793.64
455.65	778.36
456.02	766.64
456.38	754.26
456.75	738.76
457.12	725.52
457.49	712.36
457.86	697.95
458.23	688.17
458.59	676.57
458.96	664.67
459.33	654.64
459.70	645.07
460.07	636.64
460.43	626.93
460.80	618.79
461.17	611.24
461.54	603.10
461.91	595.64
462.27	587.29
462.64	580.26
463.01	572.79
463.38	566.40
463.74	555.26
464.11	548.48
464.48	542.67
464.85	536.29
465.21	532.12
465.58	526.95
465.95	520.10
466.32	515.29
466.68	510.26
467.05	505.71
467.42	500.07
467.78	494.76
468.15	489.50
468.52	485.79
468.88	480.17
469.25	475.24
469.62	472.10
469.98	468.36
470.35	464.90
470.72	461.07
471.08	456.50
471.45	454.05
471.82	451.74
472.18	448.31
472.55	445.86
472.92	442.48
473.28	439.71
473.65	437.07
474.02	434.24
474.38	431.98
474.75	429.90
475.11	427.79
475.48	426.50
475.85	425.21
476.21	423.50
476.58	422.48
476.94	421.14
477.31	419.64
477.67	418.38
478.04	417.50
478.41	416.93
478.77	418.26
479.14	416.93
479.50	416.17
479.87	416.14
480.23	415.79
480.60	415.43
480.96	415.21
481.33	416.10
481.69	416.05
482.06	416.19
482.42	416.38
482.79	416.62
483.15	416.67
483.52	417.45
483.88	417.90
484.25	418.62
484.61	419.67
484.98	420.55
485.34	422.50
485.71	423.67
486.07	424.74
486.44	424.33
486.80	425.88
487.17	427.02
487.53	429.00
487.90	431.12
488.26	434.14
488.62	436.71
488.99	438.83
489.35	441.55
489.72	444.36
490.08	446.67
490.44	449.60
490.81	452.93
491.17	455.95
491.54	459.90
491.90	463.33
492.26	466.93
492.63	470.50
492.99	473.81
493.36	477.74
493.72	482.50
494.08	486.98
494.45	492.31
494.81	497.38
495.17	501.98
495.54	507.05
495.90	511.60
496.26	517.05
496.63	522.17
496.99	527.64
497.35	533.24
497.72	539.62
498.08	545.45
498.44	551.36
498.80	557.60
499.17	563.19
499.53	569.57
499.89	575.74
500.26	582.48
500.62	588.79
500.98	596.38
501.34	602.88
501.71	610.26
502.07	616.71
502.43	623.50
502.79	630.02
503.16	637.33
503.52	644.17
503.88	650.62
504.24	658.21
504.60	665.76
504.97	673.86
505.33	681.36
505.69	690.14
506.05	697.90
506.41	705.74
506.78	713.90
507.14	721.55
507.50	730.17
507.86	737.98
508.22	745.81
508.59	753.12
508.95	761.45
509.31	770.02
509.67	777.95
510.03	785.50
510.39	794.07
510.75	801.71
511.12	809.21
511.48	817.05
511.84	824.71
512.20	832.38
512.56	839.71
512.92	847.21
513.28	853.88
513.64	861.79
514.00	868.71
514.37	875.57
514.73	882.48
515.09	889.26
515.45	896.57
515.81	904.07
516.17	910.55
516.53	916.67
516.89	921.90
517.25	928.33
517.61	935.69
517.97	941.19
518.33	947.45
518.69	954.31
519.05	960.79
519.41	966.24
519.77	973.52
520.13	979.55
520.49	984.67
520.85	990.95
521.21	996.62
521.57	1003.67
521.93	1008.81
522.29	1014.52
522.65	1019.52
523.01	1024.07
523.37	1029.45
523.73	1034.74
524.09	1039.86
524.45	1044.74
524.81	1050.00
525.17	1054.67
525.53	1060.00
525.89	1064.50
526.25	1070.02
526.61	1074.14
526.97	1079.00
527.33	1082.36
527.68	1088.12
528.04	1092.83
528.40	1096.64
528.76	1100.29
529.12	1103.93
529.48	1108.93
529.84	1113.10
530.20	1117.86
530.56	1122.86
530.91	1127.00
531.27	1131.26
531.63	1135.95
531.99	1139.76
532.35	1143.62
532.71	1147.21
533.07	1151.93
533.42	1157.93
533.78	1161.17
534.14	1166.40
534.50	1170.71
534.86	1175.24
535.21	1177.52
535.57	1182.12
535.93	1185.71
536.29	1190.71
536.65	1194.10
537.00	1198.02
537.36	1201.88
537.72	1204.90
538.08	1208.21
538.44	1211.10
538.79	1214.76
539.15	1216.93
539.51	1221.29
539.87	1224.02
540.22	1227.12
540.58	1230.31
540.94	1231.69
541.29	1235.12
541.65	1236.45
542.01	1239.07
542.37	1241.17
542.72	1242.90
543.08	1244.00
543.44	1247.31
543.79	1248.33
544.15	1250.95
544.51	1254.12
544.87	1257.14
545.22	1259.81
545.58	1261.93
545.94	1263.90
546.29	1266.52
546.65	1269.71
547.01	1272.02
547.36	1275.05
547.72	1277.67
548.07	1279.62
548.43	1282.12
548.79	1283.69
549.14	1286.64
549.50	1289.52
549.86	1291.45
550.21	1295.02
550.57	1299.45
550.92	1301.64
551.28	1304.79
551.64	1307.81
551.99	1309.43
552.35	1312.07
552.70	1315.00
553.06	1318.48
553.41	1322.07
553.77	1326.31
554.13	1329.74
554.48	1334.00
554.84	1338.29
555.19	1342.62
555.55	1347.76
555.90	1351.43
556.26	1355.40
556.61	1359.64
556.97	1362.14
557.32	1366.62
557.68	1370.67
558.03	1373.62
558.39	1376.74
558.74	1380.60
559.10	1384.50
559.45	1388.40
559.81	1392.88
560.16	1397.31
560.52	1402.00
560.87	1407.52
561.23	1410.55
561.58	1416.38
561.94	1419.93
562.29	1423.95
562.64	1428.67
563.00	1432.21
563.35	1437.24
563.71	1442.83
564.06	1447.60
564.42	1454.29
564.77	1459.74
565.12	1465.74
565.48	1473.31
565.83	1480.38
566.19	1486.29
566.54	1491.43
566.89	1497.76
567.25	1503.88
567.60	1511.48
567.96	1518.71
568.31	1525.05
568.66	1531.48
569.02	1535.93
569.37	1542.40
569.72	1548.17
570.08	1552.88
570.43	1557.48
570.78	1563.19
571.14	1568.29
571.49	1573.90
571.84	1579.67
572.20	1583.62
572.55	1588.81
572.90	1591.95
573.26	1596.38
573.61	1601.29
573.96	1607.17
574.31	1611.74
574.67	1616.05
575.02	1619.43
575.37	1621.38
575.72	1623.74
576.08	1627.36
576.43	1630.98
576.78	1634.07
577.13	1638.69
577.49	1642.81
577.84	1647.93
578.19	1651.17
578.54	1655.43
578.90	1659.48
579.25	1661.62
579.60	1666.71
579.95	1669.67
580.30	1672.95
580.66	1677.07
581.01	1681.26
581.36	1683.52
581.71	1686.50
582.06	1690.14
582.42	1693.00
582.77	1696.81
583.12	1700.33
583.47	1703.81
583.82	1707.50
584.17	1709.62
584.53	1712.21
584.88	1715.67
585.23	1718.83
585.58	1721.98
585.93	1724.21
586.28	1726.50
586.63	1729.45
586.98	1731.38
587.34	1734.81
587.69	1737.31
588.04	1739.10
588.39	1741.17
588.74	1742.55
589.09	1745.50
589.44	1746.36
589.79	1748.79
590.14	1750.60
590.49	1752.50
590.84	1754.00
591.19	1755.95
591.54	1757.64
591.89	1758.07
592.25	1760.19
592.60	1760.24
592.95	1761.95
593.30	1764.26
593.65	1765.55
594.00	1765.95
594.35	1773.36
594.70	1772.62
595.05	1774.43
595.40	1775.26
595.75	1775.52
596.10	1777.21
596.45	1777.60
596.80	1778.26
597.15	1778.95
597.50	1778.93
597.85	1780.48
598.19	1780.81
598.54	1781.12
598.89	1781.67
599.24	1783.86
599.59	1783.00
599.94	1783.69
600.29	1783.24
600.64	1782.26
600.99	1781.83
601.34	1783.55
601.69	1777.38
602.04	1777.52
602.39	1777.02
602.74	1777.02
603.08	1776.38
603.43	1777.21
603.78	1777.05
604.13	1777.31
604.48	1775.69
604.83	1775.67
605.18	1774.24
605.53	1774.38
605.87	1772.43
606.22	1772.50
606.57	1770.31
606.92	1769.36
607.27	1768.83
607.62	1768.90
607.96	1768.86
608.31	1769.10
608.66	1767.76
609.01	1766.98
609.36	1766.79
609.70	1764.55
610.05	1762.38
610.40	1761.38
610.75	1759.05
611.10	1757.02
611.44	1754.48
611.79	1753.36
612.14	1751.21
612.49	1748.48
612.83	1744.88
613.18	1743.10
613.53	1739.71
613.88	1735.81
614.22	1732.81
614.57	1728.71
614.92	1723.88
615.27	1720.26
615.61	1715.43
615.96	1711.17
616.31	1707.43
616.65	1704.86
617.00	1702.64
617.35	1700.17
617.70	1696.21
618.04	1691.60
618.39	1688.00
618.74	1684.31
619.08	1679.69
619.43	1676.12
619.78	1673.36
620.12	1670.05
620.47	1666.79
620.82	1663.00
621.16	1659.12
621.51	1656.36
621.85	1651.88
622.20	1648.76
622.55	1643.52
622.89	1640.95
623.24	1638.24
623.59	1634.31
623.93	1629.43
624.28	1625.43
624.62	1622.64
624.97	1619.50
625.32	1616.79
625.66	1612.98
626.01	1608.67
626.35	1605.83
626.70	1601.90
627.04	1597.76
627.39	1593.74
627.73	1590.38
628.08	1587.48
628.43	1584.71
628.77	1580.10
629.12	1578.19
629.46	1574.40
629.81	1570.95
630.15	1566.52
630.50	1561.64
630.84	1556.33
631.19	1551.36
631.53	1546.69
631.88	1539.57
632.22	1533.26
632.57	1528.93
632.91	1523.71
633.26	1520.17
633.60	1513.81
633.95	1508.50
634.29	1503.21
634.64	1498.88
634.98	1493.07
635.32	1487.83
635.67	1483.33
636.01	1479.02
636.36	1473.45
636.70	1469.33
637.05	1464.76
637.39	1460.00
637.73	1455.21
638.08	1451.83
638.42	1447.12
638.77	1442.50
639.11	1438.10
639.45	1433.88
639.80	1428.43
640.14	1423.21
640.49	1418.26
640.83	1413.19
641.17	1408.69
641.52	1404.02
641.86	1399.19
642.20	1394.79
642.55	1389.57
642.89	1384.14
643.23	1377.93
643.58	1372.81
643.92	1366.02
644.26	1360.60
644.61	1355.05
644.95	1349.69
645.29	1343.19
645.64	1337.83
645.98	1331.69
646.32	1327.71
646.66	1321.79
647.01	1315.14
647.35	1310.88
647.69	1304.52
648.04	1300.36
648.38	1294.14
648.72	1288.05
649.06	1281.40
649.41	1275.05
649.75	1268.76
650.09	1262.36
650.43	1256.60
650.78	1250.48
651.12	1244.95
651.46	1238.52
651.80	1231.88
652.14	1225.19
652.49	1220.02
652.83	1213.00
653.17	1206.21
653.51	1198.90
653.85	1193.00
654.20	1186.33
654.54	1178.40
654.88	1171.60
655.22	1164.88
655.56	1158.07
655.90	1151.98
656.25	1145.38
656.59	1138.93
656.93	1133.17
657.27	1128.29
657.61	1122.24
657.95	1115.93
658.29	1109.38
658.64	1103.95
658.98	1097.48
659.32	1090.55
659.66	1083.74
660.00	1077.64
660.34	1071.36
660.68	1064.71
661.02	1058.24
661.36	1052.74
661.70	1047.26
662.05	1040.88
662.39	1035.02
662.73	1030.10
663.07	1024.83
663.41	1019.38
663.75	1012.90
664.09	1006.83
664.43	999.60
664.77	993.57
665.11	986.76
665.45	981.14
665.79	974.31
666.13	968.29
666.47	962.90
666.81	957.14
667.15	950.88
667.49	946.64
667.83	942.33
668.17	936.60
668.51	931.07
668.85	925.36
669.19	921.10
669.53	914.24
669.87	908.05
670.21	901.40
670.55	895.02
670.89	891.12
671.23	884.90
671.57	879.24
671.91	873.38
672.25	868.21
672.58	863.45
672.92	858.48
673.26	853.79
673.60	848.57
673.94	843.02
674.28	838.48
674.62	832.71
674.96	826.50
675.30	822.24
675.64	817.48
675.97	812.10
676.31	806.40
676.65	802.24
676.99	798.07
677.33	793.05
677.67	788.62
678.01	781.86
678.34	777.48
678.68	773.45
679.02	768.38
679.36	763.57
679.70	757.81
680.04	752.26
680.37	746.95
680.71	742.00
681.05	738.05
681.39	733.17
681.73	728.26
682.06	723.33
682.40	718.62
682.74	714.24
683.08	710.60
683.42	705.48
683.75	700.83
684.09	695.26
684.43	690.50
684.77	685.62
685.10	681.33
685.44	677.00
685.78	672.29
686.12	668.31
686.45	663.88
686.79	659.33
687.13	655.95
687.46	651.69
687.80	648.02
688.14	643.10
688.48	639.24
688.81	634.55
689.15	630.74
689.49	625.93
689.82	621.52
690.16	616.00
690.50	612.12
690.83	607.36
691.17	602.98
691.51	599.33
691.84	595.40
692.18	591.07
692.52	586.95
692.85	582.88
693.19	579.62
693.52	575.55
693.86	571.50
694.20	566.83
694.53	562.67
694.87	557.98
695.21	553.62
695.54	549.57
695.88	545.50
696.21	540.74
696.55	536.83
696.88	532.76
697.22	529.64
697.56	526.26
697.89	522.62
698.23	519.55
698.56	515.79
698.90	512.48
699.23	509.12
699.57	505.26
699.90	501.31
700.24	496.52
700.58	493.19
700.91	490.14
701.25	488.55
701.58	486.05
701.92	483.52
702.25	480.62
702.59	477.26
702.92	474.12
703.26	471.26
703.59	468.26
703.93	467.10
704.26	463.95
704.60	461.02
704.93	458.02
705.26	455.00
705.60	452.45
705.93	449.00
706.27	447.07
706.60	445.05
706.94	443.36
707.27	440.62
707.61	438.24
707.94	435.40
708.27	430.95
708.61	427.76
708.94	425.17
709.28	422.90
709.61	420.05
709.94	418.10
710.28	415.98
710.61	413.62
710.95	409.21
711.28	408.19
711.61	405.50
711.95	403.74
712.28	401.00
712.61	398.10
712.95	396.88
713.28	395.26
713.61	392.38
713.95	389.64
714.28	387.81
714.61	385.57
714.95	383.52
715.28	381.52
715.61	379.40
715.95	377.21
716.28	375.02
716.61	373.62
716.95	371.17
717.28	369.07
717.61	367.19
717.94	365.36
718.28	361.98
718.61	360.17
718.94	358.00
719.27	356.40
719.61	354.83
719.94	352.81
720.27	349.93
720.60	348.12
720.94	346.14
721.27	344.64
721.60	343.43
721.93	341.67
722.27	340.98
722.60	339.26
722.93	337.31
723.26	335.93
723.59	333.95
723.93	332.67
724.26	331.19
724.59	329.43
724.92	327.98
725.25	327.45
725.59	325.93
725.92	325.00
726.25	323.62
726.58	322.36
726.91	320.74
727.24	319.69
727.57	318.67
727.91	317.14
728.24	315.74
728.57	314.12
728.90	313.48
729.23	311.31
729.56	311.40
729.89	310.45
730.22	309.00
730.55	307.88
730.89	306.93
731.22	306.10
731.55	305.07
731.88	304.33
732.21	302.62
732.54	301.40
732.87	300.14
733.20	299.05
733.53	298.07
733.86	297.69
734.19	296.40
734.52	295.71
734.85	296.29
735.18	295.38
735.51	295.12
735.84	294.00
736.17	293.74
736.50	291.57
736.83	293.05
737.16	292.40
737.49	291.71
737.82	290.86
738.15	290.02
738.48	289.45
738.81	288.31
739.14	287.36
739.47	286.62
739.80	285.79
740.13	285.26
740.46	284.10
740.79	282.83
741.12	282.14
741.45	280.74
741.78	278.98
742.11	278.79
742.44	277.31
742.77	276.74
743.10	275.55
743.43	274.90
743.75	272.05
744.08	273.88
744.41	272.76
744.74	272.00
745.07	270.86
745.40	270.14
745.73	270.64
746.06	269.90
746.39	269.48
746.71	268.40
747.04	267.57
747.37	266.86
747.70	266.55
748.03	265.83
748.36	265.90
748.68	265.12
749.01	263.81
749.34	263.19
749.67	262.31
750.00	262.38
750.33	263.38
750.65	263.12
750.98	259.88
751.31	259.60
751.64	259.02
751.97	259.67
752.29	259.24
752.62	257.29
752.95	256.74
753.28	255.93
753.60	255.45
753.93	255.43
754.26	255.19
754.59	254.00
754.91	253.43
755.24	252.50
755.57	252.02
755.90	251.36
756.22	250.90
756.55	250.40
756.88	249.29
757.20	247.43
757.53	246.29
757.86	246.17
758.19	245.79
758.51	244.95
758.84	243.26
759.17	242.57
759.49	242.33
759.82	243.02
760.15	242.93
760.47	242.71
760.80	241.74
761.13	241.67
761.45	241.12
761.78	241.05
762.11	240.83
762.43	240.17
762.76	239.90
763.08	239.83
763.41	239.60
763.74	239.24
764.06	239.10
764.39	238.95
764.71	238.31
765.04	237.71
765.37	237.43
765.69	237.19
766.02	236.76
766.34	236.45
766.67	235.33
767.00	235.31
767.32	236.07
767.65	237.10
767.97	236.69
768.30	236.88
768.62	236.48
768.95	235.93
769.27	235.60
769.60	235.81
769.92	235.14
770.25	234.52
770.57	234.14
770.90	233.50
771.22	233.05
771.55	232.95
771.87	233.02
772.20	232.79
772.52	234.38
772.85	236.62
773.17	236.60
773.50	236.36
773.82	235.71
774.15	234.55
774.47	233.14
774.80	232.57
775.12	232.29
775.45	231.83
775.77	231.98
776.09	232.26
776.42	231.95
776.74	232.45
777.07	232.17
777.39	232.00
777.72	231.69
778.04	231.86
778.36	231.29
778.69	231.10
779.01	231.17
779.33	229.17
779.66	226.81
779.98	226.43
780.31	226.64
780.63	227.40
780.95	227.55
781.28	227.31
781.60	227.10
781.92	226.88
782.25	226.81
782.57	226.50
782.89	226.02
783.22	225.60
783.54	225.00
783.86	225.26
784.19	225.14
784.51	226.00
784.83	225.48
785.16	225.48
