SpectraSuite Data File
++++++++++++++++++++++++++++++++++++
Date: Tue Apr 02 18:42:37 EDT 2013
User: group
Dark Spectrum Present: No
Reference Spectrum Present: No
Number of Sampled Component Spectra: 1
Spectrometers: USB2E7196
Integration Time (usec): 580000 (USB2E7196)
Spectra Averaged: 2 (USB2E7196)
Boxcar Smoothing: 10 (USB2E7196)
Correct for Electrical Dark: No (USB2E7196)
Strobe/Lamp Enabled: No (USB2E7196)
Correct for Detector Non-linearity: No (USB2E7196)
Correct for Stray Light: No (USB2E7196)
Number of Pixels in Processed Spectrum: 2048
>>>>>Begin Processed Spectral Data<<<<<
339.09	0.00
339.48	193.50
339.86	197.00
340.24	199.50
340.63	198.00
341.01	230.50
341.39	204.50
341.78	210.50
342.16	214.50
342.54	206.50
342.93	198.86
343.31	208.52
343.69	209.19
344.07	209.76
344.46	210.38
344.84	211.14
345.22	210.21
345.60	210.60
345.99	210.76
346.37	210.50
346.75	210.48
347.13	210.64
347.52	210.95
347.90	211.45
348.28	211.45
348.66	211.86
349.05	211.29
349.43	211.43
349.81	211.69
350.19	211.71
350.57	212.10
350.96	212.14
351.34	212.60
351.72	212.69
352.10	212.76
352.48	212.38
352.87	212.02
353.25	212.12
353.63	211.98
354.01	211.50
354.39	211.62
354.77	211.69
355.15	211.93
355.54	211.52
355.92	210.83
356.30	210.90
356.68	211.86
357.06	212.07
357.44	211.79
357.82	211.64
358.20	212.43
358.58	212.05
358.97	212.10
359.35	212.52
359.73	212.76
360.11	212.43
360.49	212.60
360.87	212.60
361.25	212.45
361.63	213.07
362.01	213.43
362.39	213.21
362.77	213.29
363.15	213.36
363.53	213.50
363.91	213.57
364.29	213.40
364.67	211.64
365.05	211.64
365.43	211.95
365.81	212.07
366.19	212.17
366.57	213.21
366.95	213.07
367.33	212.43
367.71	212.43
368.09	213.02
368.47	213.26
368.85	213.26
369.23	213.74
369.61	213.05
369.99	213.67
370.37	214.14
370.75	215.19
371.13	214.62
371.51	214.33
371.89	214.50
372.27	214.76
372.65	214.86
373.03	214.71
373.41	214.62
373.78	214.67
374.16	213.62
374.54	212.93
374.92	212.95
375.30	213.02
375.68	212.67
376.06	212.64
376.44	212.33
376.82	212.38
377.19	212.33
377.57	212.40
377.95	211.81
378.33	211.45
378.71	210.26
379.09	210.81
379.47	211.26
379.84	211.36
380.22	211.24
380.60	210.98
380.98	210.83
381.36	210.62
381.73	210.40
382.11	210.88
382.49	211.12
382.87	210.83
383.25	210.88
383.62	213.31
384.00	212.95
384.38	213.17
384.76	213.67
385.13	214.43
385.51	214.36
385.89	214.00
386.27	214.36
386.64	214.88
387.02	214.71
387.40	214.62
387.78	214.60
388.15	214.79
388.53	214.83
388.91	215.07
389.29	214.95
389.66	215.05
390.04	214.67
390.42	214.93
390.79	215.02
391.17	215.02
391.55	212.90
391.92	213.14
392.30	213.26
392.68	212.90
393.05	212.57
393.43	212.64
393.81	213.00
394.18	212.67
394.56	212.67
394.94	213.02
395.31	212.79
395.69	213.38
396.06	213.74
396.44	214.10
396.82	213.90
397.19	214.86
397.57	214.88
397.95	215.14
398.32	214.48
398.70	215.00
399.07	215.48
399.45	215.29
399.82	215.24
400.20	215.07
400.58	215.07
400.95	214.38
401.33	214.95
401.70	216.52
402.08	216.40
402.45	216.33
402.83	216.86
403.20	217.10
403.58	217.05
403.95	217.62
404.33	217.88
404.71	218.31
405.08	219.98
405.46	220.12
405.83	220.52
406.21	220.95
406.58	221.38
406.96	221.38
407.33	221.98
407.70	222.74
408.08	225.00
408.45	225.90
408.83	227.00
409.20	227.48
409.58	226.90
409.95	228.19
410.33	229.19
410.70	229.43
411.08	230.74
411.45	231.60
411.82	232.19
412.20	233.90
412.57	236.17
412.95	235.57
413.32	237.57
413.69	239.21
414.07	240.83
414.44	242.62
414.82	244.83
415.19	247.33
415.56	249.38
415.94	250.67
416.31	253.43
416.68	256.19
417.06	259.50
417.43	263.21
417.81	266.76
418.18	270.40
418.55	274.29
418.93	278.00
419.30	282.19
419.67	286.69
420.04	291.12
420.42	295.60
420.79	303.02
421.16	308.60
421.54	315.69
421.91	321.88
422.28	327.95
422.66	334.43
423.03	342.76
423.40	350.10
423.77	357.36
424.15	364.43
424.52	371.93
424.89	380.43
425.26	387.76
425.64	395.38
426.01	403.95
426.38	412.74
426.75	422.74
427.13	432.57
427.50	442.29
427.87	452.33
428.24	462.10
428.61	470.26
428.99	481.52
429.36	492.62
429.73	504.33
430.10	516.05
430.47	527.95
430.85	538.45
431.22	550.64
431.59	565.50
431.96	578.74
432.33	593.19
432.70	606.79
433.08	623.50
433.45	638.86
433.82	654.02
434.19	671.14
434.56	688.00
434.93	703.90
435.30	720.12
435.68	737.83
436.05	755.52
436.42	772.43
436.79	788.19
437.16	804.74
437.53	822.67
437.90	840.12
438.27	858.14
438.64	876.38
439.01	893.57
439.38	907.07
439.75	921.40
440.13	938.60
440.50	954.67
440.87	966.71
441.24	980.19
441.61	995.24
441.98	1006.29
442.35	1018.76
442.72	1031.38
443.09	1044.50
443.46	1052.33
443.83	1057.31
444.20	1062.52
444.57	1068.62
444.94	1071.88
445.31	1074.98
445.68	1080.33
446.05	1081.95
446.42	1080.21
446.79	1079.48
447.16	1078.12
447.53	1077.64
447.90	1070.67
448.27	1063.83
448.64	1056.00
449.01	1049.69
449.37	1038.12
449.74	1026.55
450.11	1014.64
450.48	999.69
450.85	984.05
451.22	970.86
451.59	958.95
451.96	946.81
452.33	931.21
452.70	917.24
453.07	900.50
453.43	881.33
453.80	864.19
454.17	848.45
454.54	832.43
454.91	815.76
455.28	799.98
455.65	785.05
456.02	773.71
456.38	760.69
456.75	744.95
457.12	731.67
457.49	719.12
457.86	704.57
458.23	694.43
458.59	682.36
458.96	670.40
459.33	659.50
459.70	648.88
460.07	640.45
460.43	629.93
460.80	620.95
461.17	613.64
461.54	605.74
461.91	597.64
462.27	589.76
462.64	582.57
463.01	574.36
463.38	568.17
463.74	557.26
464.11	550.57
464.48	544.90
464.85	538.43
465.21	533.95
465.58	529.07
465.95	522.36
466.32	517.31
466.68	511.88
467.05	507.33
467.42	502.40
467.78	497.00
468.15	492.62
468.52	489.31
468.88	483.57
469.25	478.40
469.62	474.93
469.98	470.88
470.35	467.64
470.72	464.12
471.08	459.43
471.45	456.52
471.82	453.90
472.18	450.29
472.55	447.86
472.92	444.62
473.28	441.31
473.65	438.64
474.02	436.07
474.38	434.60
474.75	432.29
475.11	430.12
475.48	428.45
475.85	426.67
476.21	424.17
476.58	423.38
476.94	422.57
477.31	421.10
477.67	419.88
478.04	419.00
478.41	418.17
478.77	419.67
479.14	418.81
479.50	417.90
479.87	418.12
480.23	417.55
480.60	417.02
480.96	417.07
481.33	417.93
481.69	417.90
482.06	417.57
482.42	418.12
482.79	418.52
483.15	418.52
483.52	419.31
483.88	420.10
484.25	420.45
484.61	421.33
484.98	422.57
485.34	424.29
485.71	425.36
486.07	426.74
486.44	426.02
486.80	427.64
487.17	429.07
487.53	430.88
487.90	433.48
488.26	436.40
488.62	439.24
488.99	441.55
489.35	444.38
489.72	447.00
490.08	449.40
490.44	451.93
490.81	455.62
491.17	458.57
491.54	462.05
491.90	465.74
492.26	469.12
492.63	472.79
492.99	475.95
493.36	480.10
493.72	485.10
494.08	489.57
494.45	493.95
494.81	499.21
495.17	504.10
495.54	509.14
495.90	513.71
496.26	518.38
496.63	523.62
496.99	528.88
497.35	534.88
497.72	541.07
498.08	547.45
498.44	553.12
498.80	559.60
499.17	565.79
499.53	572.43
499.89	579.57
500.26	586.29
500.62	592.88
500.98	599.90
501.34	606.38
501.71	614.10
502.07	621.29
502.43	627.60
502.79	634.10
503.16	640.98
503.52	648.40
503.88	655.55
504.24	663.10
504.60	670.43
504.97	677.98
505.33	685.52
505.69	693.81
506.05	702.05
506.41	709.62
506.78	717.31
507.14	724.19
507.50	732.24
507.86	739.76
508.22	748.05
508.59	755.86
508.95	763.62
509.31	772.19
509.67	780.36
510.03	788.55
510.39	796.52
510.75	804.05
511.12	811.50
511.48	819.64
511.84	827.17
512.20	835.19
512.56	842.98
512.92	850.31
513.28	857.71
513.64	865.02
514.00	872.60
514.37	880.19
514.73	888.45
515.09	895.24
515.45	902.29
515.81	909.31
516.17	916.29
516.53	922.79
516.89	928.00
517.25	934.90
517.61	941.52
517.97	948.69
518.33	956.24
518.69	962.69
519.05	969.57
519.41	975.90
519.77	982.81
520.13	988.69
520.49	994.45
520.85	999.98
521.21	1006.62
521.57	1012.52
521.93	1017.40
522.29	1023.21
522.65	1028.55
523.01	1035.24
523.37	1040.26
523.73	1045.29
524.09	1051.48
524.45	1056.74
524.81	1060.95
525.17	1066.90
525.53	1071.67
525.89	1075.76
526.25	1081.05
526.61	1084.83
526.97	1088.86
527.33	1092.74
527.68	1098.71
528.04	1103.69
528.40	1108.24
528.76	1111.93
529.12	1116.26
529.48	1121.26
529.84	1124.81
530.20	1129.14
530.56	1132.69
530.91	1137.19
531.27	1141.57
531.63	1144.90
531.99	1149.19
532.35	1153.45
532.71	1156.74
533.07	1160.21
533.42	1167.12
533.78	1170.81
534.14	1176.24
534.50	1180.69
534.86	1186.05
535.21	1189.60
535.57	1193.69
535.93	1197.14
536.29	1202.38
536.65	1206.02
537.00	1209.90
537.36	1213.98
537.72	1217.40
538.08	1220.69
538.44	1224.36
538.79	1227.62
539.15	1231.02
539.51	1234.48
539.87	1237.86
540.22	1241.24
540.58	1245.48
540.94	1246.83
541.29	1249.98
541.65	1251.88
542.01	1255.14
542.37	1257.71
542.72	1259.62
543.08	1262.12
543.44	1264.88
543.79	1265.50
544.15	1269.21
544.51	1272.43
544.87	1275.19
545.22	1278.45
545.58	1281.24
545.94	1283.93
546.29	1287.36
546.65	1290.10
547.01	1292.79
547.36	1295.52
547.72	1297.60
548.07	1300.05
548.43	1302.74
548.79	1305.62
549.14	1308.14
549.50	1311.52
549.86	1312.43
550.21	1315.50
550.57	1318.57
550.92	1321.40
551.28	1325.64
551.64	1328.50
551.99	1330.88
552.35	1333.67
552.70	1336.50
553.06	1340.60
553.41	1343.86
553.77	1348.12
554.13	1352.50
554.48	1356.93
554.84	1362.02
555.19	1366.79
555.55	1372.21
555.90	1375.17
556.26	1379.02
556.61	1383.02
556.97	1385.21
557.32	1390.05
557.68	1393.31
558.03	1397.24
558.39	1401.67
558.74	1404.55
559.10	1408.40
559.45	1413.07
559.81	1417.79
560.16	1421.86
560.52	1425.93
560.87	1430.60
561.23	1433.79
561.58	1438.43
561.94	1442.57
562.29	1446.24
562.64	1450.45
563.00	1453.45
563.35	1458.71
563.71	1463.40
564.06	1468.90
564.42	1474.79
564.77	1481.21
565.12	1488.24
565.48	1495.07
565.83	1501.12
566.19	1507.74
566.54	1512.93
566.89	1518.07
567.25	1524.50
567.60	1532.19
567.96	1539.24
568.31	1545.26
568.66	1551.67
569.02	1556.52
569.37	1561.29
569.72	1566.60
570.08	1571.83
570.43	1576.98
570.78	1583.45
571.14	1589.38
571.49	1594.50
571.84	1600.31
572.20	1604.10
572.55	1607.57
572.90	1611.21
573.26	1615.69
573.61	1619.45
573.96	1624.40
574.31	1628.93
574.67	1631.52
575.02	1634.12
575.37	1636.43
575.72	1639.60
576.08	1643.02
576.43	1646.74
576.78	1651.02
577.13	1654.69
577.49	1658.29
577.84	1662.62
578.19	1665.24
578.54	1669.48
578.90	1672.93
579.25	1675.29
579.60	1677.81
579.95	1680.88
580.30	1684.64
580.66	1687.71
581.01	1691.14
581.36	1693.55
581.71	1696.57
582.06	1701.86
582.42	1705.67
582.77	1708.83
583.12	1711.79
583.47	1714.95
583.82	1717.69
584.17	1719.76
584.53	1723.57
584.88	1727.12
585.23	1729.52
585.58	1731.79
585.93	1733.60
586.28	1736.43
586.63	1739.90
586.98	1743.29
587.34	1747.21
587.69	1748.98
588.04	1751.86
588.39	1755.24
588.74	1757.62
589.09	1759.79
589.44	1759.45
589.79	1760.93
590.14	1762.86
590.49	1763.95
590.84	1765.50
591.19	1767.69
591.54	1769.76
591.89	1770.33
592.25	1772.79
592.60	1774.00
592.95	1775.90
593.30	1777.81
593.65	1778.38
594.00	1777.95
594.35	1784.95
594.70	1784.12
595.05	1784.76
595.40	1784.07
595.75	1783.93
596.10	1784.62
596.45	1785.62
596.80	1787.07
597.15	1788.17
597.50	1788.21
597.85	1790.33
598.19	1789.81
598.54	1789.05
598.89	1789.02
599.24	1789.74
599.59	1788.79
599.94	1787.83
600.29	1787.55
600.64	1787.19
600.99	1787.57
601.34	1789.19
601.69	1783.55
602.04	1783.19
602.39	1782.57
602.74	1783.10
603.08	1781.90
603.43	1781.93
603.78	1781.57
604.13	1781.10
604.48	1779.71
604.83	1779.21
605.18	1777.64
605.53	1777.45
605.87	1777.05
606.22	1776.38
606.57	1774.60
606.92	1772.62
607.27	1772.60
607.62	1772.48
607.96	1770.62
608.31	1769.48
608.66	1767.81
609.01	1765.33
609.36	1765.02
609.70	1763.67
610.05	1761.26
610.40	1759.74
610.75	1756.93
611.10	1755.36
611.44	1752.36
611.79	1750.36
612.14	1747.95
612.49	1745.29
612.83	1742.40
613.18	1739.19
613.53	1735.71
613.88	1731.90
614.22	1729.07
614.57	1725.17
614.92	1720.00
615.27	1716.31
615.61	1711.86
615.96	1707.86
616.31	1704.60
616.65	1701.95
617.00	1698.55
617.35	1695.57
617.70	1692.00
618.04	1688.52
618.39	1683.62
618.74	1679.86
619.08	1675.07
619.43	1670.86
619.78	1667.31
620.12	1663.31
620.47	1660.14
620.82	1656.02
621.16	1651.55
621.51	1648.38
621.85	1643.81
622.20	1639.50
622.55	1634.81
622.89	1630.71
623.24	1626.07
623.59	1620.95
623.93	1615.33
624.28	1610.45
624.62	1607.67
624.97	1605.36
625.32	1601.21
625.66	1597.10
626.01	1592.57
626.35	1589.05
626.70	1585.07
627.04	1581.24
627.39	1576.64
627.73	1572.98
628.08	1569.10
628.43	1565.62
628.77	1560.48
629.12	1557.17
629.46	1553.62
629.81	1550.10
630.15	1545.50
630.50	1540.74
630.84	1536.48
631.19	1530.40
631.53	1525.36
631.88	1517.45
632.22	1509.79
632.57	1505.60
632.91	1500.02
633.26	1496.00
633.60	1490.26
633.95	1484.36
634.29	1478.43
634.64	1474.24
634.98	1467.79
635.32	1463.48
635.67	1459.00
636.01	1454.69
636.36	1448.86
636.70	1443.52
637.05	1437.76
637.39	1433.62
637.73	1429.50
638.08	1426.14
638.42	1421.93
638.77	1418.05
639.11	1413.40
639.45	1409.17
639.80	1402.74
640.14	1397.40
640.49	1391.45
640.83	1385.21
641.17	1380.55
641.52	1374.71
641.86	1368.31
642.20	1364.33
642.55	1358.24
642.89	1351.90
643.23	1345.02
643.58	1339.93
643.92	1333.79
644.26	1327.64
644.61	1321.14
644.95	1314.38
645.29	1306.38
645.64	1300.71
645.98	1293.76
646.32	1288.50
646.66	1281.07
647.01	1274.93
647.35	1269.55
647.69	1263.48
648.04	1258.50
648.38	1252.02
648.72	1246.21
649.06	1240.12
649.41	1232.33
649.75	1224.83
650.09	1218.10
650.43	1211.86
650.78	1204.67
651.12	1197.67
651.46	1192.00
651.80	1185.50
652.14	1180.02
652.49	1174.71
652.83	1167.95
653.17	1161.36
653.51	1154.67
653.85	1149.62
654.20	1143.21
654.54	1135.14
654.88	1128.10
655.22	1121.62
655.56	1114.43
655.90	1107.40
656.25	1100.19
656.59	1094.33
656.93	1088.00
657.27	1083.05
657.61	1076.64
657.95	1071.00
658.29	1064.93
658.64	1058.48
658.98	1051.38
659.32	1043.07
659.66	1036.10
660.00	1029.21
660.34	1023.12
660.68	1016.24
661.02	1009.12
661.36	1002.98
661.70	997.95
662.05	991.79
662.39	985.52
662.73	980.55
663.07	975.36
663.41	969.45
663.75	963.50
664.09	957.95
664.43	951.62
664.77	945.64
665.11	939.26
665.45	933.60
665.79	927.71
666.13	922.60
666.47	917.74
666.81	911.88
667.15	906.50
667.49	900.67
667.83	896.26
668.17	890.95
668.51	884.90
668.85	879.00
669.19	874.62
669.53	868.74
669.87	862.88
670.21	856.57
670.55	851.26
670.89	845.90
671.23	840.86
671.57	835.40
671.91	830.07
672.25	825.02
672.58	819.74
672.92	814.31
673.26	808.86
673.60	803.12
673.94	798.60
674.28	793.55
674.62	788.93
674.96	783.21
675.30	778.24
675.64	773.07
675.97	768.31
676.31	763.19
676.65	757.76
676.99	753.29
677.33	748.60
677.67	744.12
678.01	738.95
678.34	733.69
678.68	728.57
679.02	723.21
679.36	718.38
679.70	713.71
680.04	708.57
680.37	703.69
680.71	699.40
681.05	694.57
681.39	689.86
681.73	684.86
682.06	680.29
682.40	675.86
682.74	671.62
683.08	667.43
683.42	662.43
683.75	658.50
684.09	653.38
684.43	648.69
684.77	643.95
685.10	639.45
685.44	635.38
685.78	630.93
686.12	626.95
686.45	621.93
686.79	617.57
687.13	613.74
687.46	609.48
687.80	605.95
688.14	601.21
688.48	597.48
688.81	592.88
689.15	589.52
689.49	584.95
689.82	580.81
690.16	575.98
690.50	571.67
690.83	567.36
691.17	563.38
691.51	559.52
691.84	555.90
692.18	551.69
692.52	547.48
692.85	544.17
693.19	540.93
693.52	537.55
693.86	533.33
694.20	529.24
694.53	525.52
694.87	521.43
695.21	517.60
695.54	513.67
695.88	509.79
696.21	504.90
696.55	501.40
696.88	498.43
697.22	494.93
697.56	491.93
697.89	488.21
698.23	484.57
698.56	481.17
698.90	477.52
699.23	474.05
699.57	470.71
699.90	467.10
700.24	463.69
700.58	460.36
700.91	457.74
701.25	456.33
701.58	453.67
701.92	450.90
702.25	448.60
702.59	445.64
702.92	443.48
703.26	441.12
703.59	438.81
703.93	437.64
704.26	435.40
704.60	432.48
704.93	430.00
705.26	427.67
705.60	425.60
705.93	423.14
706.27	421.43
706.60	419.71
706.94	417.98
707.27	415.21
707.61	413.29
707.94	410.60
708.27	406.31
708.61	403.55
708.94	401.07
709.28	398.36
709.61	395.52
709.94	393.29
710.28	390.95
710.61	388.40
710.95	384.07
711.28	383.31
711.61	381.43
711.95	380.02
712.28	377.76
712.61	375.67
712.95	374.55
713.28	373.19
713.61	370.83
713.95	367.90
714.28	366.00
714.61	363.98
714.95	362.19
715.28	360.33
715.61	358.83
715.95	357.33
716.28	355.48
716.61	354.48
716.95	352.40
717.28	350.86
717.61	349.26
717.94	347.57
718.28	344.38
718.61	342.00
718.94	339.76
719.27	337.98
719.61	336.12
719.94	334.07
720.27	331.36
720.60	329.64
720.94	328.33
721.27	326.98
721.60	325.76
721.93	324.24
722.27	323.45
722.60	322.02
722.93	320.38
723.26	319.33
723.59	317.76
723.93	316.83
724.26	315.43
724.59	314.14
724.92	313.24
725.25	312.64
725.59	311.86
725.92	311.00
726.25	309.69
726.58	308.76
726.91	307.43
727.24	306.83
727.57	305.69
727.91	304.45
728.24	303.69
728.57	302.21
728.90	301.57
729.23	299.95
729.56	299.86
729.89	299.00
730.22	297.81
730.55	296.90
730.89	295.79
731.22	294.88
731.55	293.74
731.88	292.81
732.21	291.29
732.54	290.12
732.87	289.05
733.20	288.64
733.53	287.55
733.86	286.86
734.19	285.69
734.52	284.98
734.85	285.74
735.18	284.45
735.51	284.29
735.84	283.50
736.17	283.45
736.50	281.48
736.83	282.74
737.16	282.02
737.49	281.21
737.82	280.31
738.15	279.60
738.48	279.00
738.81	277.86
739.14	277.26
739.47	276.48
739.80	275.81
740.13	275.21
740.46	274.29
740.79	273.31
741.12	272.33
741.45	271.52
741.78	269.79
742.11	269.79
742.44	268.60
742.77	267.95
743.10	266.71
743.43	266.14
743.75	263.38
744.08	265.43
744.41	264.60
744.74	264.07
745.07	263.29
745.40	262.93
745.73	263.69
746.06	262.83
746.39	262.62
746.71	262.26
747.04	261.45
747.37	261.05
747.70	260.93
748.03	260.55
748.36	260.45
748.68	259.93
749.01	258.62
749.34	257.90
749.67	257.48
750.00	257.48
750.33	258.33
750.65	258.00
750.98	254.95
751.31	254.69
751.64	254.21
751.97	254.90
752.29	254.38
752.62	252.90
752.95	252.43
753.28	251.71
753.60	250.83
753.93	251.05
754.26	250.64
754.59	249.36
754.91	249.05
755.24	248.36
755.57	247.38
755.90	246.98
756.22	246.74
756.55	246.07
756.88	245.26
757.20	243.62
757.53	242.62
757.86	242.26
758.19	241.98
758.51	241.67
758.84	240.26
759.17	239.43
759.49	239.02
759.82	239.60
760.15	239.48
760.47	239.36
760.80	238.36
761.13	238.26
761.45	238.02
761.78	237.52
762.11	237.17
762.43	237.12
762.76	236.83
763.08	236.95
763.41	236.81
763.74	236.76
764.06	236.48
764.39	236.40
764.71	235.95
765.04	235.48
765.37	234.95
765.69	234.71
766.02	234.50
766.34	234.21
766.67	233.36
767.00	233.26
767.32	234.00
767.65	235.24
767.97	234.57
768.30	234.48
768.62	234.12
768.95	233.64
769.27	233.07
769.60	233.12
769.92	232.19
770.25	231.38
770.57	230.79
770.90	230.67
771.22	230.29
771.55	230.05
771.87	229.79
772.20	229.45
772.52	230.76
772.85	233.07
773.17	232.81
773.50	232.45
773.82	232.43
774.15	231.19
774.47	229.48
774.80	229.43
775.12	229.24
775.45	229.17
775.77	229.14
776.09	229.40
776.42	229.40
776.74	230.00
777.07	229.76
777.39	230.00
777.72	229.81
778.04	229.90
778.36	229.67
778.69	229.81
779.01	230.12
779.33	228.17
779.66	225.60
779.98	225.36
780.31	225.36
780.63	225.52
780.95	225.86
781.28	225.79
781.60	225.69
781.92	225.62
782.25	225.33
782.57	225.24
782.89	224.86
783.22	224.62
783.54	224.02
783.86	224.17
784.19	223.69
784.51	223.95
784.83	223.52
785.16	223.48
