SpectraSuite Data File
++++++++++++++++++++++++++++++++++++
Date: Tue Apr 02 18:41:43 EDT 2013
User: group
Dark Spectrum Present: No
Reference Spectrum Present: No
Number of Sampled Component Spectra: 1
Spectrometers: USB2E7196
Integration Time (usec): 580000 (USB2E7196)
Spectra Averaged: 2 (USB2E7196)
Boxcar Smoothing: 10 (USB2E7196)
Correct for Electrical Dark: No (USB2E7196)
Strobe/Lamp Enabled: No (USB2E7196)
Correct for Detector Non-linearity: No (USB2E7196)
Correct for Stray Light: No (USB2E7196)
Number of Pixels in Processed Spectrum: 2048
>>>>>Begin Processed Spectral Data<<<<<
339.09	0.00
339.48	191.50
339.86	195.50
340.24	193.00
340.63	199.00
341.01	230.50
341.39	204.00
341.78	211.50
342.16	216.00
342.54	209.00
342.93	198.52
343.31	208.48
343.69	209.10
344.07	209.76
344.46	210.76
344.84	211.33
345.22	210.36
345.60	210.81
345.99	210.86
346.37	210.67
346.75	210.38
347.13	210.31
347.52	210.43
347.90	211.00
348.28	210.81
348.66	211.45
349.05	210.45
349.43	211.10
349.81	211.29
350.19	211.40
350.57	211.90
350.96	212.19
351.34	212.40
351.72	212.64
352.10	212.69
352.48	212.31
352.87	212.07
353.25	212.07
353.63	211.88
354.01	211.86
354.39	212.00
354.77	212.36
355.15	212.90
355.54	212.64
355.92	212.19
356.30	212.33
356.68	213.76
357.06	214.19
357.44	213.76
357.82	213.50
358.20	214.31
358.58	214.00
358.97	214.19
359.35	214.45
359.73	214.90
360.11	214.88
360.49	215.17
360.87	215.14
361.25	215.36
361.63	216.07
362.01	216.10
362.39	216.00
362.77	216.12
363.15	216.12
363.53	216.33
363.91	216.45
364.29	216.48
364.67	214.45
365.05	214.38
365.43	214.19
365.81	214.57
366.19	214.62
366.57	215.12
366.95	214.79
367.33	214.33
367.71	214.26
368.09	214.50
368.47	214.52
368.85	214.71
369.23	215.24
369.61	214.24
369.99	214.79
370.37	215.10
370.75	216.17
371.13	215.69
371.51	215.48
371.89	215.62
372.27	215.62
372.65	215.93
373.03	215.98
373.41	216.26
373.78	216.17
374.16	215.33
374.54	214.90
374.92	214.88
375.30	215.02
375.68	214.60
376.06	214.69
376.44	214.55
376.82	214.60
377.19	214.29
377.57	214.36
377.95	213.64
378.33	213.38
378.71	212.05
379.09	212.40
379.47	212.74
379.84	212.62
380.22	212.36
380.60	211.88
380.98	211.71
381.36	211.62
381.73	211.33
382.11	211.69
382.49	211.64
382.87	211.52
383.25	211.62
383.62	214.00
384.00	213.79
384.38	213.86
384.76	214.31
385.13	215.38
385.51	215.50
385.89	215.33
386.27	215.38
386.64	215.95
387.02	216.10
387.40	215.93
387.78	216.00
388.15	216.26
388.53	216.17
388.91	216.24
389.29	215.95
389.66	216.36
390.04	216.14
390.42	216.64
390.79	216.62
391.17	216.43
391.55	214.29
391.92	214.24
392.30	214.26
392.68	213.93
393.05	213.43
393.43	213.50
393.81	213.83
394.18	213.38
394.56	213.38
394.94	213.71
395.31	213.24
395.69	213.81
396.06	214.10
396.44	214.40
396.82	214.31
397.19	215.50
397.57	215.26
397.95	215.48
398.32	214.90
398.70	215.33
399.07	215.60
399.45	215.45
399.82	215.57
400.20	215.71
400.58	215.67
400.95	214.71
401.33	215.45
401.70	216.98
402.08	217.26
402.45	217.10
402.83	217.43
403.20	217.81
403.58	217.64
403.95	218.05
404.33	218.50
404.71	218.74
405.08	219.88
405.46	220.24
405.83	220.48
406.21	220.86
406.58	221.21
406.96	221.48
407.33	222.31
407.70	223.12
408.08	225.24
408.45	226.10
408.83	227.45
409.20	227.88
409.58	227.29
409.95	228.48
410.33	229.50
410.70	230.10
411.08	231.57
411.45	232.64
411.82	233.38
412.20	235.05
412.57	237.19
412.95	236.90
413.32	238.79
413.69	240.40
414.07	242.21
414.44	243.86
414.82	246.21
415.19	248.24
415.56	250.21
415.94	251.29
416.31	254.45
416.68	257.10
417.06	260.33
417.43	264.10
417.81	267.71
418.18	271.55
418.55	275.52
418.93	279.19
419.30	283.24
419.67	288.02
420.04	292.50
420.42	297.50
420.79	305.05
421.16	310.50
421.54	317.62
421.91	323.95
422.28	330.69
422.66	337.00
423.03	345.14
423.40	352.50
423.77	359.74
424.15	366.60
424.52	374.24
424.89	383.00
425.26	390.55
425.64	398.31
426.01	406.45
426.38	415.10
426.75	425.29
427.13	435.02
427.50	444.69
427.87	454.67
428.24	464.76
428.61	473.12
428.99	484.98
429.36	495.95
429.73	507.07
430.10	518.31
430.47	530.90
430.85	541.45
431.22	554.12
431.59	569.38
431.96	582.83
432.33	597.48
432.70	611.31
433.08	627.69
433.45	643.36
433.82	658.69
434.19	675.69
434.56	692.86
434.93	708.64
435.30	725.29
435.68	743.24
436.05	760.55
436.42	777.67
436.79	793.90
437.16	811.36
437.53	829.86
437.90	848.17
438.27	866.24
438.64	885.45
439.01	902.43
439.38	916.98
439.75	932.12
440.13	949.21
440.50	965.17
440.87	978.07
441.24	992.19
441.61	1008.05
441.98	1019.40
442.35	1031.21
442.72	1044.93
443.09	1058.48
443.46	1066.67
443.83	1072.57
444.20	1077.93
444.57	1082.88
444.94	1085.76
445.31	1089.38
445.68	1095.71
446.05	1096.43
446.42	1094.95
446.79	1094.43
447.16	1092.17
447.53	1091.33
447.90	1084.98
448.27	1078.29
448.64	1069.67
449.01	1062.29
449.37	1050.29
449.74	1038.69
450.11	1027.48
450.48	1012.45
450.85	995.86
451.22	982.52
451.59	969.48
451.96	957.14
452.33	942.12
452.70	927.95
453.07	910.29
453.43	889.93
453.80	874.10
454.17	857.64
454.54	841.12
454.91	824.88
455.28	808.19
455.65	792.86
456.02	781.24
456.38	768.29
456.75	752.60
457.12	739.02
457.49	726.07
457.86	711.14
458.23	700.88
458.59	688.93
458.96	676.98
459.33	666.50
459.70	656.10
460.07	647.60
460.43	637.45
460.80	629.00
461.17	621.19
461.54	612.07
461.91	603.81
462.27	595.74
462.64	588.33
463.01	580.64
463.38	573.90
463.74	562.57
464.11	555.90
464.48	550.45
464.85	544.74
465.21	540.55
465.58	535.64
465.95	528.40
466.32	523.17
466.68	517.71
467.05	512.10
467.42	506.76
467.78	501.38
468.15	496.36
468.52	492.64
468.88	486.76
469.25	482.17
469.62	478.90
469.98	474.71
470.35	470.79
470.72	466.86
471.08	462.17
471.45	459.76
471.82	457.05
472.18	453.19
472.55	450.50
472.92	446.31
473.28	442.93
473.65	440.69
474.02	438.43
474.38	436.45
474.75	435.33
475.11	433.12
475.48	431.26
475.85	429.45
476.21	427.12
476.58	426.21
476.94	424.86
477.31	423.43
477.67	422.64
478.04	421.67
478.41	421.00
478.77	422.24
479.14	421.33
479.50	420.50
479.87	420.40
480.23	419.36
480.60	419.24
480.96	419.05
481.33	419.12
481.69	418.90
482.06	418.81
482.42	418.45
482.79	418.90
483.15	419.31
483.52	420.26
483.88	421.10
484.25	421.45
484.61	422.17
484.98	422.95
485.34	424.29
485.71	426.05
486.07	427.31
486.44	427.29
486.80	428.69
487.17	430.36
487.53	432.62
487.90	435.24
488.26	438.60
488.62	441.86
488.99	444.38
489.35	447.02
489.72	449.90
490.08	452.55
490.44	455.38
490.81	458.88
491.17	461.93
491.54	465.81
491.90	469.93
492.26	473.67
492.63	477.38
492.99	480.74
493.36	485.00
493.72	489.52
494.08	493.88
494.45	498.71
494.81	503.81
495.17	508.62
495.54	513.90
495.90	518.31
496.26	523.50
496.63	528.83
496.99	534.60
497.35	540.00
497.72	546.14
498.08	551.93
498.44	557.83
498.80	564.17
499.17	569.64
499.53	575.52
499.89	582.88
500.26	589.83
500.62	597.10
500.98	603.64
501.34	610.71
501.71	618.00
502.07	624.76
502.43	631.57
502.79	638.64
503.16	645.76
503.52	653.43
503.88	660.26
504.24	668.07
504.60	675.62
504.97	684.14
505.33	692.14
505.69	701.19
506.05	708.67
506.41	716.36
506.78	724.05
507.14	732.21
507.50	739.90
507.86	748.17
508.22	756.00
508.59	763.98
508.95	771.69
509.31	780.48
509.67	789.00
510.03	797.12
510.39	804.57
510.75	812.33
511.12	819.71
511.48	827.93
511.84	835.48
512.20	843.48
512.56	851.00
512.92	858.81
513.28	865.81
513.64	873.45
514.00	880.76
514.37	889.10
514.73	896.55
515.09	904.29
515.45	911.36
515.81	918.62
516.17	925.43
516.53	931.90
516.89	937.74
517.25	943.64
517.61	950.45
517.97	957.43
518.33	964.05
518.69	971.50
519.05	977.60
519.41	983.83
519.77	991.33
520.13	997.14
520.49	1002.60
520.85	1008.48
521.21	1015.62
521.57	1021.81
521.93	1026.60
522.29	1032.43
522.65	1037.33
523.01	1043.17
523.37	1048.88
523.73	1054.50
524.09	1060.55
524.45	1065.21
524.81	1071.10
525.17	1076.10
525.53	1080.36
525.89	1085.29
526.25	1090.36
526.61	1095.00
526.97	1099.14
527.33	1102.55
527.68	1109.12
528.04	1114.52
528.40	1118.71
528.76	1122.71
529.12	1127.64
529.48	1132.74
529.84	1137.21
530.20	1141.83
530.56	1146.43
530.91	1151.05
531.27	1155.29
531.63	1159.74
531.99	1164.57
532.35	1168.10
532.71	1172.31
533.07	1177.29
533.42	1183.74
533.78	1186.81
534.14	1191.83
534.50	1195.83
534.86	1200.50
535.21	1202.90
535.57	1207.24
535.93	1210.71
536.29	1215.43
536.65	1219.76
537.00	1222.95
537.36	1226.21
537.72	1229.50
538.08	1233.50
538.44	1236.38
538.79	1240.45
539.15	1242.93
539.51	1246.74
539.87	1250.98
540.22	1255.26
540.58	1259.38
540.94	1261.43
541.29	1265.10
541.65	1267.14
542.01	1271.48
542.37	1273.74
542.72	1276.31
543.08	1278.69
543.44	1282.88
543.79	1284.69
544.15	1287.55
544.51	1292.17
544.87	1295.95
545.22	1299.05
545.58	1301.33
545.94	1304.81
546.29	1307.95
546.65	1311.64
547.01	1314.26
547.36	1317.31
547.72	1320.36
548.07	1323.33
548.43	1325.50
548.79	1328.33
549.14	1332.00
549.50	1335.50
549.86	1338.93
550.21	1342.45
550.57	1345.67
550.92	1348.40
551.28	1352.33
551.64	1355.50
551.99	1358.02
552.35	1360.95
552.70	1364.40
553.06	1368.14
553.41	1371.33
553.77	1376.19
554.13	1380.76
554.48	1385.67
554.84	1390.05
555.19	1393.64
555.55	1398.50
555.90	1402.64
556.26	1406.71
556.61	1409.93
556.97	1412.71
557.32	1417.50
557.68	1421.88
558.03	1426.10
558.39	1430.52
558.74	1434.31
559.10	1438.21
559.45	1443.33
559.81	1448.17
560.16	1452.90
560.52	1457.93
560.87	1463.55
561.23	1466.74
561.58	1472.52
561.94	1475.71
562.29	1479.05
562.64	1484.31
563.00	1488.60
563.35	1493.02
563.71	1497.81
564.06	1504.57
564.42	1509.86
564.77	1515.45
565.12	1521.24
565.48	1528.60
565.83	1533.76
566.19	1539.43
566.54	1544.62
566.89	1549.36
567.25	1555.93
567.60	1562.67
567.96	1569.69
568.31	1576.31
568.66	1582.45
569.02	1586.05
569.37	1591.40
569.72	1597.50
570.08	1601.67
570.43	1605.98
570.78	1611.79
571.14	1618.02
571.49	1621.93
571.84	1626.81
572.20	1631.12
572.55	1635.71
572.90	1638.40
573.26	1643.64
573.61	1648.52
573.96	1653.40
574.31	1658.00
574.67	1661.07
575.02	1664.00
575.37	1665.79
575.72	1667.88
576.08	1671.38
576.43	1675.69
576.78	1680.05
577.13	1682.93
577.49	1686.55
577.84	1690.64
578.19	1693.67
578.54	1697.43
578.90	1701.88
579.25	1705.14
579.60	1708.36
579.95	1710.88
580.30	1714.79
580.66	1717.33
581.01	1720.14
581.36	1722.98
581.71	1725.38
582.06	1729.79
582.42	1733.10
582.77	1734.55
583.12	1737.12
583.47	1739.52
583.82	1740.93
584.17	1743.90
584.53	1747.69
584.88	1750.69
585.23	1753.17
585.58	1756.40
585.93	1757.69
586.28	1760.26
586.63	1763.43
586.98	1764.88
587.34	1768.02
587.69	1769.38
588.04	1771.90
588.39	1773.24
588.74	1773.86
589.09	1776.17
589.44	1775.21
589.79	1776.31
590.14	1778.81
590.49	1779.93
590.84	1779.95
591.19	1782.00
591.54	1783.21
591.89	1783.26
592.25	1786.31
592.60	1786.12
592.95	1785.93
593.30	1786.98
593.65	1785.86
594.00	1785.43
594.35	1791.55
594.70	1790.98
595.05	1791.90
595.40	1791.36
595.75	1790.52
596.10	1791.93
596.45	1792.50
596.80	1792.88
597.15	1793.07
597.50	1792.55
597.85	1794.07
598.19	1794.52
598.54	1794.26
598.89	1793.17
599.24	1794.33
599.59	1792.69
599.94	1792.69
600.29	1793.48
600.64	1793.29
600.99	1793.17
601.34	1793.24
601.69	1787.38
602.04	1786.48
602.39	1785.88
602.74	1787.12
603.08	1787.71
603.43	1787.26
603.78	1786.17
604.13	1786.67
604.48	1785.36
604.83	1784.86
605.18	1782.93
605.53	1782.50
605.87	1780.24
606.22	1778.14
606.57	1775.67
606.92	1772.83
607.27	1771.86
607.62	1769.48
607.96	1767.36
608.31	1766.69
608.66	1764.74
609.01	1762.71
609.36	1761.45
609.70	1758.57
610.05	1754.17
610.40	1751.52
610.75	1748.02
611.10	1745.29
611.44	1741.05
611.79	1738.29
612.14	1735.07
612.49	1730.50
612.83	1726.29
613.18	1723.71
613.53	1720.88
613.88	1717.10
614.22	1713.90
614.57	1708.95
614.92	1704.45
615.27	1700.67
615.61	1695.45
615.96	1691.69
616.31	1687.55
616.65	1683.67
617.00	1679.90
617.35	1675.76
617.70	1671.07
618.04	1666.76
618.39	1662.02
618.74	1657.69
619.08	1652.57
619.43	1649.05
619.78	1645.45
620.12	1641.86
620.47	1638.29
620.82	1633.33
621.16	1628.29
621.51	1624.00
621.85	1619.81
622.20	1615.02
622.55	1609.24
622.89	1604.43
623.24	1600.40
623.59	1595.69
623.93	1590.21
624.28	1585.52
624.62	1583.69
624.97	1579.90
625.32	1576.24
625.66	1571.76
626.01	1566.81
626.35	1562.52
626.70	1557.26
627.04	1554.00
627.39	1549.55
627.73	1545.48
628.08	1542.17
628.43	1538.60
628.77	1533.26
629.12	1529.57
629.46	1526.05
629.81	1521.93
630.15	1517.45
630.50	1511.74
630.84	1506.05
631.19	1501.07
631.53	1494.52
631.88	1485.98
632.22	1479.81
632.57	1474.55
632.91	1468.29
633.26	1463.14
633.60	1457.64
633.95	1451.45
634.29	1444.21
634.64	1438.69
634.98	1432.38
635.32	1428.21
635.67	1423.98
636.01	1420.21
636.36	1413.67
636.70	1409.14
637.05	1404.19
637.39	1399.07
637.73	1394.07
638.08	1390.24
638.42	1384.83
638.77	1381.02
639.11	1376.55
639.45	1371.14
639.80	1365.02
640.14	1359.90
640.49	1354.95
640.83	1349.88
641.17	1345.69
641.52	1340.50
641.86	1335.14
642.20	1329.93
642.55	1322.60
642.89	1314.98
643.23	1307.19
643.58	1302.52
643.92	1294.17
644.26	1287.69
644.61	1281.50
644.95	1274.60
645.29	1267.33
645.64	1261.45
645.98	1254.50
646.32	1248.69
646.66	1241.90
647.01	1235.43
647.35	1229.74
647.69	1223.07
648.04	1216.93
648.38	1210.55
648.72	1204.00
649.06	1196.90
649.41	1188.74
649.75	1181.81
650.09	1176.00
650.43	1169.62
650.78	1162.95
651.12	1156.71
651.46	1149.93
651.80	1143.10
652.14	1137.10
652.49	1131.86
652.83	1125.71
653.17	1119.29
653.51	1112.29
653.85	1106.10
654.20	1099.31
654.54	1092.10
654.88	1085.10
655.22	1079.14
655.56	1072.00
655.90	1065.64
656.25	1059.12
656.59	1053.88
656.93	1047.48
657.27	1041.88
657.61	1035.71
657.95	1029.12
658.29	1023.12
658.64	1017.45
658.98	1011.12
659.32	1003.86
659.66	996.62
660.00	990.07
660.34	983.36
660.68	977.00
661.02	970.95
661.36	964.79
661.70	959.17
662.05	953.52
662.39	946.76
662.73	941.45
663.07	936.64
663.41	930.07
663.75	924.24
664.09	918.60
664.43	911.52
664.77	905.48
665.11	898.86
665.45	893.21
665.79	887.10
666.13	881.38
666.47	876.45
666.81	870.62
667.15	864.81
667.49	860.00
667.83	854.90
668.17	849.50
668.51	844.02
668.85	838.40
669.19	833.71
669.53	828.00
669.87	821.48
670.21	815.38
670.55	810.31
670.89	805.21
671.23	799.76
671.57	794.55
671.91	789.21
672.25	784.74
672.58	780.55
672.92	775.31
673.26	770.38
673.60	765.71
673.94	760.71
674.28	755.29
674.62	750.31
674.96	744.98
675.30	740.71
675.64	736.48
675.97	731.60
676.31	726.21
676.65	721.52
676.99	717.90
677.33	712.67
677.67	709.24
678.01	703.52
678.34	699.45
678.68	695.24
679.02	690.57
679.36	685.55
679.70	680.24
680.04	675.81
680.37	671.31
680.71	666.62
681.05	662.26
681.39	658.21
681.73	653.33
682.06	649.31
682.40	644.57
682.74	639.95
683.08	636.10
683.42	631.62
683.75	627.45
684.09	622.71
684.43	618.05
684.77	613.02
685.10	609.14
685.44	604.57
685.78	600.00
686.12	596.26
686.45	591.93
686.79	587.50
687.13	583.62
687.46	579.38
687.80	575.24
688.14	571.45
688.48	567.36
688.81	563.62
689.15	560.26
689.49	556.45
689.82	553.07
690.16	548.10
690.50	544.52
690.83	540.29
691.17	536.19
691.51	532.86
691.84	529.38
692.18	525.76
692.52	521.95
692.85	518.71
693.19	515.90
693.52	512.79
693.86	509.07
694.20	505.19
694.53	502.02
694.87	498.14
695.21	494.24
695.54	490.81
695.88	486.98
696.21	482.60
696.55	479.24
696.88	475.88
697.22	472.98
697.56	469.86
697.89	466.67
698.23	463.76
698.56	460.43
698.90	457.05
699.23	453.50
699.57	450.69
699.90	447.21
700.24	443.45
700.58	440.31
700.91	437.74
701.25	436.69
701.58	434.36
701.92	432.29
702.25	429.83
702.59	426.98
702.92	424.74
703.26	422.40
703.59	419.52
703.93	418.62
704.26	416.52
704.60	414.05
704.93	411.93
705.26	409.21
705.60	407.33
705.93	404.62
706.27	402.90
706.60	400.71
706.94	399.33
707.27	397.17
707.61	394.95
707.94	392.76
708.27	389.19
708.61	386.24
708.94	383.90
709.28	381.60
709.61	379.50
709.94	377.38
710.28	374.98
710.61	372.93
710.95	368.93
711.28	368.17
711.61	366.17
711.95	364.48
712.28	362.57
712.61	360.48
712.95	359.76
713.28	358.88
713.61	356.76
713.95	354.43
714.28	352.62
714.61	350.62
714.95	348.83
715.28	346.57
715.61	345.02
715.95	343.38
716.28	341.74
716.61	340.43
716.95	338.64
717.28	337.21
717.61	335.48
717.94	333.74
718.28	330.79
718.61	329.43
718.94	327.57
719.27	325.88
719.61	324.64
719.94	322.67
720.27	320.29
720.60	318.90
720.94	317.76
721.27	316.48
721.60	315.79
721.93	314.40
722.27	314.12
722.60	312.86
722.93	311.50
723.26	310.45
723.59	308.81
723.93	308.10
724.26	306.90
724.59	306.19
724.92	305.40
725.25	304.86
725.59	303.67
725.92	302.93
726.25	302.38
726.58	301.40
726.91	300.36
727.24	299.67
727.57	298.67
727.91	297.12
728.24	296.31
728.57	294.98
728.90	294.33
729.23	292.57
729.56	292.45
729.89	291.45
730.22	290.45
730.55	289.81
730.89	288.62
731.22	287.81
731.55	286.88
731.88	286.36
732.21	285.26
732.54	284.21
732.87	283.26
733.20	282.26
733.53	281.52
733.86	280.88
734.19	279.64
734.52	279.10
734.85	279.62
735.18	278.55
735.51	278.31
735.84	277.79
736.17	277.81
736.50	276.45
736.83	278.12
737.16	277.57
737.49	276.83
737.82	276.12
738.15	275.79
738.48	275.10
738.81	274.05
739.14	273.12
739.47	272.60
739.80	271.83
740.13	271.43
740.46	270.19
740.79	269.07
741.12	268.50
741.45	267.74
741.78	266.21
742.11	266.19
742.44	265.19
742.77	264.90
743.10	263.81
743.43	263.05
743.75	260.43
744.08	262.19
744.41	261.36
744.74	260.67
745.07	259.76
745.40	259.43
745.73	259.98
746.06	259.50
746.39	259.21
746.71	258.52
747.04	257.67
747.37	257.12
747.70	256.93
748.03	256.52
748.36	256.14
748.68	255.74
749.01	254.45
749.34	253.79
749.67	253.02
750.00	253.10
750.33	254.26
750.65	253.83
750.98	251.14
751.31	250.79
751.64	250.50
751.97	251.24
752.29	250.48
752.62	248.98
752.95	248.52
753.28	247.62
753.60	247.14
753.93	247.33
754.26	247.43
754.59	246.33
754.91	245.69
755.24	245.10
755.57	244.48
755.90	244.33
756.22	244.00
756.55	243.38
756.88	242.31
757.20	240.50
757.53	239.40
757.86	239.02
758.19	238.93
758.51	238.50
758.84	237.07
759.17	236.76
759.49	236.43
759.82	237.05
760.15	237.00
760.47	237.00
760.80	236.29
761.13	236.14
761.45	236.02
761.78	235.57
762.11	235.43
762.43	235.24
762.76	234.74
763.08	234.48
763.41	234.26
763.74	234.50
764.06	234.24
764.39	234.36
764.71	233.81
765.04	233.50
765.37	233.17
765.69	232.81
766.02	232.40
766.34	232.17
766.67	231.26
767.00	231.29
767.32	232.17
767.65	233.00
767.97	232.71
768.30	232.62
768.62	232.31
768.95	231.86
769.27	231.29
769.60	231.40
769.92	231.05
770.25	230.57
770.57	229.79
770.90	229.64
771.22	229.29
771.55	229.36
771.87	229.00
772.20	228.86
772.52	230.55
772.85	232.88
773.17	232.88
773.50	232.38
773.82	231.93
774.15	230.67
774.47	229.14
774.80	228.60
775.12	228.52
775.45	228.60
775.77	228.71
776.09	228.83
776.42	228.86
776.74	229.29
777.07	229.10
777.39	229.17
777.72	228.52
778.04	228.60
778.36	228.24
778.69	228.33
779.01	228.40
779.33	226.33
779.66	224.05
779.98	223.69
780.31	223.81
780.63	224.69
780.95	224.86
781.28	224.86
781.60	224.83
781.92	224.60
782.25	224.40
782.57	224.29
782.89	224.02
783.22	223.67
783.54	223.19
783.86	223.40
784.19	223.19
784.51	223.83
784.83	223.67
785.16	223.24
