SpectraSuite Data File
++++++++++++++++++++++++++++++++++++
Date: Tue Apr 02 18:45:03 EDT 2013
User: group
Dark Spectrum Present: No
Reference Spectrum Present: No
Number of Sampled Component Spectra: 1
Spectrometers: USB2E7196
Integration Time (usec): 580000 (USB2E7196)
Spectra Averaged: 2 (USB2E7196)
Boxcar Smoothing: 10 (USB2E7196)
Correct for Electrical Dark: No (USB2E7196)
Strobe/Lamp Enabled: No (USB2E7196)
Correct for Detector Non-linearity: No (USB2E7196)
Correct for Stray Light: No (USB2E7196)
Number of Pixels in Processed Spectrum: 2048
>>>>>Begin Processed Spectral Data<<<<<
339.09	0.00
339.48	194.00
339.86	195.50
340.24	199.50
340.63	196.00
341.01	232.50
341.39	204.50
341.78	210.50
342.16	212.50
342.54	207.50
342.93	198.98
343.31	208.81
343.69	209.29
344.07	209.69
344.46	210.40
344.84	211.24
345.22	210.19
345.60	210.45
345.99	210.48
346.37	210.26
346.75	210.40
347.13	210.57
347.52	210.50
347.90	211.40
348.28	211.57
348.66	212.00
349.05	211.40
349.43	211.83
349.81	211.86
350.19	211.67
350.57	211.83
350.96	212.21
351.34	212.67
351.72	212.98
352.10	213.24
352.48	213.10
352.87	212.98
353.25	213.19
353.63	213.21
354.01	213.45
354.39	213.76
354.77	213.90
355.15	214.40
355.54	214.19
355.92	213.50
356.30	213.60
356.68	214.86
357.06	214.88
357.44	214.67
357.82	214.55
358.20	215.79
358.58	215.95
358.97	215.98
359.35	216.10
359.73	216.26
360.11	216.07
360.49	215.98
360.87	215.74
361.25	215.60
361.63	216.10
362.01	215.90
362.39	215.64
362.77	215.76
363.15	215.40
363.53	215.71
363.91	215.74
364.29	215.69
364.67	213.60
365.05	213.60
365.43	213.76
365.81	214.31
366.19	214.31
366.57	215.02
366.95	214.76
367.33	214.48
367.71	214.48
368.09	215.12
368.47	215.38
368.85	215.36
369.23	215.81
369.61	215.17
369.99	215.98
370.37	216.12
370.75	216.88
371.13	216.74
371.51	216.21
371.89	216.52
372.27	216.69
372.65	217.00
373.03	217.17
373.41	216.98
373.78	216.74
374.16	215.79
374.54	214.95
374.92	214.74
375.30	214.62
375.68	214.43
376.06	214.40
376.44	214.07
376.82	214.48
377.19	214.48
377.57	214.55
377.95	213.60
378.33	213.60
378.71	212.29
379.09	212.60
379.47	213.02
379.84	212.48
380.22	212.36
380.60	212.02
380.98	211.71
381.36	211.71
381.73	211.38
382.11	211.83
382.49	211.81
382.87	211.67
383.25	211.57
383.62	214.05
384.00	213.55
384.38	213.64
384.76	213.98
385.13	214.62
385.51	214.71
385.89	214.88
386.27	214.86
386.64	215.52
387.02	215.33
387.40	215.12
387.78	215.64
388.15	215.74
388.53	215.57
388.91	215.71
389.29	215.67
389.66	215.83
390.04	215.40
390.42	215.88
390.79	216.10
391.17	216.12
391.55	213.74
391.92	213.95
392.30	214.12
392.68	213.69
393.05	213.55
393.43	213.45
393.81	213.40
394.18	213.24
394.56	213.14
394.94	213.55
395.31	213.26
395.69	213.74
396.06	214.02
396.44	214.19
396.82	214.26
397.19	215.43
397.57	215.33
397.95	215.57
398.32	215.17
398.70	215.29
399.07	215.71
399.45	215.50
399.82	215.38
400.20	215.38
400.58	215.36
400.95	214.55
401.33	215.05
401.70	216.76
402.08	217.05
402.45	217.05
402.83	217.62
403.20	218.07
403.58	218.07
403.95	218.43
404.33	218.98
404.71	219.07
405.08	220.19
405.46	220.43
405.83	221.00
406.21	221.29
406.58	221.60
406.96	221.83
407.33	222.76
407.70	223.38
408.08	225.21
408.45	226.26
408.83	227.02
409.20	227.40
409.58	226.64
409.95	227.76
410.33	228.90
410.70	229.29
411.08	230.38
411.45	231.14
411.82	231.69
412.20	233.00
412.57	235.29
412.95	234.79
413.32	236.64
413.69	237.79
414.07	239.43
414.44	241.43
414.82	243.74
415.19	245.93
415.56	248.36
415.94	249.79
416.31	252.52
416.68	255.83
417.06	259.10
417.43	262.64
417.81	266.14
418.18	269.52
418.55	273.07
418.93	277.12
419.30	281.24
419.67	285.74
420.04	290.48
420.42	294.79
420.79	302.17
421.16	307.74
421.54	315.07
421.91	321.50
422.28	327.55
422.66	333.98
423.03	341.93
423.40	348.95
423.77	355.86
424.15	362.83
424.52	370.21
424.89	378.79
425.26	386.48
425.64	393.81
426.01	401.98
426.38	411.02
426.75	420.50
427.13	429.88
427.50	439.45
427.87	449.48
428.24	459.24
428.61	467.14
428.99	478.07
429.36	488.17
429.73	499.26
430.10	511.02
430.47	522.74
430.85	532.95
431.22	545.24
431.59	560.60
431.96	573.52
432.33	587.52
432.70	601.19
433.08	617.05
433.45	632.45
433.82	647.79
434.19	664.52
434.56	680.81
434.93	696.21
435.30	712.55
435.68	729.60
436.05	747.21
436.42	764.02
436.79	780.02
437.16	796.98
437.53	814.64
437.90	831.88
438.27	849.14
438.64	867.57
439.01	884.14
439.38	897.50
439.75	910.90
440.13	927.57
440.50	942.83
440.87	956.14
441.24	968.64
441.61	983.24
441.98	993.95
442.35	1005.98
442.72	1019.33
443.09	1032.10
443.46	1040.48
443.83	1045.43
444.20	1050.60
444.57	1055.90
444.94	1058.95
445.31	1062.26
445.68	1068.07
446.05	1070.14
446.42	1068.19
446.79	1067.67
447.16	1065.74
447.53	1066.31
447.90	1060.02
448.27	1053.86
448.64	1044.52
449.01	1039.19
449.37	1028.24
449.74	1017.21
450.11	1006.40
450.48	991.48
450.85	975.76
451.22	962.31
451.59	950.64
451.96	939.07
452.33	924.38
452.70	910.95
453.07	894.57
453.43	875.21
453.80	858.71
454.17	843.19
454.54	827.45
454.91	811.36
455.28	794.95
455.65	780.31
456.02	769.74
456.38	757.12
456.75	741.71
457.12	728.12
457.49	715.12
457.86	700.50
458.23	690.86
458.59	679.10
458.96	667.05
459.33	656.21
459.70	645.62
460.07	636.98
460.43	626.50
460.80	617.55
461.17	610.43
461.54	601.98
461.91	594.55
462.27	586.55
462.64	579.40
463.01	572.05
463.38	565.29
463.74	553.71
464.11	547.00
464.48	541.12
464.85	534.90
465.21	531.26
465.58	526.48
465.95	519.43
466.32	514.95
466.68	510.10
467.05	505.19
467.42	500.36
467.78	494.86
468.15	490.74
468.52	487.12
468.88	481.14
469.25	476.45
469.62	473.24
469.98	469.40
470.35	466.07
470.72	462.62
471.08	458.48
471.45	455.62
471.82	453.43
472.18	450.00
472.55	447.60
472.92	443.67
473.28	440.76
473.65	438.38
474.02	435.57
474.38	433.45
474.75	431.55
475.11	428.90
475.48	427.67
475.85	425.74
476.21	423.33
476.58	422.07
476.94	421.07
477.31	419.31
477.67	417.93
478.04	416.93
478.41	415.90
478.77	417.14
479.14	416.17
479.50	415.17
479.87	414.67
480.23	414.43
480.60	413.60
480.96	413.26
481.33	414.38
481.69	414.17
482.06	414.24
482.42	414.57
482.79	414.76
483.15	415.19
483.52	416.19
483.88	416.88
484.25	417.64
484.61	418.45
484.98	419.00
485.34	420.74
485.71	421.98
486.07	423.26
486.44	422.67
486.80	424.45
487.17	426.17
487.53	428.60
487.90	430.67
488.26	434.05
488.62	436.98
488.99	438.50
489.35	441.38
489.72	444.45
490.08	447.07
490.44	450.36
490.81	453.60
491.17	456.48
491.54	460.38
491.90	463.95
492.26	467.29
492.63	471.05
492.99	474.60
493.36	479.00
493.72	483.48
494.08	487.86
494.45	492.79
494.81	497.36
495.17	502.07
495.54	507.17
495.90	512.12
496.26	517.29
496.63	522.67
496.99	528.07
497.35	533.38
497.72	539.17
498.08	545.07
498.44	550.79
498.80	557.29
499.17	562.83
499.53	569.21
499.89	576.29
500.26	583.21
500.62	589.88
500.98	596.74
501.34	603.95
501.71	612.00
502.07	618.88
502.43	625.98
502.79	631.98
503.16	638.83
503.52	645.64
503.88	652.12
504.24	659.67
504.60	667.12
504.97	675.02
505.33	682.76
505.69	691.24
506.05	699.07
506.41	706.79
506.78	714.67
507.14	722.38
507.50	729.86
507.86	737.88
508.22	745.86
508.59	753.36
508.95	761.14
509.31	768.50
509.67	776.50
510.03	784.55
510.39	793.50
510.75	801.21
511.12	809.29
511.48	817.29
511.84	824.45
512.20	831.57
512.56	839.36
512.92	846.98
513.28	854.21
513.64	861.48
514.00	868.10
514.37	875.43
514.73	882.55
515.09	890.50
515.45	897.64
515.81	904.43
516.17	911.26
516.53	916.88
516.89	922.57
517.25	928.64
517.61	935.33
517.97	941.10
518.33	948.10
518.69	954.14
519.05	960.69
519.41	966.40
519.77	974.05
520.13	979.93
520.49	985.33
520.85	990.07
521.21	996.57
521.57	1003.19
521.93	1008.10
522.29	1013.40
522.65	1018.40
523.01	1023.60
523.37	1027.71
523.73	1033.24
524.09	1038.62
524.45	1043.36
524.81	1047.69
525.17	1052.55
525.53	1057.50
525.89	1061.69
526.25	1066.71
526.61	1070.64
526.97	1075.79
527.33	1079.33
527.68	1084.98
528.04	1089.10
528.40	1094.45
528.76	1098.43
529.12	1102.50
529.48	1107.95
529.84	1112.29
530.20	1116.05
530.56	1120.40
530.91	1126.17
531.27	1130.40
531.63	1134.48
531.99	1138.40
532.35	1142.60
532.71	1145.83
533.07	1150.14
533.42	1157.10
533.78	1161.33
534.14	1166.21
534.50	1169.60
534.86	1174.29
535.21	1176.81
535.57	1181.36
535.93	1184.21
536.29	1189.29
536.65	1192.29
537.00	1195.14
537.36	1199.17
537.72	1202.00
538.08	1205.36
538.44	1207.71
538.79	1210.67
539.15	1214.00
539.51	1218.05
539.87	1221.93
540.22	1225.90
540.58	1228.90
540.94	1229.12
541.29	1232.40
541.65	1233.69
542.01	1237.48
542.37	1239.62
542.72	1241.57
543.08	1243.00
543.44	1246.07
543.79	1246.76
544.15	1249.93
544.51	1253.00
544.87	1255.43
545.22	1259.05
545.58	1261.71
545.94	1264.79
546.29	1267.29
546.65	1270.17
547.01	1272.12
547.36	1274.57
547.72	1276.36
548.07	1279.36
548.43	1281.45
548.79	1282.55
549.14	1285.40
549.50	1288.05
549.86	1289.98
550.21	1292.95
550.57	1297.19
550.92	1299.50
551.28	1302.36
551.64	1305.29
551.99	1308.26
552.35	1310.43
552.70	1313.24
553.06	1316.48
553.41	1319.57
553.77	1324.38
554.13	1327.79
554.48	1332.02
554.84	1336.17
555.19	1340.31
555.55	1344.62
555.90	1348.38
556.26	1352.95
556.61	1357.45
556.97	1360.83
557.32	1364.60
557.68	1368.71
558.03	1372.21
558.39	1376.69
558.74	1380.74
559.10	1384.71
559.45	1389.45
559.81	1394.81
560.16	1398.57
560.52	1402.40
560.87	1407.00
561.23	1409.69
561.58	1415.71
561.94	1419.76
562.29	1424.05
562.64	1429.12
563.00	1433.05
563.35	1438.79
563.71	1443.29
564.06	1448.76
564.42	1454.02
564.77	1460.31
565.12	1465.86
565.48	1473.31
565.83	1478.57
566.19	1485.00
566.54	1490.31
566.89	1495.81
567.25	1502.24
567.60	1508.90
567.96	1517.52
568.31	1524.71
568.66	1531.45
569.02	1535.21
569.37	1540.71
569.72	1545.43
570.08	1550.36
570.43	1555.62
570.78	1560.26
571.14	1565.69
571.49	1570.57
571.84	1576.00
572.20	1580.74
572.55	1585.57
572.90	1588.10
573.26	1592.40
573.61	1596.14
573.96	1600.79
574.31	1604.76
574.67	1606.76
575.02	1609.95
575.37	1611.02
575.72	1613.40
576.08	1617.50
576.43	1622.36
576.78	1626.33
577.13	1630.62
577.49	1634.55
577.84	1638.55
578.19	1642.10
578.54	1646.02
578.90	1650.02
579.25	1653.62
579.60	1656.00
579.95	1659.52
580.30	1663.21
580.66	1667.86
581.01	1671.60
581.36	1675.26
581.71	1678.64
582.06	1684.74
582.42	1689.26
582.77	1693.36
583.12	1696.69
583.47	1699.05
583.82	1701.45
584.17	1705.33
584.53	1709.40
584.88	1712.60
585.23	1715.74
585.58	1719.71
585.93	1721.79
586.28	1724.29
586.63	1726.88
586.98	1730.93
587.34	1733.98
587.69	1736.52
588.04	1738.26
588.39	1740.45
588.74	1741.81
589.09	1744.93
589.44	1744.76
589.79	1745.62
590.14	1746.55
590.49	1748.10
590.84	1749.38
591.19	1751.62
591.54	1752.71
591.89	1753.10
592.25	1756.55
592.60	1757.57
592.95	1759.12
593.30	1760.79
593.65	1761.93
594.00	1762.52
594.35	1769.14
594.70	1769.33
595.05	1770.64
595.40	1771.40
595.75	1772.55
596.10	1774.67
596.45	1774.81
596.80	1776.10
597.15	1778.57
597.50	1779.31
597.85	1781.21
598.19	1781.62
598.54	1781.60
598.89	1781.86
599.24	1783.48
599.59	1781.62
599.94	1781.69
600.29	1781.00
600.64	1781.55
600.99	1781.76
601.34	1783.10
601.69	1777.24
602.04	1776.71
602.39	1775.48
602.74	1776.31
603.08	1775.29
603.43	1775.38
603.78	1774.81
604.13	1775.31
604.48	1772.93
604.83	1773.79
605.18	1772.88
605.53	1772.60
605.87	1772.43
606.22	1771.40
606.57	1770.33
606.92	1768.95
607.27	1767.93
607.62	1767.50
607.96	1767.31
608.31	1766.67
608.66	1764.67
609.01	1763.07
609.36	1762.57
609.70	1761.76
610.05	1758.71
610.40	1757.43
610.75	1753.95
611.10	1751.64
611.44	1749.14
611.79	1747.69
612.14	1744.62
612.49	1740.90
612.83	1738.14
613.18	1734.93
613.53	1732.24
613.88	1727.81
614.22	1725.43
614.57	1721.88
614.92	1718.10
615.27	1713.95
615.61	1708.76
615.96	1704.74
616.31	1700.88
616.65	1698.52
617.00	1696.10
617.35	1693.52
617.70	1690.38
618.04	1687.71
618.39	1684.74
618.74	1680.45
619.08	1676.81
619.43	1672.64
619.78	1669.90
620.12	1666.83
620.47	1663.55
620.82	1659.21
621.16	1656.05
621.51	1653.57
621.85	1649.14
622.20	1645.67
622.55	1641.83
622.89	1638.81
623.24	1635.81
623.59	1632.57
623.93	1627.14
624.28	1623.21
624.62	1622.21
624.97	1619.33
625.32	1615.29
625.66	1610.60
626.01	1606.79
626.35	1603.95
626.70	1600.14
627.04	1596.36
627.39	1591.57
627.73	1589.14
628.08	1586.67
628.43	1582.79
628.77	1577.71
629.12	1575.40
629.46	1572.19
629.81	1568.02
630.15	1564.07
630.50	1559.95
630.84	1555.17
631.19	1551.67
631.53	1546.40
631.88	1538.33
632.22	1532.02
632.57	1528.43
632.91	1523.48
633.26	1518.88
633.60	1512.52
633.95	1507.93
634.29	1502.76
634.64	1499.62
634.98	1493.48
635.32	1488.90
635.67	1485.48
636.01	1480.98
636.36	1475.74
636.70	1471.26
637.05	1467.14
637.39	1463.55
637.73	1458.62
638.08	1455.43
638.42	1450.86
638.77	1447.36
639.11	1443.10
639.45	1439.02
639.80	1433.31
640.14	1429.52
640.49	1424.74
640.83	1419.60
641.17	1415.38
641.52	1410.43
641.86	1404.60
642.20	1400.31
642.55	1394.69
642.89	1388.40
643.23	1383.45
643.58	1379.43
643.92	1372.52
644.26	1366.98
644.61	1361.26
644.95	1356.40
645.29	1349.71
645.64	1343.86
645.98	1337.50
646.32	1332.43
646.66	1326.40
647.01	1321.02
647.35	1315.67
647.69	1310.17
648.04	1305.07
648.38	1299.14
648.72	1293.88
649.06	1288.00
649.41	1281.43
649.75	1275.40
650.09	1269.52
650.43	1262.69
650.78	1255.90
651.12	1250.29
651.46	1243.81
651.80	1237.81
652.14	1231.43
652.49	1226.14
652.83	1219.64
653.17	1213.19
653.51	1206.31
653.85	1200.88
654.20	1194.43
654.54	1187.31
654.88	1180.83
655.22	1175.17
655.56	1168.24
655.90	1161.43
656.25	1155.02
656.59	1148.62
656.93	1142.74
657.27	1137.79
657.61	1131.64
657.95	1125.60
658.29	1119.50
658.64	1114.00
658.98	1106.88
659.32	1100.17
659.66	1093.33
660.00	1087.29
660.34	1081.14
660.68	1075.45
661.02	1068.52
661.36	1062.31
661.70	1056.38
662.05	1050.86
662.39	1045.36
662.73	1040.29
663.07	1035.31
663.41	1029.86
663.75	1023.81
664.09	1017.86
664.43	1010.83
664.77	1004.90
665.11	998.43
665.45	992.31
665.79	985.83
666.13	979.95
666.47	974.52
666.81	968.71
667.15	963.14
667.49	957.64
667.83	952.48
668.17	946.83
668.51	941.40
668.85	936.81
669.19	931.67
669.53	925.60
669.87	919.60
670.21	912.88
670.55	907.12
670.89	902.60
671.23	897.00
671.57	892.07
671.91	887.07
672.25	881.67
672.58	877.40
672.92	871.86
673.26	867.14
673.60	861.12
673.94	856.43
674.28	851.38
674.62	846.00
674.96	840.24
675.30	835.86
675.64	830.52
675.97	824.14
676.31	818.21
676.65	812.52
676.99	808.07
677.33	803.24
677.67	798.57
678.01	792.57
678.34	787.88
678.68	783.31
679.02	777.62
679.36	772.76
679.70	767.17
680.04	762.24
680.37	756.81
680.71	752.33
681.05	747.79
681.39	743.00
681.73	738.00
682.06	733.26
682.40	728.10
682.74	723.86
683.08	720.45
683.42	715.48
683.75	711.05
684.09	705.50
684.43	701.00
684.77	696.12
685.10	691.45
685.44	686.33
685.78	680.33
686.12	676.52
686.45	671.79
686.79	666.86
687.13	662.76
687.46	658.69
687.80	654.86
688.14	650.10
688.48	645.74
688.81	641.48
689.15	637.40
689.49	632.79
689.82	628.05
690.16	622.48
690.50	618.26
690.83	613.79
691.17	609.52
691.51	605.00
691.84	600.98
692.18	597.26
692.52	593.24
692.85	590.24
693.19	586.43
693.52	582.74
693.86	578.67
694.20	574.29
694.53	570.33
694.87	565.83
695.21	561.55
695.54	557.33
695.88	553.29
696.21	549.02
696.55	544.98
696.88	541.14
697.22	537.98
697.56	534.83
697.89	531.12
698.23	527.83
698.56	523.98
698.90	520.26
699.23	516.14
699.57	512.38
699.90	508.17
700.24	504.45
700.58	500.95
700.91	497.88
701.25	496.52
701.58	493.71
701.92	491.12
702.25	487.88
702.59	484.81
702.92	481.71
703.26	478.69
703.59	476.00
703.93	474.74
704.26	471.50
704.60	468.64
704.93	465.83
705.26	462.55
705.60	460.48
705.93	457.14
706.27	455.05
706.60	453.07
706.94	451.17
707.27	448.00
707.61	445.48
707.94	442.67
708.27	437.71
708.61	434.71
708.94	431.52
709.28	429.29
709.61	426.45
709.94	424.10
710.28	421.69
710.61	419.21
710.95	414.71
711.28	413.86
711.61	410.76
711.95	408.62
712.28	405.98
712.61	403.26
712.95	402.05
713.28	400.33
713.61	397.36
713.95	394.67
714.28	392.31
714.61	389.83
714.95	387.62
715.28	385.67
715.61	383.21
715.95	381.24
716.28	378.83
716.61	376.88
716.95	374.31
717.28	372.24
717.61	369.79
717.94	367.74
718.28	364.10
718.61	362.33
718.94	359.86
719.27	358.31
719.61	356.26
719.94	353.76
720.27	350.86
720.60	348.86
720.94	346.79
721.27	345.55
721.60	344.12
721.93	342.45
722.27	341.57
722.60	340.45
722.93	338.60
723.26	337.24
723.59	335.52
723.93	334.55
724.26	333.19
724.59	332.17
724.92	331.07
725.25	330.45
725.59	329.17
725.92	328.38
726.25	326.81
726.58	326.00
726.91	324.67
727.24	323.81
727.57	322.86
727.91	321.21
728.24	319.93
728.57	318.29
728.90	317.79
729.23	315.90
729.56	315.31
729.89	314.17
730.22	312.90
730.55	311.76
730.89	310.45
731.22	308.98
731.55	307.71
731.88	306.83
732.21	305.45
732.54	304.10
732.87	302.64
733.20	301.76
733.53	300.62
733.86	299.64
734.19	298.64
734.52	297.81
734.85	298.31
735.18	297.45
735.51	297.14
735.84	295.76
736.17	295.40
736.50	293.24
736.83	294.55
737.16	293.57
737.49	292.79
737.82	291.83
738.15	291.38
738.48	290.45
738.81	289.52
739.14	288.17
739.47	287.50
739.80	286.81
740.13	286.10
740.46	284.79
740.79	283.79
741.12	282.60
741.45	281.69
741.78	279.93
742.11	279.52
742.44	278.57
742.77	277.79
743.10	276.76
743.43	276.29
743.75	273.43
744.08	275.02
744.41	273.81
744.74	273.10
745.07	272.14
745.40	271.88
745.73	271.83
746.06	271.43
746.39	270.76
746.71	270.02
747.04	269.14
747.37	268.64
747.70	268.43
748.03	267.88
748.36	267.36
748.68	266.43
749.01	264.88
749.34	264.14
749.67	263.83
750.00	263.55
750.33	264.45
750.65	264.29
750.98	261.62
751.31	261.45
751.64	260.98
751.97	261.48
752.29	260.67
752.62	259.10
752.95	258.48
753.28	257.67
753.60	256.93
753.93	256.90
754.26	256.43
754.59	255.17
754.91	254.71
755.24	254.05
755.57	253.67
755.90	253.14
756.22	252.21
756.55	251.33
756.88	250.50
757.20	248.69
757.53	247.52
757.86	246.88
758.19	246.86
758.51	246.38
758.84	244.83
759.17	244.14
759.49	243.81
759.82	244.29
760.15	244.26
760.47	243.81
760.80	243.07
761.13	242.95
761.45	242.83
761.78	242.36
762.11	241.95
762.43	241.57
762.76	241.24
763.08	241.38
763.41	241.31
763.74	241.00
764.06	240.43
764.39	240.21
764.71	239.93
765.04	239.19
765.37	238.71
765.69	238.48
766.02	238.19
766.34	237.93
766.67	236.81
767.00	236.74
767.32	237.60
767.65	238.29
767.97	237.95
768.30	237.71
768.62	237.21
768.95	236.83
769.27	236.40
769.60	236.55
769.92	235.90
770.25	235.31
770.57	234.60
770.90	234.33
771.22	233.81
771.55	233.60
771.87	233.57
772.20	233.33
772.52	234.60
772.85	237.00
773.17	236.93
773.50	236.57
773.82	236.19
774.15	234.90
774.47	233.55
774.80	232.95
775.12	232.67
775.45	232.76
775.77	232.64
776.09	232.88
776.42	232.83
776.74	233.26
777.07	232.86
777.39	232.88
777.72	232.69
778.04	232.76
778.36	232.07
778.69	231.90
779.01	231.60
779.33	229.74
779.66	227.14
779.98	226.71
780.31	226.74
780.63	227.12
780.95	227.40
781.28	227.12
781.60	227.10
781.92	227.05
782.25	226.62
782.57	226.50
782.89	226.21
783.22	225.83
783.54	225.38
783.86	225.50
784.19	225.07
784.51	225.69
784.83	225.33
785.16	225.48
