SpectraSuite Data File
++++++++++++++++++++++++++++++++++++
Date: Tue Apr 02 18:43:23 EDT 2013
User: group
Dark Spectrum Present: No
Reference Spectrum Present: No
Number of Sampled Component Spectra: 1
Spectrometers: USB2E7196
Integration Time (usec): 580000 (USB2E7196)
Spectra Averaged: 2 (USB2E7196)
Boxcar Smoothing: 10 (USB2E7196)
Correct for Electrical Dark: No (USB2E7196)
Strobe/Lamp Enabled: No (USB2E7196)
Correct for Detector Non-linearity: No (USB2E7196)
Correct for Stray Light: No (USB2E7196)
Number of Pixels in Processed Spectrum: 2048
>>>>>Begin Processed Spectral Data<<<<<
339.09	0.00
339.48	192.50
339.86	192.00
340.24	199.00
340.63	196.50
341.01	227.00
341.39	199.00
341.78	205.50
342.16	211.50
342.54	205.50
342.93	197.95
343.31	207.79
343.69	208.52
344.07	209.36
344.46	209.95
344.84	210.74
345.22	209.88
345.60	210.69
345.99	211.00
346.37	210.95
346.75	211.02
347.13	211.19
347.52	211.31
347.90	211.93
348.28	212.24
348.66	212.74
349.05	212.21
349.43	212.43
349.81	212.52
350.19	212.50
350.57	212.45
350.96	212.79
351.34	213.19
351.72	213.36
352.10	213.45
352.48	213.40
352.87	213.36
353.25	213.31
353.63	212.93
354.01	212.67
354.39	212.81
354.77	213.19
355.15	213.81
355.54	213.79
355.92	213.24
356.30	212.98
356.68	214.21
357.06	214.60
357.44	214.36
357.82	214.21
358.20	215.02
358.58	215.17
358.97	215.26
359.35	215.60
359.73	215.95
360.11	215.86
360.49	216.07
360.87	216.10
361.25	216.45
361.63	217.19
362.01	217.60
362.39	217.40
362.77	217.17
363.15	216.93
363.53	216.86
363.91	217.17
364.29	216.95
364.67	214.83
365.05	214.81
365.43	215.12
365.81	215.26
366.19	215.45
366.57	216.29
366.95	216.10
367.33	215.60
367.71	215.33
368.09	215.93
368.47	215.76
368.85	215.52
369.23	215.90
369.61	215.19
369.99	215.55
370.37	215.95
370.75	217.17
371.13	216.95
371.51	216.60
371.89	216.57
372.27	217.02
372.65	217.33
373.03	217.26
373.41	216.95
373.78	217.07
374.16	216.14
374.54	215.43
374.92	215.21
375.30	215.07
375.68	214.81
376.06	214.67
376.44	214.62
376.82	214.74
377.19	214.52
377.57	214.50
377.95	214.10
378.33	213.90
378.71	212.76
379.09	212.86
379.47	213.21
379.84	213.10
380.22	212.76
380.60	212.33
380.98	212.40
381.36	212.62
381.73	212.21
382.11	212.38
382.49	212.26
382.87	212.05
383.25	212.05
383.62	214.38
384.00	214.00
384.38	214.29
384.76	214.90
385.13	215.74
385.51	215.88
385.89	215.62
386.27	215.50
386.64	215.60
387.02	215.40
387.40	215.19
387.78	215.21
388.15	215.48
388.53	215.43
388.91	215.10
389.29	214.86
389.66	215.26
390.04	215.02
390.42	215.55
390.79	215.76
391.17	215.98
391.55	213.83
391.92	214.00
392.30	214.14
392.68	213.57
393.05	213.48
393.43	213.62
393.81	213.76
394.18	213.69
394.56	214.00
394.94	214.33
395.31	214.38
395.69	215.00
396.06	215.12
396.44	215.62
396.82	215.64
397.19	216.71
397.57	216.50
397.95	216.86
398.32	216.29
398.70	216.43
399.07	216.88
399.45	216.93
399.82	216.86
400.20	216.55
400.58	216.64
400.95	215.67
401.33	216.17
401.70	217.64
402.08	217.76
402.45	217.50
402.83	218.14
403.20	218.24
403.58	218.19
403.95	218.71
404.33	218.86
404.71	219.31
405.08	220.48
405.46	220.83
405.83	221.31
406.21	221.62
406.58	222.26
406.96	222.36
407.33	222.88
407.70	223.74
408.08	225.90
408.45	227.02
408.83	228.29
409.20	228.52
409.58	228.00
409.95	229.14
410.33	230.33
410.70	230.60
411.08	231.93
411.45	233.02
411.82	233.67
412.20	235.57
412.57	237.76
412.95	237.33
413.32	239.10
413.69	240.10
414.07	241.90
414.44	243.45
414.82	245.55
415.19	247.88
415.56	249.88
415.94	251.07
416.31	253.62
416.68	256.17
417.06	259.50
417.43	262.88
417.81	266.02
418.18	269.50
418.55	273.57
418.93	277.43
419.30	281.19
419.67	285.71
420.04	289.74
420.42	293.95
420.79	300.95
421.16	306.50
421.54	314.05
421.91	320.19
422.28	326.52
422.66	332.76
423.03	340.93
423.40	348.05
423.77	355.36
424.15	362.31
424.52	369.90
424.89	378.40
425.26	386.33
425.64	394.12
426.01	402.62
426.38	411.07
426.75	420.74
427.13	429.95
427.50	439.64
427.87	449.69
428.24	459.60
428.61	468.69
428.99	480.02
429.36	490.00
429.73	500.90
430.10	512.38
430.47	524.43
430.85	535.00
431.22	547.88
431.59	562.60
431.96	575.60
432.33	590.00
432.70	603.57
433.08	620.05
433.45	635.40
433.82	650.17
434.19	667.19
434.56	683.83
434.93	699.57
435.30	715.36
435.68	733.29
436.05	750.31
436.42	766.95
436.79	782.79
437.16	800.17
437.53	818.12
437.90	835.90
438.27	853.71
438.64	871.60
439.01	888.55
439.38	901.95
439.75	916.79
440.13	933.38
440.50	948.64
440.87	961.71
441.24	975.43
441.61	990.12
441.98	1000.74
442.35	1013.07
442.72	1026.48
443.09	1040.26
443.46	1047.62
443.83	1053.19
444.20	1057.71
444.57	1063.74
444.94	1066.67
445.31	1071.33
445.68	1077.38
446.05	1078.38
446.42	1077.31
446.79	1076.21
447.16	1074.19
447.53	1073.24
447.90	1066.14
448.27	1059.62
448.64	1050.24
449.01	1043.81
449.37	1033.19
449.74	1022.83
450.11	1011.43
450.48	996.64
450.85	980.55
451.22	967.50
451.59	956.07
451.96	944.74
452.33	929.52
452.70	915.88
453.07	897.50
453.43	877.71
453.80	861.90
454.17	845.98
454.54	830.00
454.91	814.14
455.28	798.12
455.65	784.29
456.02	773.57
456.38	761.29
456.75	745.74
457.12	732.12
457.49	719.07
457.86	704.57
458.23	694.02
458.59	682.43
458.96	670.64
459.33	659.60
459.70	649.07
460.07	640.43
460.43	630.48
460.80	622.02
461.17	614.29
461.54	605.60
461.91	597.52
462.27	589.17
462.64	582.31
463.01	574.38
463.38	567.57
463.74	556.86
464.11	549.98
464.48	544.45
464.85	538.07
465.21	533.62
465.58	528.67
465.95	522.21
466.32	517.45
466.68	512.05
467.05	507.21
467.42	501.90
467.78	496.62
468.15	491.48
468.52	488.07
468.88	482.33
469.25	477.95
469.62	474.93
469.98	471.07
470.35	467.71
470.72	464.02
471.08	459.55
471.45	456.55
471.82	454.10
472.18	450.45
472.55	448.21
472.92	444.60
473.28	441.60
473.65	439.17
474.02	435.86
474.38	434.07
474.75	431.81
475.11	429.62
475.48	427.45
475.85	426.29
476.21	424.33
476.58	423.52
476.94	422.05
477.31	420.33
477.67	419.00
478.04	417.64
478.41	417.31
478.77	418.33
479.14	417.05
479.50	415.95
479.87	415.38
480.23	414.95
480.60	414.50
480.96	414.31
481.33	415.26
481.69	415.60
482.06	415.74
482.42	415.76
482.79	415.79
483.15	416.31
483.52	416.76
483.88	417.10
484.25	417.29
484.61	418.21
484.98	418.86
485.34	420.69
485.71	421.95
486.07	423.19
486.44	422.93
486.80	424.76
487.17	426.07
487.53	428.21
487.90	430.55
488.26	433.67
488.62	436.19
488.99	437.88
489.35	440.31
489.72	443.05
490.08	446.10
490.44	449.07
490.81	452.60
491.17	455.74
491.54	459.40
491.90	463.60
492.26	467.10
492.63	470.95
492.99	474.55
493.36	478.55
493.72	483.14
494.08	487.33
494.45	491.67
494.81	496.86
495.17	501.60
495.54	506.74
495.90	510.93
496.26	516.21
496.63	521.64
496.99	527.40
497.35	533.19
497.72	539.26
498.08	545.14
498.44	551.50
498.80	557.83
499.17	563.67
499.53	569.57
499.89	576.21
500.26	582.69
500.62	589.17
500.98	596.64
501.34	603.50
501.71	611.00
502.07	617.93
502.43	624.74
502.79	631.62
503.16	638.24
503.52	645.48
503.88	652.55
504.24	659.76
504.60	667.00
504.97	674.67
505.33	681.57
505.69	690.24
506.05	697.69
506.41	705.57
506.78	713.55
507.14	721.05
507.50	729.12
507.86	737.57
508.22	745.64
508.59	753.26
508.95	760.60
509.31	769.71
509.67	778.10
510.03	786.24
510.39	794.40
510.75	802.43
511.12	810.64
511.48	818.62
511.84	826.36
512.20	834.12
512.56	841.31
512.92	849.24
513.28	856.55
513.64	863.67
514.00	870.83
514.37	878.57
514.73	886.62
515.09	894.17
515.45	901.05
515.81	907.95
516.17	914.14
516.53	921.14
516.89	926.62
517.25	932.71
517.61	939.62
517.97	946.21
518.33	952.62
518.69	958.83
519.05	965.12
519.41	971.14
519.77	978.43
520.13	984.38
520.49	989.88
520.85	995.55
521.21	1002.26
521.57	1007.74
521.93	1012.69
522.29	1016.98
522.65	1021.76
523.01	1027.40
523.37	1032.88
523.73	1038.88
524.09	1044.10
524.45	1048.14
524.81	1052.76
525.17	1057.31
525.53	1061.31
525.89	1065.95
526.25	1070.71
526.61	1075.62
526.97	1079.86
527.33	1084.00
527.68	1090.60
528.04	1095.95
528.40	1100.36
528.76	1103.74
529.12	1108.12
529.48	1112.95
529.84	1118.05
530.20	1123.50
530.56	1127.64
530.91	1131.45
531.27	1135.29
531.63	1139.74
531.99	1144.21
532.35	1149.00
532.71	1153.07
533.07	1158.00
533.42	1165.02
533.78	1169.26
534.14	1173.55
534.50	1178.24
534.86	1182.48
535.21	1184.81
535.57	1188.21
535.93	1192.00
536.29	1197.50
536.65	1202.12
537.00	1204.52
537.36	1208.52
537.72	1210.38
538.08	1213.50
538.44	1217.12
538.79	1221.07
539.15	1223.36
539.51	1227.24
539.87	1230.69
540.22	1233.67
540.58	1236.74
540.94	1237.33
541.29	1239.81
541.65	1241.62
542.01	1244.67
542.37	1246.88
542.72	1248.98
543.08	1251.21
543.44	1253.31
543.79	1254.31
544.15	1256.76
544.51	1261.52
544.87	1264.24
545.22	1268.14
545.58	1271.05
545.94	1273.86
546.29	1275.90
546.65	1279.40
547.01	1282.31
547.36	1284.71
547.72	1287.86
548.07	1291.43
548.43	1293.69
548.79	1296.17
549.14	1298.93
549.50	1301.33
549.86	1303.55
550.21	1306.00
550.57	1309.81
550.92	1312.95
551.28	1316.48
551.64	1318.31
551.99	1320.79
552.35	1323.14
552.70	1325.90
553.06	1329.21
553.41	1332.05
553.77	1336.74
554.13	1339.98
554.48	1343.64
554.84	1348.12
555.19	1351.60
555.55	1355.36
555.90	1358.88
556.26	1362.98
556.61	1366.88
556.97	1369.76
557.32	1373.55
557.68	1378.26
558.03	1381.10
558.39	1384.62
558.74	1388.55
559.10	1393.45
559.45	1397.19
559.81	1402.05
560.16	1405.88
560.52	1410.19
560.87	1415.29
561.23	1418.38
561.58	1425.05
561.94	1428.64
562.29	1431.88
562.64	1436.74
563.00	1439.79
563.35	1445.17
563.71	1449.43
564.06	1454.76
564.42	1460.67
564.77	1466.60
565.12	1472.05
565.48	1479.71
565.83	1486.21
566.19	1491.33
566.54	1496.57
566.89	1502.17
567.25	1508.31
567.60	1515.05
567.96	1522.26
568.31	1528.62
568.66	1535.24
569.02	1539.48
569.37	1545.12
569.72	1551.33
570.08	1556.45
570.43	1563.05
570.78	1568.83
571.14	1575.90
571.49	1580.50
571.84	1586.12
572.20	1590.86
572.55	1596.36
572.90	1599.48
573.26	1604.12
573.61	1608.83
573.96	1613.95
574.31	1619.40
574.67	1623.71
575.02	1627.21
575.37	1629.43
575.72	1632.24
576.08	1635.19
576.43	1638.40
576.78	1641.31
577.13	1645.36
577.49	1648.69
577.84	1652.05
578.19	1655.36
578.54	1658.74
578.90	1663.29
579.25	1666.52
579.60	1670.29
579.95	1673.07
580.30	1676.81
580.66	1680.93
581.01	1684.98
581.36	1687.10
581.71	1689.21
582.06	1692.98
582.42	1696.52
582.77	1699.19
583.12	1702.57
583.47	1706.45
583.82	1709.55
584.17	1714.21
584.53	1716.88
584.88	1720.45
585.23	1723.67
585.58	1726.00
585.93	1728.38
586.28	1730.71
586.63	1733.67
586.98	1736.55
587.34	1740.02
587.69	1742.07
588.04	1743.02
588.39	1744.69
588.74	1747.43
589.09	1749.93
589.44	1750.79
589.79	1751.95
590.14	1754.76
590.49	1756.12
590.84	1756.79
591.19	1758.36
591.54	1759.88
591.89	1761.24
592.25	1764.40
592.60	1765.33
592.95	1766.33
593.30	1767.71
593.65	1768.31
594.00	1768.24
594.35	1774.21
594.70	1773.79
595.05	1775.17
595.40	1776.52
595.75	1776.90
596.10	1778.31
596.45	1779.74
596.80	1780.40
597.15	1781.52
597.50	1782.14
597.85	1784.02
598.19	1784.71
598.54	1783.93
598.89	1783.50
599.24	1784.95
599.59	1783.48
599.94	1783.45
600.29	1784.40
600.64	1784.60
600.99	1785.31
601.34	1787.00
601.69	1781.90
602.04	1782.19
602.39	1782.00
602.74	1782.00
603.08	1782.07
603.43	1782.69
603.78	1781.50
604.13	1781.69
604.48	1781.07
604.83	1781.00
605.18	1780.40
605.53	1779.83
605.87	1780.24
606.22	1779.33
606.57	1777.33
606.92	1776.36
607.27	1776.02
607.62	1774.88
607.96	1773.60
608.31	1772.93
608.66	1771.71
609.01	1769.36
609.36	1768.05
609.70	1766.60
610.05	1764.17
610.40	1762.26
610.75	1758.90
611.10	1757.43
611.44	1754.90
611.79	1752.26
612.14	1749.12
612.49	1745.98
612.83	1743.62
613.18	1740.40
613.53	1737.86
613.88	1734.52
614.22	1730.81
614.57	1726.14
614.92	1722.48
615.27	1719.17
615.61	1714.10
615.96	1709.86
616.31	1706.90
616.65	1703.76
617.00	1700.45
617.35	1697.79
617.70	1694.50
618.04	1690.74
618.39	1685.38
618.74	1681.67
619.08	1677.55
619.43	1673.64
619.78	1669.10
620.12	1665.38
620.47	1662.02
620.82	1657.26
621.16	1653.93
621.51	1651.31
621.85	1647.40
622.20	1643.40
622.55	1638.45
622.89	1636.43
623.24	1632.19
623.59	1628.71
623.93	1624.64
624.28	1620.31
624.62	1617.86
624.97	1615.05
625.32	1610.83
625.66	1608.05
626.01	1603.21
626.35	1599.64
626.70	1595.93
627.04	1593.50
627.39	1589.31
627.73	1585.79
628.08	1582.62
628.43	1578.38
628.77	1574.05
629.12	1570.86
629.46	1567.43
629.81	1563.67
630.15	1557.90
630.50	1552.76
630.84	1547.38
631.19	1542.17
631.53	1537.26
631.88	1530.19
632.22	1523.48
632.57	1519.62
632.91	1514.43
633.26	1509.98
633.60	1505.43
633.95	1499.74
634.29	1493.88
634.64	1489.60
634.98	1484.12
635.32	1480.21
635.67	1475.55
636.01	1470.62
636.36	1464.45
636.70	1459.76
637.05	1454.71
637.39	1450.45
637.73	1446.74
638.08	1443.36
638.42	1438.86
638.77	1434.24
639.11	1429.74
639.45	1425.52
639.80	1420.07
640.14	1414.90
640.49	1409.24
640.83	1403.48
641.17	1399.02
641.52	1393.02
641.86	1387.29
642.20	1383.24
642.55	1376.43
642.89	1370.05
643.23	1363.57
643.58	1360.10
643.92	1353.19
644.26	1347.40
644.61	1341.55
644.95	1335.31
645.29	1327.50
645.64	1321.74
645.98	1316.05
646.32	1310.43
646.66	1304.07
647.01	1298.10
647.35	1292.43
647.69	1287.12
648.04	1281.64
648.38	1276.02
648.72	1269.90
649.06	1263.40
649.41	1256.38
649.75	1250.10
650.09	1243.55
650.43	1237.86
650.78	1230.05
651.12	1223.95
651.46	1217.36
651.80	1210.90
652.14	1204.52
652.49	1199.00
652.83	1192.52
653.17	1184.12
653.51	1176.74
653.85	1170.17
654.20	1163.14
654.54	1156.50
654.88	1149.45
655.22	1142.79
655.56	1135.48
655.90	1129.33
656.25	1123.10
656.59	1116.40
656.93	1110.60
657.27	1105.74
657.61	1098.83
657.95	1093.64
658.29	1087.43
658.64	1082.21
658.98	1075.33
659.32	1068.52
659.66	1062.12
660.00	1056.17
660.34	1050.83
660.68	1044.60
661.02	1038.21
661.36	1032.29
661.70	1025.79
662.05	1019.17
662.39	1013.26
662.73	1008.10
663.07	1003.60
663.41	997.67
663.75	991.50
664.09	985.69
664.43	979.43
664.77	973.57
665.11	966.50
665.45	960.98
665.79	954.83
666.13	948.83
666.47	943.60
666.81	936.90
667.15	930.43
667.49	925.90
667.83	921.48
668.17	915.19
668.51	909.05
668.85	904.10
669.19	900.12
669.53	894.10
669.87	887.43
670.21	880.31
670.55	874.00
670.89	869.55
671.23	864.02
671.57	858.19
671.91	853.19
672.25	848.45
672.58	843.62
672.92	837.52
673.26	832.93
673.60	827.14
673.94	822.81
674.28	817.31
674.62	811.62
674.96	805.45
675.30	800.79
675.64	795.76
675.97	790.29
676.31	784.52
676.65	779.83
676.99	776.00
677.33	771.14
677.67	766.62
678.01	760.67
678.34	755.60
678.68	751.29
679.02	745.90
679.36	740.40
679.70	735.07
680.04	730.55
680.37	725.45
680.71	720.29
681.05	715.98
681.39	711.43
681.73	706.55
682.06	702.00
682.40	697.83
682.74	693.60
683.08	689.24
683.42	684.21
683.75	679.93
684.09	674.24
684.43	669.67
684.77	665.07
685.10	660.36
685.44	655.43
685.78	650.71
686.12	646.36
686.45	641.95
686.79	637.07
687.13	632.81
687.46	628.19
687.80	625.17
688.14	620.33
688.48	616.33
688.81	612.00
689.15	608.05
689.49	603.67
689.82	599.29
690.16	594.17
690.50	590.10
690.83	585.50
691.17	581.19
691.51	577.12
691.84	573.33
692.18	569.48
692.52	565.88
692.85	562.21
693.19	559.02
693.52	555.50
693.86	551.10
694.20	546.74
694.53	543.17
694.87	538.57
695.21	534.38
695.54	530.69
695.88	526.83
696.21	522.81
696.55	519.10
696.88	515.86
697.22	512.69
697.56	509.67
697.89	506.02
698.23	502.98
698.56	499.67
698.90	496.33
699.23	492.38
699.57	489.26
699.90	485.48
700.24	481.55
700.58	478.07
700.91	475.45
701.25	474.36
701.58	472.07
701.92	469.67
702.25	466.88
702.59	463.31
702.92	460.45
703.26	457.81
703.59	455.07
703.93	453.67
704.26	451.24
704.60	447.98
704.93	444.69
705.26	441.88
705.60	439.19
705.93	435.76
706.27	434.21
706.60	431.55
706.94	429.71
707.27	426.76
707.61	424.33
707.94	421.55
708.27	417.10
708.61	413.55
708.94	411.07
709.28	408.55
709.61	406.19
709.94	404.02
710.28	401.57
710.61	399.14
710.95	395.17
711.28	394.24
711.61	392.10
711.95	390.79
712.28	388.07
712.61	385.67
712.95	384.81
713.28	383.43
713.61	381.45
713.95	378.81
714.28	376.88
714.61	374.57
714.95	372.90
715.28	371.12
715.61	369.36
715.95	367.40
716.28	365.45
716.61	364.02
716.95	361.57
717.28	359.69
717.61	357.24
717.94	355.40
718.28	352.02
718.61	350.02
718.94	347.76
719.27	346.02
719.61	344.33
719.94	341.95
720.27	338.81
720.60	336.79
720.94	335.33
721.27	333.95
721.60	332.95
721.93	331.26
722.27	330.24
722.60	328.95
722.93	327.10
723.26	325.88
723.59	324.10
723.93	323.14
724.26	321.81
724.59	320.90
724.92	319.71
725.25	319.07
725.59	318.17
725.92	317.48
726.25	316.81
726.58	315.93
726.91	314.62
727.24	313.95
727.57	312.64
727.91	310.71
728.24	309.76
728.57	308.38
728.90	307.74
729.23	306.00
729.56	305.50
729.89	304.57
730.22	303.14
730.55	302.24
730.89	301.07
731.22	299.71
731.55	298.69
731.88	297.74
732.21	296.26
732.54	295.07
732.87	293.95
733.20	292.88
733.53	291.81
733.86	291.19
734.19	290.05
734.52	289.62
734.85	290.31
735.18	289.10
735.51	288.74
735.84	288.00
736.17	288.10
736.50	286.40
736.83	287.93
737.16	287.31
737.49	286.48
737.82	285.62
738.15	285.26
738.48	284.60
738.81	283.93
739.14	282.98
739.47	282.17
739.80	280.83
740.13	280.19
740.46	279.12
740.79	278.05
741.12	277.26
741.45	276.12
741.78	274.48
742.11	274.21
742.44	273.14
742.77	272.64
743.10	271.26
743.43	270.50
743.75	267.69
744.08	269.79
744.41	268.90
744.74	268.36
745.07	267.40
745.40	266.90
745.73	266.88
746.06	266.38
746.39	265.95
746.71	265.40
747.04	264.62
747.37	264.14
747.70	263.88
748.03	263.36
748.36	263.17
748.68	262.76
749.01	261.76
749.34	261.19
749.67	260.60
750.00	260.29
750.33	261.29
750.65	261.02
750.98	257.88
751.31	257.57
751.64	256.81
751.97	257.48
752.29	256.83
752.62	255.60
752.95	255.10
753.28	254.31
753.60	254.19
753.93	254.31
754.26	253.67
754.59	252.74
754.91	252.24
755.24	251.43
755.57	250.40
755.90	249.74
756.22	249.19
756.55	248.21
756.88	247.52
757.20	245.71
757.53	244.52
757.86	244.17
758.19	243.98
758.51	243.74
758.84	242.24
759.17	241.74
759.49	241.40
759.82	241.88
760.15	241.95
760.47	241.24
760.80	240.19
761.13	240.40
761.45	239.74
761.78	239.33
762.11	239.19
762.43	238.88
762.76	238.90
763.08	238.71
763.41	238.57
763.74	238.43
764.06	238.21
764.39	238.02
764.71	237.57
765.04	236.95
765.37	236.55
765.69	236.14
766.02	235.81
766.34	235.48
766.67	234.45
767.00	234.50
767.32	235.50
767.65	236.81
767.97	236.31
768.30	236.17
768.62	235.93
768.95	235.21
769.27	235.10
769.60	235.00
769.92	234.29
770.25	233.55
770.57	233.17
770.90	232.86
771.22	232.55
771.55	232.38
771.87	232.24
772.20	231.79
772.52	233.19
772.85	235.48
773.17	235.05
773.50	234.76
773.82	234.00
774.15	232.86
774.47	230.98
774.80	230.57
775.12	230.45
775.45	230.33
775.77	230.31
776.09	229.98
776.42	229.69
776.74	230.52
777.07	230.43
777.39	230.17
777.72	229.88
778.04	230.05
778.36	229.60
778.69	229.55
779.01	229.69
779.33	227.74
779.66	225.21
779.98	225.05
780.31	224.90
780.63	225.60
780.95	225.88
781.28	225.93
781.60	225.69
781.92	225.69
782.25	225.55
782.57	225.31
782.89	225.21
783.22	224.95
783.54	224.05
783.86	224.12
784.19	223.93
784.51	224.24
784.83	223.67
785.16	223.71
