SpectraSuite Data File
++++++++++++++++++++++++++++++++++++
Date: Tue Apr 02 18:44:42 EDT 2013
User: group
Dark Spectrum Present: No
Reference Spectrum Present: No
Number of Sampled Component Spectra: 1
Spectrometers: USB2E7196
Integration Time (usec): 580000 (USB2E7196)
Spectra Averaged: 2 (USB2E7196)
Boxcar Smoothing: 10 (USB2E7196)
Correct for Electrical Dark: No (USB2E7196)
Strobe/Lamp Enabled: No (USB2E7196)
Correct for Detector Non-linearity: No (USB2E7196)
Correct for Stray Light: No (USB2E7196)
Number of Pixels in Processed Spectrum: 2048
>>>>>Begin Processed Spectral Data<<<<<
339.09	0.00
339.48	191.50
339.86	195.50
340.24	192.50
340.63	200.00
341.01	229.50
341.39	202.50
341.78	203.50
342.16	210.00
342.54	206.00
342.93	197.52
343.31	207.29
343.69	208.10
344.07	208.71
344.46	209.76
344.84	210.29
345.22	209.36
345.60	209.69
345.99	210.10
346.37	210.07
346.75	210.33
347.13	210.45
347.52	210.48
347.90	211.19
348.28	211.10
348.66	211.64
349.05	211.21
349.43	211.45
349.81	211.83
350.19	211.88
350.57	211.88
350.96	212.33
351.34	212.95
351.72	213.05
352.10	213.21
352.48	213.02
352.87	212.95
353.25	213.00
353.63	213.05
354.01	213.05
354.39	213.33
354.77	213.24
355.15	213.76
355.54	213.86
355.92	213.29
356.30	213.52
356.68	214.60
357.06	214.79
357.44	214.67
357.82	214.55
358.20	215.55
358.58	215.43
358.97	215.19
359.35	215.45
359.73	215.83
360.11	215.79
360.49	215.79
360.87	216.07
361.25	216.26
361.63	217.00
362.01	216.93
362.39	216.55
362.77	216.86
363.15	216.74
363.53	216.57
363.91	216.98
364.29	216.93
364.67	215.17
365.05	215.14
365.43	215.43
365.81	215.76
366.19	215.86
366.57	217.05
366.95	217.14
367.33	216.55
367.71	216.43
368.09	216.81
368.47	216.86
368.85	216.55
369.23	217.02
369.61	216.24
369.99	217.00
370.37	217.43
370.75	218.21
371.13	217.83
371.51	217.57
371.89	217.52
372.27	217.52
372.65	217.57
373.03	217.74
373.41	217.43
373.78	217.14
374.16	215.83
374.54	215.10
374.92	214.95
375.30	214.95
375.68	214.60
376.06	214.55
376.44	214.55
376.82	214.60
377.19	214.26
377.57	214.21
377.95	213.40
378.33	213.29
378.71	212.26
379.09	212.40
379.47	212.74
379.84	212.55
380.22	212.40
380.60	212.19
380.98	211.98
381.36	212.12
381.73	211.95
382.11	212.62
382.49	212.71
382.87	212.17
383.25	212.02
383.62	214.43
384.00	214.14
384.38	214.29
384.76	214.81
385.13	215.71
385.51	215.69
385.89	215.67
386.27	215.55
386.64	215.64
387.02	215.52
387.40	215.36
387.78	215.67
388.15	215.71
388.53	215.86
388.91	215.81
389.29	215.48
389.66	215.62
390.04	215.14
390.42	215.45
390.79	215.93
391.17	216.19
391.55	214.07
391.92	214.07
392.30	213.98
392.68	213.31
393.05	212.93
393.43	212.93
393.81	213.07
394.18	212.83
394.56	213.29
394.94	213.81
395.31	213.86
395.69	214.31
396.06	214.81
396.44	215.17
396.82	214.83
397.19	216.21
397.57	215.90
397.95	216.43
398.32	215.90
398.70	216.07
399.07	216.29
399.45	216.07
399.82	215.90
400.20	215.83
400.58	216.00
400.95	215.36
401.33	215.88
401.70	217.33
402.08	217.79
402.45	217.48
402.83	217.93
403.20	217.95
403.58	217.95
403.95	218.19
404.33	218.33
404.71	218.90
405.08	219.95
405.46	220.48
405.83	220.88
406.21	221.14
406.58	221.62
406.96	222.05
407.33	222.69
407.70	223.81
408.08	226.05
408.45	227.02
408.83	228.00
409.20	228.43
409.58	227.88
409.95	228.88
410.33	229.81
410.70	230.24
411.08	231.64
411.45	232.52
411.82	233.29
412.20	234.83
412.57	237.21
412.95	236.79
413.32	238.67
413.69	239.86
414.07	241.67
414.44	243.64
414.82	245.57
415.19	247.88
415.56	249.76
415.94	251.05
416.31	253.67
416.68	256.38
417.06	259.83
417.43	263.36
417.81	266.76
418.18	270.55
418.55	274.17
418.93	277.93
419.30	281.98
419.67	286.45
420.04	290.74
420.42	294.48
420.79	301.60
421.16	307.10
421.54	313.93
421.91	320.12
422.28	326.00
422.66	332.40
423.03	340.64
423.40	347.71
423.77	354.60
424.15	361.88
424.52	369.76
424.89	378.21
425.26	385.71
425.64	393.12
426.01	401.40
426.38	410.17
426.75	419.62
427.13	429.10
427.50	438.83
427.87	448.90
428.24	459.12
428.61	467.90
428.99	479.26
429.36	490.07
429.73	501.64
430.10	512.95
430.47	525.00
430.85	535.05
431.22	547.29
431.59	562.29
431.96	574.90
432.33	588.62
432.70	602.19
433.08	618.36
433.45	633.86
433.82	649.19
434.19	666.36
434.56	683.50
434.93	698.88
435.30	715.21
435.68	732.83
436.05	750.74
436.42	767.69
436.79	783.38
437.16	800.48
437.53	817.38
437.90	835.21
438.27	852.62
438.64	870.93
439.01	888.02
439.38	901.40
439.75	915.76
440.13	932.36
440.50	947.64
440.87	960.48
441.24	973.64
441.61	987.98
441.98	998.52
442.35	1010.10
442.72	1023.33
443.09	1035.36
443.46	1042.19
443.83	1047.79
444.20	1052.29
444.57	1057.81
444.94	1060.81
445.31	1064.86
445.68	1071.31
446.05	1072.76
446.42	1071.88
446.79	1070.50
447.16	1068.98
447.53	1068.74
447.90	1062.26
448.27	1056.07
448.64	1047.74
449.01	1041.74
449.37	1030.64
449.74	1019.60
450.11	1008.50
450.48	993.88
450.85	978.24
451.22	966.67
451.59	954.10
451.96	942.26
452.33	926.95
452.70	912.67
453.07	895.88
453.43	875.55
453.80	859.50
454.17	843.36
454.54	828.74
454.91	812.12
455.28	795.62
455.65	780.98
456.02	769.12
456.38	755.93
456.75	740.21
457.12	726.93
457.49	713.98
457.86	699.88
458.23	690.24
458.59	679.17
458.96	666.79
459.33	655.93
459.70	645.33
460.07	637.45
460.43	627.90
460.80	618.86
461.17	611.76
461.54	603.07
461.91	594.81
462.27	585.98
462.64	578.93
463.01	571.93
463.38	565.93
463.74	555.40
464.11	549.14
464.48	543.69
464.85	537.26
465.21	533.36
465.58	528.31
465.95	520.86
466.32	515.93
466.68	511.12
467.05	505.86
467.42	500.83
467.78	494.81
468.15	489.86
468.52	486.50
468.88	480.76
469.25	476.31
469.62	473.62
469.98	470.17
470.35	467.07
470.72	463.31
471.08	458.38
471.45	455.98
471.82	453.33
472.18	449.55
472.55	447.43
472.92	443.55
473.28	440.40
473.65	437.76
474.02	435.12
474.38	432.98
474.75	430.98
475.11	429.10
475.48	428.19
475.85	426.50
476.21	424.36
476.58	423.29
476.94	421.71
477.31	419.95
477.67	418.36
478.04	417.26
478.41	416.69
478.77	418.19
479.14	417.26
479.50	416.43
479.87	416.55
480.23	415.95
480.60	415.57
480.96	415.05
481.33	415.95
481.69	415.76
482.06	415.95
482.42	416.57
482.79	416.79
483.15	416.86
483.52	418.02
483.88	418.55
484.25	419.07
484.61	419.95
484.98	420.67
485.34	422.62
485.71	424.07
486.07	424.93
486.44	424.69
486.80	426.05
487.17	427.33
487.53	429.36
487.90	431.55
488.26	434.95
488.62	438.02
488.99	439.93
489.35	442.55
489.72	444.52
490.08	447.02
490.44	449.79
490.81	452.90
491.17	455.79
491.54	459.50
491.90	463.21
492.26	467.07
492.63	470.83
492.99	474.12
493.36	478.21
493.72	483.05
494.08	487.36
494.45	492.26
494.81	497.52
495.17	501.71
495.54	506.79
495.90	511.07
496.26	515.74
496.63	521.05
496.99	526.67
497.35	532.43
497.72	538.62
498.08	544.33
498.44	550.33
498.80	556.76
499.17	562.29
499.53	568.52
499.89	575.38
500.26	581.83
500.62	588.33
500.98	595.43
501.34	601.90
501.71	608.81
502.07	615.45
502.43	622.57
502.79	630.14
503.16	637.29
503.52	644.40
503.88	651.86
504.24	659.76
504.60	667.14
504.97	674.98
505.33	682.38
505.69	691.40
506.05	699.33
506.41	706.98
506.78	714.69
507.14	722.67
507.50	730.55
507.86	738.62
508.22	747.31
508.59	754.40
508.95	762.55
509.31	771.48
509.67	779.48
510.03	786.67
510.39	794.29
510.75	801.95
511.12	809.71
511.48	817.07
511.84	824.12
512.20	831.79
512.56	839.43
512.92	847.00
513.28	853.62
513.64	860.60
514.00	868.21
514.37	875.69
514.73	882.71
515.09	890.29
515.45	897.12
515.81	903.43
516.17	910.10
516.53	916.45
516.89	921.88
517.25	928.81
517.61	936.17
517.97	942.60
518.33	948.60
518.69	954.98
519.05	962.31
519.41	969.00
519.77	976.21
520.13	982.38
520.49	988.21
520.85	993.93
521.21	1000.31
521.57	1005.45
521.93	1010.45
522.29	1015.71
522.65	1020.05
523.01	1025.33
523.37	1030.21
523.73	1035.57
524.09	1040.50
524.45	1045.33
524.81	1049.93
525.17	1054.52
525.53	1059.74
525.89	1065.10
526.25	1069.83
526.61	1073.45
526.97	1076.79
527.33	1080.52
527.68	1086.64
528.04	1091.48
528.40	1095.60
528.76	1099.76
529.12	1104.26
529.48	1109.76
529.84	1113.69
530.20	1118.43
530.56	1123.55
530.91	1128.14
531.27	1132.52
531.63	1137.69
531.99	1141.29
532.35	1144.88
532.71	1148.64
533.07	1152.60
533.42	1158.62
533.78	1162.79
534.14	1166.95
534.50	1171.40
534.86	1175.33
535.21	1177.31
535.57	1181.24
535.93	1184.98
536.29	1189.40
536.65	1193.29
537.00	1196.50
537.36	1200.40
537.72	1203.95
538.08	1206.98
538.44	1210.10
538.79	1213.60
539.15	1215.71
539.51	1219.69
539.87	1223.36
540.22	1226.45
540.58	1229.26
540.94	1230.52
541.29	1233.62
541.65	1236.14
542.01	1239.38
542.37	1241.95
542.72	1244.14
543.08	1245.81
543.44	1248.50
543.79	1249.64
544.15	1251.93
544.51	1255.81
544.87	1258.95
545.22	1261.74
545.58	1264.38
545.94	1267.17
546.29	1269.45
546.65	1272.50
547.01	1275.21
547.36	1276.81
547.72	1279.38
548.07	1282.24
548.43	1284.33
548.79	1285.90
549.14	1288.67
549.50	1291.52
549.86	1293.86
550.21	1297.14
550.57	1300.29
550.92	1302.74
551.28	1306.69
551.64	1309.50
551.99	1310.95
552.35	1314.19
552.70	1317.05
553.06	1320.17
553.41	1323.50
553.77	1328.48
554.13	1332.21
554.48	1336.64
554.84	1342.19
555.19	1345.81
555.55	1350.86
555.90	1354.90
556.26	1359.33
556.61	1363.57
556.97	1367.12
557.32	1371.52
557.68	1375.29
558.03	1379.64
558.39	1384.31
558.74	1388.05
559.10	1391.88
559.45	1396.43
559.81	1400.36
560.16	1404.29
560.52	1408.12
560.87	1412.14
561.23	1414.98
561.58	1420.67
561.94	1424.33
562.29	1427.74
562.64	1432.98
563.00	1436.26
563.35	1441.00
563.71	1446.26
564.06	1451.26
564.42	1456.62
564.77	1461.86
565.12	1468.07
565.48	1475.64
565.83	1482.21
566.19	1487.88
566.54	1494.26
566.89	1499.83
567.25	1506.02
567.60	1513.40
567.96	1522.00
568.31	1529.21
568.66	1535.76
569.02	1540.40
569.37	1545.83
569.72	1551.74
570.08	1556.76
570.43	1561.86
570.78	1568.05
571.14	1574.38
571.49	1579.86
571.84	1585.45
572.20	1590.74
572.55	1595.81
572.90	1597.95
573.26	1601.36
573.61	1605.67
573.96	1610.69
574.31	1615.81
574.67	1619.60
575.02	1622.05
575.37	1623.48
575.72	1625.29
576.08	1629.48
576.43	1632.52
576.78	1635.79
577.13	1639.24
577.49	1643.02
577.84	1647.14
578.19	1650.00
578.54	1653.79
578.90	1657.45
579.25	1660.24
579.60	1663.50
579.95	1666.02
580.30	1670.43
580.66	1674.98
581.01	1677.93
581.36	1680.00
581.71	1682.95
582.06	1687.69
582.42	1692.29
582.77	1695.45
583.12	1699.48
583.47	1702.14
583.82	1706.02
584.17	1710.02
584.53	1714.26
584.88	1717.93
585.23	1721.31
585.58	1723.83
585.93	1725.36
586.28	1728.48
586.63	1731.64
586.98	1735.29
587.34	1739.31
587.69	1741.36
588.04	1742.67
588.39	1745.26
588.74	1746.98
589.09	1750.02
589.44	1749.69
589.79	1750.86
590.14	1753.76
590.49	1755.36
590.84	1756.29
591.19	1758.05
591.54	1759.07
591.89	1760.43
592.25	1763.07
592.60	1764.67
592.95	1768.19
593.30	1769.76
593.65	1770.07
594.00	1770.31
594.35	1775.48
594.70	1774.86
595.05	1775.67
595.40	1776.76
595.75	1777.69
596.10	1779.33
596.45	1779.45
596.80	1781.40
597.15	1782.40
597.50	1782.45
597.85	1784.31
598.19	1785.57
598.54	1784.83
598.89	1785.88
599.24	1785.98
599.59	1784.62
599.94	1783.95
600.29	1783.21
600.64	1782.95
600.99	1783.55
601.34	1785.36
601.69	1780.29
602.04	1779.19
602.39	1779.12
602.74	1779.50
603.08	1779.57
603.43	1779.83
603.78	1779.36
604.13	1778.48
604.48	1778.00
604.83	1777.40
605.18	1776.90
605.53	1776.74
605.87	1775.76
606.22	1774.64
606.57	1773.24
606.92	1772.07
607.27	1772.24
607.62	1770.88
607.96	1770.12
608.31	1769.40
608.66	1767.86
609.01	1766.14
609.36	1766.36
609.70	1764.71
610.05	1763.00
610.40	1761.31
610.75	1758.90
611.10	1756.57
611.44	1754.10
611.79	1751.62
612.14	1749.57
612.49	1745.60
612.83	1742.40
613.18	1741.21
613.53	1738.48
613.88	1735.74
614.22	1732.55
614.57	1728.10
614.92	1724.60
615.27	1720.90
615.61	1715.83
615.96	1711.10
616.31	1707.74
616.65	1704.86
617.00	1702.81
617.35	1699.60
617.70	1696.12
618.04	1692.62
618.39	1689.55
618.74	1685.21
619.08	1680.88
619.43	1676.69
619.78	1673.74
620.12	1670.40
620.47	1665.88
620.82	1661.88
621.16	1657.26
621.51	1654.52
621.85	1650.24
622.20	1645.83
622.55	1641.98
622.89	1639.24
623.24	1637.19
623.59	1632.88
623.93	1628.12
624.28	1622.19
624.62	1619.95
624.97	1616.98
625.32	1613.05
625.66	1608.60
626.01	1605.76
626.35	1603.48
626.70	1599.48
627.04	1595.29
627.39	1590.40
627.73	1588.02
628.08	1584.60
628.43	1581.36
628.77	1577.02
629.12	1573.88
629.46	1570.52
629.81	1566.24
630.15	1561.88
630.50	1555.67
630.84	1550.52
631.19	1546.40
631.53	1542.69
631.88	1535.36
632.22	1528.90
632.57	1524.88
632.91	1519.98
633.26	1515.12
633.60	1508.83
633.95	1504.17
634.29	1498.93
634.64	1495.79
634.98	1490.12
635.32	1485.64
635.67	1481.36
636.01	1476.90
636.36	1471.74
636.70	1468.67
637.05	1464.43
637.39	1460.29
637.73	1456.93
638.08	1454.26
638.42	1449.74
638.77	1445.12
639.11	1440.81
639.45	1437.24
639.80	1431.81
640.14	1426.86
640.49	1422.26
640.83	1418.07
641.17	1413.07
641.52	1409.33
641.86	1403.48
642.20	1398.79
642.55	1393.21
642.89	1386.88
643.23	1381.24
643.58	1376.90
643.92	1369.38
644.26	1363.95
644.61	1358.69
644.95	1352.81
645.29	1346.02
645.64	1340.95
645.98	1336.02
646.32	1330.81
646.66	1324.21
647.01	1318.48
647.35	1312.81
647.69	1306.48
648.04	1300.07
648.38	1295.26
648.72	1289.19
649.06	1283.62
649.41	1277.86
649.75	1271.14
650.09	1266.31
650.43	1259.62
650.78	1253.02
651.12	1247.10
651.46	1240.71
651.80	1234.29
652.14	1227.93
652.49	1222.69
652.83	1215.69
653.17	1208.21
653.51	1201.29
653.85	1195.55
654.20	1189.45
654.54	1182.48
654.88	1176.29
655.22	1171.31
655.56	1163.81
655.90	1157.10
656.25	1150.19
656.59	1142.74
656.93	1136.43
657.27	1130.40
657.61	1124.57
657.95	1118.64
658.29	1112.52
658.64	1106.69
658.98	1099.93
659.32	1092.74
659.66	1086.29
660.00	1080.10
660.34	1073.98
660.68	1067.69
661.02	1061.31
661.36	1054.69
661.70	1049.55
662.05	1043.00
662.39	1035.95
662.73	1031.00
663.07	1025.64
663.41	1019.81
663.75	1014.21
664.09	1009.12
664.43	1002.31
664.77	995.71
665.11	988.67
665.45	982.64
665.79	976.45
666.13	970.50
666.47	965.26
666.81	958.81
667.15	952.88
667.49	947.38
667.83	943.02
668.17	937.26
668.51	932.17
668.85	926.52
669.19	922.29
669.53	916.43
669.87	909.95
670.21	904.31
670.55	898.21
670.89	893.52
671.23	888.02
671.57	882.62
671.91	877.64
672.25	872.98
672.58	868.07
672.92	862.67
673.26	857.10
673.60	852.05
673.94	847.17
674.28	842.36
674.62	837.57
674.96	831.76
675.30	826.60
675.64	821.07
675.97	816.05
676.31	810.31
676.65	804.98
676.99	801.17
677.33	795.98
677.67	791.90
678.01	785.88
678.34	781.00
678.68	776.57
679.02	771.10
679.36	765.74
679.70	760.86
680.04	755.62
680.37	750.88
680.71	745.57
681.05	741.10
681.39	736.33
681.73	731.67
682.06	726.86
682.40	722.57
682.74	718.43
683.08	713.83
683.42	709.31
683.75	705.86
684.09	700.19
684.43	694.71
684.77	689.55
685.10	685.55
685.44	680.52
685.78	675.33
686.12	671.02
686.45	666.83
686.79	661.43
687.13	657.69
687.46	653.31
687.80	649.81
688.14	644.93
688.48	640.67
688.81	635.93
689.15	632.19
689.49	626.95
689.82	622.05
690.16	617.12
690.50	612.45
690.83	607.17
691.17	602.26
691.51	598.02
691.84	593.76
692.18	588.64
692.52	584.76
692.85	581.33
693.19	578.69
693.52	574.69
693.86	570.90
694.20	566.64
694.53	562.83
694.87	558.31
695.21	554.50
695.54	550.07
695.88	545.93
696.21	540.33
696.55	536.83
696.88	533.33
697.22	529.90
697.56	526.86
697.89	523.55
698.23	520.93
698.56	517.40
698.90	514.57
699.23	511.57
699.57	508.31
699.90	504.48
700.24	500.33
700.58	496.43
700.91	493.31
701.25	491.33
701.58	488.76
701.92	486.38
702.25	483.31
702.59	479.79
702.92	476.60
703.26	474.40
703.59	471.74
703.93	470.24
704.26	467.64
704.60	464.60
704.93	461.29
705.26	458.05
705.60	455.83
705.93	452.21
706.27	449.95
706.60	447.31
706.94	445.12
707.27	442.31
707.61	439.86
707.94	436.88
708.27	432.71
708.61	429.21
708.94	425.83
709.28	423.45
709.61	421.38
709.94	419.05
710.28	416.52
710.61	413.67
710.95	409.50
711.28	408.10
711.61	405.29
711.95	403.36
712.28	400.81
712.61	398.05
712.95	396.60
713.28	394.76
713.61	391.67
713.95	388.76
714.28	386.38
714.61	384.45
714.95	382.33
715.28	380.05
715.61	377.86
715.95	376.12
716.28	373.98
716.61	372.36
716.95	370.00
717.28	367.76
717.61	365.74
717.94	363.76
718.28	360.52
718.61	358.95
718.94	356.69
719.27	354.79
719.61	353.26
719.94	351.05
720.27	348.33
720.60	346.79
720.94	345.40
721.27	343.81
721.60	342.52
721.93	341.10
722.27	340.52
722.60	339.17
722.93	337.38
723.26	335.83
723.59	333.69
723.93	332.67
724.26	331.57
724.59	330.36
724.92	329.33
725.25	328.67
725.59	326.98
725.92	326.14
726.25	325.00
726.58	323.81
726.91	322.60
727.24	321.60
727.57	320.83
727.91	319.40
728.24	318.19
728.57	316.55
728.90	315.67
729.23	313.69
729.56	313.50
729.89	312.57
730.22	311.52
730.55	310.26
730.89	309.14
731.22	308.10
731.55	306.88
731.88	305.76
732.21	304.19
732.54	303.14
732.87	302.21
733.20	301.26
733.53	300.45
733.86	299.64
734.19	298.33
734.52	297.10
734.85	297.55
735.18	296.83
735.51	296.52
735.84	295.40
736.17	295.12
736.50	293.31
736.83	294.62
737.16	293.62
737.49	292.62
737.82	291.74
738.15	290.76
738.48	290.00
738.81	289.02
739.14	288.14
739.47	287.17
739.80	286.02
740.13	285.48
740.46	284.19
740.79	282.86
741.12	282.05
741.45	280.93
741.78	278.86
742.11	278.71
742.44	277.64
742.77	277.29
743.10	276.33
743.43	275.21
743.75	272.12
744.08	273.90
744.41	273.38
744.74	272.60
745.07	271.62
745.40	270.95
745.73	271.38
746.06	270.48
746.39	270.31
746.71	269.36
747.04	268.19
747.37	267.48
747.70	267.26
748.03	266.90
748.36	266.86
748.68	266.21
749.01	264.67
749.34	263.95
749.67	263.21
750.00	262.81
750.33	264.17
750.65	263.93
750.98	260.98
751.31	260.64
751.64	260.07
751.97	260.98
752.29	260.57
752.62	258.86
752.95	258.45
753.28	257.57
753.60	257.19
753.93	257.36
754.26	256.95
754.59	255.76
754.91	254.88
755.24	254.07
755.57	253.64
755.90	253.21
756.22	252.43
756.55	251.62
756.88	250.62
757.20	248.45
757.53	247.21
757.86	246.69
758.19	246.10
758.51	245.71
758.84	243.98
759.17	243.26
759.49	243.17
759.82	243.62
760.15	243.33
760.47	242.81
760.80	241.60
761.13	241.52
761.45	241.07
761.78	240.79
762.11	240.57
762.43	239.88
762.76	239.33
763.08	239.24
763.41	239.14
763.74	239.02
764.06	238.88
764.39	238.88
764.71	238.38
765.04	237.98
765.37	237.26
765.69	237.00
766.02	236.71
766.34	236.02
766.67	235.05
767.00	235.21
767.32	236.21
767.65	237.24
767.97	236.95
768.30	236.98
768.62	236.67
768.95	236.07
769.27	235.90
769.60	235.88
769.92	235.43
770.25	234.93
770.57	234.17
770.90	233.86
771.22	233.45
771.55	233.60
771.87	233.57
772.20	233.33
772.52	234.79
772.85	237.24
773.17	237.38
773.50	237.10
773.82	236.43
774.15	235.07
774.47	233.67
774.80	232.95
775.12	232.90
775.45	232.76
775.77	232.79
776.09	232.88
776.42	232.83
776.74	233.24
777.07	232.79
777.39	232.81
777.72	232.38
778.04	232.40
778.36	231.74
778.69	231.40
779.01	231.60
779.33	229.86
779.66	227.36
779.98	226.62
780.31	226.43
780.63	227.14
780.95	227.33
781.28	227.40
781.60	227.45
781.92	227.05
782.25	226.90
782.57	226.55
782.89	226.29
783.22	226.00
783.54	225.40
783.86	225.57
784.19	225.40
784.51	226.02
784.83	225.55
785.16	225.60
