SpectraSuite Data File
++++++++++++++++++++++++++++++++++++
Date: Tue Apr 02 18:46:21 EDT 2013
User: group
Dark Spectrum Present: No
Reference Spectrum Present: No
Number of Sampled Component Spectra: 1
Spectrometers: USB2E7196
Integration Time (usec): 580000 (USB2E7196)
Spectra Averaged: 2 (USB2E7196)
Boxcar Smoothing: 10 (USB2E7196)
Correct for Electrical Dark: No (USB2E7196)
Strobe/Lamp Enabled: No (USB2E7196)
Correct for Detector Non-linearity: No (USB2E7196)
Correct for Stray Light: No (USB2E7196)
Number of Pixels in Processed Spectrum: 2048
>>>>>Begin Processed Spectral Data<<<<<
339.09	0.00
339.48	193.00
339.86	196.00
340.24	197.00
340.63	198.50
341.01	226.50
341.39	198.50
341.78	204.00
342.16	209.00
342.54	202.00
342.93	197.69
343.31	207.79
343.69	208.38
344.07	208.83
344.46	209.52
344.84	210.14
345.22	209.38
345.60	210.19
345.99	210.57
346.37	210.71
346.75	211.14
347.13	211.24
347.52	211.29
347.90	212.05
348.28	212.02
348.66	212.57
349.05	211.95
349.43	212.40
349.81	212.60
350.19	212.62
350.57	212.81
350.96	213.10
351.34	213.19
351.72	213.38
352.10	213.60
352.48	213.52
352.87	213.45
353.25	213.48
353.63	213.19
354.01	213.24
354.39	213.31
354.77	213.29
355.15	213.98
355.54	213.88
355.92	213.21
356.30	213.48
356.68	214.69
357.06	214.71
357.44	214.26
357.82	214.29
358.20	215.31
358.58	215.12
358.97	215.10
359.35	215.40
359.73	215.93
360.11	216.10
360.49	216.24
360.87	216.14
361.25	216.38
361.63	217.19
362.01	217.26
362.39	216.93
362.77	217.02
363.15	216.79
363.53	216.83
363.91	217.12
364.29	217.00
364.67	215.10
365.05	214.98
365.43	215.12
365.81	215.19
366.19	215.05
366.57	215.88
366.95	215.79
367.33	215.21
367.71	215.07
368.09	215.31
368.47	215.31
368.85	215.29
369.23	215.88
369.61	215.05
369.99	215.57
370.37	216.07
370.75	216.90
371.13	216.57
371.51	216.07
371.89	216.02
372.27	216.05
372.65	216.24
373.03	216.62
373.41	216.55
373.78	216.43
374.16	215.57
374.54	214.98
374.92	214.52
375.30	214.67
375.68	214.17
376.06	214.31
376.44	213.88
376.82	213.93
377.19	213.36
377.57	213.31
377.95	212.69
378.33	212.26
378.71	211.26
379.09	211.69
379.47	212.00
379.84	212.12
380.22	212.10
380.60	211.69
380.98	211.33
381.36	211.38
381.73	211.29
382.11	211.69
382.49	211.83
382.87	211.90
383.25	211.95
383.62	214.52
384.00	213.90
384.38	214.12
384.76	214.88
385.13	215.81
385.51	215.69
385.89	215.43
386.27	215.88
386.64	216.00
387.02	215.52
387.40	215.40
387.78	215.29
388.15	215.33
388.53	215.48
388.91	215.60
389.29	215.55
389.66	215.69
390.04	215.36
390.42	215.33
390.79	215.76
391.17	215.88
391.55	213.45
391.92	213.52
392.30	213.93
392.68	213.40
393.05	213.14
393.43	213.31
393.81	213.52
394.18	213.21
394.56	213.64
394.94	214.17
395.31	214.10
395.69	214.86
396.06	215.17
396.44	215.31
396.82	215.17
397.19	216.12
397.57	215.90
397.95	216.43
398.32	216.10
398.70	216.10
399.07	216.43
399.45	216.38
399.82	216.45
400.20	216.24
400.58	216.43
400.95	215.93
401.33	216.43
401.70	218.14
402.08	218.21
402.45	218.00
402.83	218.57
403.20	218.76
403.58	218.52
403.95	218.98
404.33	219.26
404.71	219.64
405.08	220.79
405.46	221.14
405.83	221.21
406.21	221.81
406.58	222.40
406.96	222.40
407.33	223.31
407.70	223.90
408.08	225.88
408.45	226.48
408.83	227.33
409.20	227.93
409.58	227.31
409.95	228.69
410.33	229.67
410.70	229.90
411.08	231.19
411.45	232.24
411.82	232.98
412.20	234.81
412.57	237.14
412.95	236.76
413.32	238.60
413.69	239.90
414.07	241.31
414.44	242.86
414.82	244.98
415.19	247.17
415.56	249.67
415.94	250.86
416.31	253.88
416.68	256.88
417.06	260.05
417.43	263.43
417.81	266.67
418.18	270.57
418.55	274.45
418.93	278.40
419.30	282.45
419.67	286.93
420.04	290.98
420.42	295.19
420.79	302.24
421.16	307.79
421.54	314.95
421.91	321.36
422.28	327.33
422.66	333.43
423.03	341.21
423.40	347.76
423.77	355.05
424.15	361.76
424.52	368.83
424.89	377.17
425.26	384.50
425.64	392.21
426.01	400.26
426.38	408.74
426.75	418.36
427.13	427.60
427.50	437.29
427.87	447.45
428.24	457.60
428.61	466.36
428.99	477.86
429.36	487.93
429.73	498.69
430.10	510.33
430.47	522.38
430.85	533.14
431.22	545.74
431.59	560.74
431.96	573.64
432.33	587.98
432.70	601.45
433.08	617.55
433.45	632.64
433.82	648.00
434.19	665.00
434.56	681.62
434.93	696.71
435.30	712.14
435.68	729.48
436.05	746.14
436.42	762.67
436.79	777.79
437.16	795.10
437.53	813.31
437.90	830.98
438.27	848.90
438.64	866.36
439.01	883.60
439.38	896.45
439.75	910.98
440.13	927.60
440.50	943.24
440.87	955.52
441.24	968.50
441.61	982.86
441.98	993.60
442.35	1005.19
442.72	1018.00
443.09	1031.12
443.46	1038.40
443.83	1043.24
444.20	1047.64
444.57	1053.45
444.94	1056.33
445.31	1059.88
445.68	1065.33
446.05	1066.67
446.42	1065.45
446.79	1063.62
447.16	1062.21
447.53	1061.00
447.90	1054.31
448.27	1048.24
448.64	1040.45
449.01	1034.67
449.37	1023.57
449.74	1012.48
450.11	1001.29
450.48	987.38
450.85	971.93
451.22	960.05
451.59	949.07
451.96	937.74
452.33	922.67
452.70	908.60
453.07	891.38
453.43	871.81
453.80	855.26
454.17	840.57
454.54	826.29
454.91	810.05
455.28	793.86
455.65	779.21
456.02	767.38
456.38	754.67
456.75	739.29
457.12	726.33
457.49	713.48
457.86	699.26
458.23	689.21
458.59	677.79
458.96	665.48
459.33	654.81
459.70	644.38
460.07	636.00
460.43	626.19
460.80	618.02
461.17	611.02
461.54	602.90
461.91	594.24
462.27	585.33
462.64	578.76
463.01	571.88
463.38	565.45
463.74	554.81
464.11	548.29
464.48	542.33
464.85	535.76
465.21	531.90
465.58	527.26
465.95	520.69
466.32	515.74
466.68	510.71
467.05	505.43
467.42	500.50
467.78	495.19
468.15	490.93
468.52	486.90
468.88	481.40
469.25	476.83
469.62	473.38
469.98	469.71
470.35	466.19
470.72	462.55
471.08	457.95
471.45	455.64
471.82	452.71
472.18	449.10
472.55	446.79
472.92	442.62
473.28	439.29
473.65	436.19
474.02	433.62
474.38	431.67
474.75	430.07
475.11	428.02
475.48	426.48
475.85	424.26
476.21	422.24
476.58	420.86
476.94	419.67
477.31	418.31
477.67	416.95
478.04	415.74
478.41	415.12
478.77	416.81
479.14	415.62
479.50	415.10
479.87	415.38
480.23	414.90
480.60	414.69
480.96	414.21
481.33	415.38
481.69	415.24
482.06	415.31
482.42	415.52
482.79	415.93
483.15	416.17
483.52	417.24
483.88	417.55
484.25	417.86
484.61	418.40
484.98	419.19
485.34	420.83
485.71	421.88
486.07	423.12
486.44	422.55
486.80	424.14
487.17	425.71
487.53	427.83
487.90	429.83
488.26	433.07
488.62	436.21
488.99	437.79
489.35	440.79
489.72	443.29
490.08	446.07
490.44	448.64
490.81	451.83
491.17	454.74
491.54	458.93
491.90	463.29
492.26	467.19
492.63	470.79
492.99	474.43
493.36	478.69
493.72	483.19
494.08	487.29
494.45	491.93
494.81	496.36
495.17	500.76
495.54	506.07
495.90	510.45
496.26	515.52
496.63	520.81
496.99	525.55
497.35	531.48
497.72	536.74
498.08	542.67
498.44	548.79
498.80	555.40
499.17	561.21
499.53	566.90
499.89	573.83
500.26	580.76
500.62	587.67
500.98	595.29
501.34	602.31
501.71	609.95
502.07	616.90
502.43	624.38
502.79	631.69
503.16	638.71
503.52	646.21
503.88	653.00
504.24	660.83
504.60	668.64
504.97	676.12
505.33	684.00
505.69	692.62
506.05	700.93
506.41	708.55
506.78	716.12
507.14	724.24
507.50	731.93
507.86	740.05
508.22	747.52
508.59	754.67
508.95	763.00
509.31	771.81
509.67	780.14
510.03	787.64
510.39	795.26
510.75	803.24
511.12	810.93
511.48	819.14
511.84	826.74
512.20	834.00
512.56	842.14
512.92	850.05
513.28	857.40
513.64	864.05
514.00	871.05
514.37	878.71
514.73	885.98
515.09	893.55
515.45	900.52
515.81	907.76
516.17	914.38
516.53	920.43
516.89	926.00
517.25	932.40
517.61	939.19
517.97	945.17
518.33	951.10
518.69	957.74
519.05	963.79
519.41	970.00
519.77	977.45
520.13	983.07
520.49	988.29
520.85	993.36
521.21	1000.10
521.57	1006.64
521.93	1011.43
522.29	1016.60
522.65	1020.79
523.01	1025.98
523.37	1030.52
523.73	1036.36
524.09	1041.40
524.45	1045.90
524.81	1050.36
525.17	1055.38
525.53	1060.29
525.89	1065.05
526.25	1070.26
526.61	1074.31
526.97	1078.43
527.33	1081.88
527.68	1088.17
528.04	1092.40
528.40	1096.74
528.76	1100.71
529.12	1104.55
529.48	1109.33
529.84	1113.81
530.20	1118.86
530.56	1123.17
530.91	1128.52
531.27	1132.24
531.63	1136.21
531.99	1139.98
532.35	1143.90
532.71	1147.57
533.07	1151.93
533.42	1159.10
533.78	1162.76
534.14	1168.24
534.50	1172.36
534.86	1177.31
535.21	1179.50
535.57	1184.24
535.93	1188.31
536.29	1192.40
536.65	1196.69
537.00	1200.38
537.36	1203.64
537.72	1206.90
538.08	1210.33
538.44	1212.93
538.79	1216.79
539.15	1220.26
539.51	1224.48
539.87	1228.14
540.22	1231.31
540.58	1234.45
540.94	1235.02
541.29	1237.90
541.65	1239.21
542.01	1242.71
542.37	1245.07
542.72	1246.93
543.08	1248.69
543.44	1251.71
543.79	1252.50
544.15	1255.48
544.51	1258.69
544.87	1262.55
545.22	1265.05
545.58	1267.07
545.94	1269.26
546.29	1271.40
546.65	1274.02
547.01	1275.55
547.36	1277.36
547.72	1279.43
548.07	1282.10
548.43	1284.36
548.79	1286.48
549.14	1289.12
549.50	1292.24
549.86	1294.50
550.21	1297.71
550.57	1301.48
550.92	1303.12
551.28	1307.00
551.64	1309.67
551.99	1311.57
552.35	1313.31
552.70	1316.69
553.06	1320.67
553.41	1324.31
553.77	1328.86
554.13	1332.10
554.48	1337.24
554.84	1342.10
555.19	1346.64
555.55	1351.60
555.90	1355.60
556.26	1358.67
556.61	1362.64
556.97	1364.69
557.32	1367.21
557.68	1370.48
558.03	1373.76
558.39	1377.48
558.74	1381.05
559.10	1384.26
559.45	1389.07
559.81	1393.36
560.16	1397.26
560.52	1400.64
560.87	1405.14
561.23	1408.24
561.58	1413.98
561.94	1417.36
562.29	1421.36
562.64	1425.31
563.00	1428.26
563.35	1432.62
563.71	1437.74
564.06	1443.05
564.42	1448.43
564.77	1454.74
565.12	1460.62
565.48	1467.57
565.83	1473.60
566.19	1478.71
566.54	1483.98
566.89	1488.64
567.25	1494.62
567.60	1501.19
567.96	1509.00
568.31	1515.14
568.66	1521.29
569.02	1524.93
569.37	1530.05
569.72	1535.24
570.08	1540.69
570.43	1545.48
570.78	1551.40
571.14	1557.17
571.49	1561.98
571.84	1567.86
572.20	1572.76
572.55	1577.36
572.90	1580.36
573.26	1585.36
573.61	1590.00
573.96	1595.02
574.31	1599.45
574.67	1603.98
575.02	1606.60
575.37	1608.71
575.72	1611.90
576.08	1615.83
576.43	1620.12
576.78	1623.62
577.13	1626.64
577.49	1630.55
577.84	1635.07
578.19	1637.93
578.54	1641.48
578.90	1646.12
579.25	1649.57
579.60	1652.93
579.95	1656.33
580.30	1659.93
580.66	1663.12
581.01	1667.07
581.36	1670.45
581.71	1675.02
582.06	1679.21
582.42	1683.10
582.77	1685.88
583.12	1689.79
583.47	1693.48
583.82	1696.76
584.17	1700.55
584.53	1705.00
584.88	1708.62
585.23	1712.31
585.58	1715.07
585.93	1718.45
586.28	1720.98
586.63	1723.60
586.98	1727.57
587.34	1730.79
587.69	1734.02
588.04	1737.05
588.39	1739.71
588.74	1741.40
589.09	1743.55
589.44	1743.71
589.79	1746.76
590.14	1749.83
590.49	1750.31
590.84	1751.36
591.19	1753.29
591.54	1754.95
591.89	1756.64
592.25	1759.93
592.60	1760.52
592.95	1762.95
593.30	1764.83
593.65	1765.69
594.00	1766.43
594.35	1773.36
594.70	1774.88
595.05	1776.21
595.40	1776.43
595.75	1777.36
596.10	1778.86
596.45	1780.07
596.80	1781.83
597.15	1782.60
597.50	1782.38
597.85	1785.43
598.19	1786.12
598.54	1786.76
598.89	1788.05
599.24	1788.83
599.59	1787.36
599.94	1787.81
600.29	1788.05
600.64	1787.55
600.99	1788.48
601.34	1789.62
601.69	1782.55
602.04	1781.36
602.39	1780.48
602.74	1781.83
603.08	1781.26
603.43	1782.12
603.78	1781.36
604.13	1781.31
604.48	1780.69
604.83	1781.86
605.18	1781.81
605.53	1781.83
605.87	1781.10
606.22	1780.10
606.57	1778.31
606.92	1776.98
607.27	1776.43
607.62	1775.52
607.96	1774.60
608.31	1773.05
608.66	1771.79
609.01	1771.24
609.36	1770.93
609.70	1769.67
610.05	1767.02
610.40	1766.45
610.75	1763.88
611.10	1761.67
611.44	1758.60
611.79	1756.14
612.14	1752.71
612.49	1747.21
612.83	1744.48
613.18	1741.98
613.53	1740.21
613.88	1737.67
614.22	1735.33
614.57	1731.33
614.92	1727.74
615.27	1724.31
615.61	1721.14
615.96	1717.79
616.31	1714.93
616.65	1712.38
617.00	1709.33
617.35	1706.64
617.70	1703.52
618.04	1700.43
618.39	1696.57
618.74	1694.00
619.08	1689.81
619.43	1686.64
619.78	1684.93
620.12	1681.55
620.47	1678.29
620.82	1673.00
621.16	1667.95
621.51	1665.55
621.85	1662.81
622.20	1658.76
622.55	1654.69
622.89	1651.36
623.24	1648.48
623.59	1644.40
623.93	1640.14
624.28	1637.19
624.62	1635.05
624.97	1631.98
625.32	1626.29
625.66	1623.55
626.01	1619.52
626.35	1617.26
626.70	1613.95
627.04	1610.98
627.39	1606.02
627.73	1602.86
628.08	1600.36
628.43	1597.64
628.77	1593.19
629.12	1589.93
629.46	1587.24
629.81	1583.76
630.15	1579.38
630.50	1574.40
630.84	1570.10
631.19	1564.98
631.53	1559.88
631.88	1553.17
632.22	1546.74
632.57	1544.14
632.91	1538.43
633.26	1534.00
633.60	1527.55
633.95	1521.26
634.29	1515.86
634.64	1511.71
634.98	1505.71
635.32	1501.38
635.67	1497.50
636.01	1492.88
636.36	1487.38
636.70	1482.33
637.05	1477.69
637.39	1473.50
637.73	1468.88
638.08	1465.00
638.42	1460.40
638.77	1455.48
639.11	1450.62
639.45	1446.26
639.80	1440.81
640.14	1436.86
640.49	1431.64
640.83	1427.02
641.17	1423.50
641.52	1417.90
641.86	1413.43
642.20	1409.40
642.55	1403.00
642.89	1397.07
643.23	1391.38
643.58	1386.98
643.92	1381.02
644.26	1375.74
644.61	1369.83
644.95	1364.19
645.29	1357.71
645.64	1352.93
645.98	1347.48
646.32	1342.67
646.66	1336.55
647.01	1330.69
647.35	1325.40
647.69	1320.38
648.04	1315.45
648.38	1309.86
648.72	1304.43
649.06	1298.21
649.41	1292.14
649.75	1285.40
650.09	1279.55
650.43	1273.00
650.78	1266.26
651.12	1260.40
651.46	1254.07
651.80	1247.93
652.14	1242.31
652.49	1236.98
652.83	1230.74
653.17	1224.26
653.51	1217.71
653.85	1212.10
654.20	1205.83
654.54	1198.00
654.88	1191.36
655.22	1186.17
655.56	1179.52
655.90	1172.60
656.25	1166.17
656.59	1159.93
656.93	1155.05
657.27	1149.71
657.61	1143.43
657.95	1138.26
658.29	1131.26
658.64	1125.74
658.98	1119.24
659.32	1112.26
659.66	1104.93
660.00	1098.19
660.34	1092.02
660.68	1086.17
661.02	1080.12
661.36	1073.95
661.70	1069.45
662.05	1063.17
662.39	1056.74
662.73	1051.55
663.07	1047.17
663.41	1041.52
663.75	1035.71
664.09	1030.12
664.43	1023.98
664.77	1018.31
665.11	1011.69
665.45	1006.88
665.79	1001.12
666.13	995.74
666.47	991.14
666.81	986.29
667.15	980.74
667.49	975.88
667.83	970.69
668.17	965.05
668.51	959.40
668.85	953.55
669.19	948.88
669.53	942.52
669.87	936.48
670.21	930.64
670.55	925.21
670.89	920.24
671.23	914.71
671.57	909.55
671.91	904.62
672.25	899.17
672.58	895.12
672.92	888.98
673.26	884.43
673.60	878.52
673.94	872.95
674.28	868.17
674.62	863.62
674.96	858.24
675.30	852.93
675.64	848.10
675.97	842.69
676.31	836.90
676.65	831.81
676.99	828.26
677.33	822.50
677.67	817.98
678.01	812.60
678.34	807.64
678.68	803.14
679.02	798.24
679.36	792.93
679.70	786.98
680.04	782.31
680.37	776.74
680.71	771.88
681.05	767.55
681.39	762.88
681.73	757.50
682.06	752.74
682.40	748.60
682.74	744.62
683.08	740.98
683.42	736.81
683.75	732.60
684.09	726.50
684.43	722.10
684.77	717.02
685.10	712.17
685.44	707.74
685.78	702.29
686.12	697.79
686.45	693.67
686.79	688.50
687.13	684.79
687.46	680.02
687.80	675.88
688.14	671.36
688.48	666.79
688.81	662.26
689.15	658.29
689.49	653.52
689.82	649.14
690.16	643.74
690.50	639.19
690.83	634.43
691.17	629.52
691.51	625.50
691.84	621.31
692.18	617.00
692.52	612.79
692.85	609.14
693.19	605.67
693.52	601.64
693.86	597.86
694.20	593.29
694.53	589.67
694.87	585.24
695.21	580.81
695.54	576.67
695.88	572.38
696.21	567.86
696.55	563.69
696.88	559.36
697.22	555.33
697.56	551.45
697.89	547.48
698.23	544.31
698.56	540.29
698.90	536.69
699.23	532.81
699.57	528.98
699.90	524.52
700.24	519.93
700.58	516.17
700.91	512.83
701.25	510.95
701.58	508.19
701.92	505.36
702.25	502.52
702.59	498.93
702.92	495.36
703.26	492.29
703.59	489.24
703.93	487.71
704.26	484.88
704.60	481.88
704.93	478.76
705.26	475.43
705.60	472.98
705.93	469.62
706.27	467.19
706.60	464.43
706.94	462.86
707.27	459.90
707.61	456.74
707.94	453.55
708.27	448.93
708.61	445.43
708.94	442.26
709.28	439.33
709.61	436.71
709.94	434.33
710.28	431.31
710.61	428.76
710.95	424.50
711.28	423.24
711.61	420.69
711.95	418.93
712.28	416.86
712.61	413.86
712.95	412.48
713.28	410.98
713.61	408.43
713.95	405.31
714.28	403.40
714.61	401.45
714.95	399.40
715.28	397.33
715.61	394.57
715.95	392.52
716.28	389.98
716.61	388.36
716.95	386.17
717.28	384.10
717.61	381.83
717.94	379.71
718.28	376.33
718.61	374.21
718.94	371.71
719.27	369.33
719.61	367.48
719.94	365.12
720.27	362.19
720.60	359.86
720.94	358.02
721.27	356.31
721.60	355.07
721.93	352.95
722.27	351.69
722.60	350.71
722.93	348.93
723.26	347.50
723.59	345.69
723.93	344.40
724.26	343.17
724.59	341.48
724.92	340.05
725.25	339.02
725.59	337.64
725.92	336.93
726.25	335.64
726.58	334.48
726.91	332.98
727.24	331.79
727.57	330.62
727.91	329.07
728.24	327.71
728.57	325.81
728.90	325.17
729.23	323.38
729.56	322.79
729.89	321.48
730.22	320.24
730.55	318.64
730.89	317.24
731.22	315.88
731.55	314.79
731.88	313.55
732.21	312.14
732.54	310.64
732.87	309.24
733.20	308.17
733.53	307.02
733.86	305.95
734.19	304.60
734.52	303.81
734.85	304.17
735.18	302.86
735.51	302.62
735.84	301.69
736.17	301.21
736.50	299.52
736.83	301.10
737.16	300.12
737.49	299.48
737.82	298.48
738.15	297.67
738.48	296.74
738.81	295.74
739.14	294.90
739.47	294.02
739.80	292.57
740.13	292.12
740.46	290.64
740.79	289.48
741.12	288.71
741.45	287.60
741.78	285.74
742.11	285.48
742.44	284.36
742.77	283.90
743.10	282.55
743.43	281.10
743.75	277.88
744.08	279.55
744.41	278.52
744.74	277.55
745.07	276.38
745.40	275.90
745.73	276.12
746.06	275.21
746.39	274.88
746.71	274.31
747.04	273.14
747.37	272.64
747.70	272.40
748.03	271.69
748.36	271.29
748.68	270.33
749.01	268.81
749.34	267.90
749.67	266.90
750.00	266.79
750.33	267.81
750.65	267.36
750.98	264.55
751.31	263.86
751.64	263.48
751.97	264.10
752.29	263.60
752.62	262.33
752.95	261.62
753.28	260.95
753.60	260.19
753.93	260.10
754.26	259.52
754.59	258.00
754.91	257.07
755.24	256.43
755.57	255.93
755.90	255.62
756.22	254.71
756.55	253.98
756.88	253.10
757.20	251.43
757.53	250.40
757.86	249.74
758.19	249.55
758.51	249.00
758.84	247.40
759.17	246.50
759.49	246.05
759.82	246.81
760.15	246.31
760.47	245.95
760.80	245.19
761.13	244.86
761.45	244.60
761.78	244.43
762.11	243.93
762.43	243.38
762.76	242.98
763.08	243.07
763.41	242.74
763.74	242.29
764.06	242.07
764.39	242.02
764.71	241.48
765.04	241.02
765.37	240.43
765.69	240.26
766.02	239.90
766.34	239.29
766.67	237.90
767.00	237.90
767.32	238.57
767.65	239.21
767.97	238.98
768.30	238.71
768.62	238.48
768.95	238.02
769.27	238.02
769.60	237.90
769.92	237.26
770.25	236.57
770.57	236.10
770.90	235.81
771.22	235.55
771.55	235.50
771.87	235.31
772.20	235.17
772.52	236.60
772.85	238.98
773.17	239.00
773.50	238.79
773.82	238.24
774.15	237.29
774.47	235.83
774.80	235.69
775.12	235.43
775.45	235.19
775.77	235.07
776.09	234.79
776.42	234.60
776.74	234.93
777.07	234.83
777.39	234.64
777.72	234.02
778.04	233.57
778.36	233.07
778.69	232.76
779.01	232.74
779.33	230.60
779.66	228.02
779.98	227.71
780.31	227.62
780.63	228.19
780.95	228.29
781.28	228.31
781.60	227.98
781.92	227.88
782.25	227.62
782.57	227.48
782.89	226.98
783.22	226.79
783.54	226.40
783.86	226.55
784.19	226.40
784.51	226.88
784.83	226.40
