SpectraSuite Data File
++++++++++++++++++++++++++++++++++++
Date: Tue Apr 02 18:38:14 EDT 2013
User: group
Dark Spectrum Present: No
Reference Spectrum Present: No
Number of Sampled Component Spectra: 1
Spectrometers: USB2E7196
Integration Time (usec): 580000 (USB2E7196)
Spectra Averaged: 2 (USB2E7196)
Boxcar Smoothing: 10 (USB2E7196)
Correct for Electrical Dark: No (USB2E7196)
Strobe/Lamp Enabled: No (USB2E7196)
Correct for Detector Non-linearity: No (USB2E7196)
Correct for Stray Light: No (USB2E7196)
Number of Pixels in Processed Spectrum: 2048
>>>>>Begin Processed Spectral Data<<<<<
339.09	0.00
339.48	189.00
339.86	192.00
340.24	200.50
340.63	201.50
341.01	226.50
341.39	201.00
341.78	211.50
342.16	212.50
342.54	201.50
342.93	197.43
343.31	207.33
343.69	208.29
344.07	209.02
344.46	209.67
344.84	210.17
345.22	209.14
345.60	209.79
345.99	209.69
346.37	209.64
346.75	210.12
347.13	210.21
347.52	210.07
347.90	210.88
348.28	210.76
348.66	211.45
349.05	210.86
349.43	211.12
349.81	211.62
350.19	211.71
350.57	211.93
350.96	212.21
351.34	212.57
351.72	212.57
352.10	212.55
352.48	212.31
352.87	212.14
353.25	212.48
353.63	212.19
354.01	212.24
354.39	212.29
354.77	212.26
355.15	213.02
355.54	213.14
355.92	212.76
356.30	213.17
356.68	214.45
357.06	214.60
357.44	214.33
357.82	214.07
358.20	214.98
358.58	215.02
358.97	215.07
359.35	215.33
359.73	215.88
360.11	216.10
360.49	216.33
360.87	216.52
361.25	216.74
361.63	217.45
362.01	217.79
362.39	217.69
362.77	217.98
363.15	217.55
363.53	217.74
363.91	217.81
364.29	217.74
364.67	215.64
365.05	215.90
365.43	216.21
365.81	216.52
366.19	216.74
366.57	217.60
366.95	217.48
367.33	217.07
367.71	217.14
368.09	217.38
368.47	217.48
368.85	217.33
369.23	217.60
369.61	217.02
369.99	217.55
370.37	217.81
370.75	218.52
371.13	218.36
371.51	217.95
371.89	218.00
372.27	218.07
372.65	218.21
373.03	218.02
373.41	217.60
373.78	217.36
374.16	216.26
374.54	215.57
374.92	215.38
375.30	215.26
375.68	214.67
376.06	215.00
376.44	214.74
376.82	214.71
377.19	214.57
377.57	214.48
377.95	213.48
378.33	213.36
378.71	212.36
379.09	212.64
379.47	212.95
379.84	212.55
380.22	212.17
380.60	212.00
380.98	212.05
381.36	212.19
381.73	212.02
382.11	212.40
382.49	212.45
382.87	212.14
383.25	212.33
383.62	214.79
384.00	214.19
384.38	214.40
384.76	214.98
385.13	215.74
385.51	215.62
385.89	215.69
386.27	215.57
386.64	215.83
387.02	215.69
387.40	215.45
387.78	215.76
388.15	215.98
388.53	215.93
388.91	215.93
389.29	215.67
389.66	216.17
390.04	215.62
390.42	215.90
390.79	216.19
391.17	216.17
391.55	213.83
391.92	214.10
392.30	214.19
392.68	213.67
393.05	213.57
393.43	213.88
393.81	214.12
394.18	214.02
394.56	213.90
394.94	214.31
395.31	214.29
395.69	215.24
396.06	215.60
396.44	215.83
396.82	215.60
397.19	217.00
397.57	216.43
397.95	217.10
398.32	216.64
398.70	216.90
399.07	217.31
399.45	217.57
399.82	217.12
400.20	217.05
400.58	217.26
400.95	216.31
401.33	216.67
401.70	218.14
402.08	218.36
402.45	218.74
402.83	219.00
403.20	219.38
403.58	218.74
403.95	219.26
404.33	219.55
404.71	219.98
405.08	221.07
405.46	221.64
405.83	221.95
406.21	222.48
406.58	223.00
406.96	223.21
407.33	223.52
407.70	224.60
408.08	226.67
408.45	227.52
408.83	228.76
409.20	229.26
409.58	228.71
409.95	229.95
410.33	230.88
410.70	231.57
411.08	232.81
411.45	234.38
411.82	235.17
412.20	237.17
412.57	239.88
412.95	239.55
413.32	241.55
413.69	243.48
414.07	245.33
414.44	247.24
414.82	249.50
415.19	252.31
415.56	254.71
415.94	256.33
416.31	259.71
416.68	263.10
417.06	266.81
417.43	270.88
417.81	274.95
418.18	279.17
418.55	283.52
418.93	288.05
419.30	292.60
419.67	297.67
420.04	302.62
420.42	307.55
420.79	315.40
421.16	321.81
421.54	329.40
421.91	336.71
422.28	344.02
422.66	351.62
423.03	360.62
423.40	368.98
423.77	377.48
424.15	385.90
424.52	394.76
424.89	405.05
425.26	414.12
425.64	423.14
426.01	432.86
426.38	443.07
426.75	453.93
427.13	464.90
427.50	476.24
427.87	487.83
428.24	499.69
428.61	510.36
428.99	523.76
429.36	536.48
429.73	550.00
430.10	563.67
430.47	578.12
430.85	591.05
431.22	605.74
431.59	622.88
431.96	638.14
432.33	654.50
432.70	670.90
433.08	689.88
433.45	708.07
433.82	726.74
434.19	747.26
434.56	767.48
434.93	786.12
435.30	805.02
435.68	826.38
436.05	847.98
436.42	868.45
436.79	887.55
437.16	908.17
437.53	929.45
437.90	950.57
438.27	971.74
438.64	993.36
439.01	1014.43
439.38	1031.83
439.75	1050.21
440.13	1070.81
440.50	1089.67
440.87	1105.86
441.24	1122.07
441.61	1139.55
441.98	1152.67
442.35	1166.69
442.72	1182.74
443.09	1199.14
443.46	1208.19
443.83	1214.40
444.20	1220.10
444.57	1228.05
444.94	1232.52
445.31	1236.95
445.68	1243.33
446.05	1244.57
446.42	1243.26
446.79	1241.50
447.16	1239.05
447.53	1237.17
447.90	1229.81
448.27	1222.38
448.64	1211.81
449.01	1204.38
449.37	1190.79
449.74	1178.12
450.11	1164.69
450.48	1146.57
450.85	1128.10
451.22	1113.48
451.59	1098.48
451.96	1085.02
452.33	1065.90
452.70	1049.05
453.07	1028.43
453.43	1006.07
453.80	987.12
454.17	968.17
454.54	949.83
454.91	930.76
455.28	911.69
455.65	894.52
456.02	879.52
456.38	863.86
456.75	844.62
457.12	829.17
457.49	813.79
457.86	797.52
458.23	786.26
458.59	772.26
458.96	758.14
459.33	745.83
459.70	732.71
460.07	722.83
460.43	710.79
460.80	700.81
461.17	692.02
461.54	681.69
461.91	672.52
462.27	663.00
462.64	654.79
463.01	645.95
463.38	637.50
463.74	626.07
464.11	618.79
464.48	612.88
464.85	605.21
465.21	599.79
465.58	594.14
465.95	586.40
466.32	580.43
466.68	574.45
467.05	568.36
467.42	562.86
467.78	556.52
468.15	550.60
468.52	545.83
468.88	539.29
469.25	534.02
469.62	530.31
469.98	525.60
470.35	521.19
470.72	517.19
471.08	512.45
471.45	509.05
471.82	506.02
472.18	501.71
472.55	499.00
472.92	494.24
473.28	490.45
473.65	487.17
474.02	484.05
474.38	481.43
474.75	479.05
475.11	476.14
475.48	474.10
475.85	472.67
476.21	471.00
476.58	469.62
476.94	468.74
477.31	466.76
477.67	465.14
478.04	464.24
478.41	463.17
478.77	463.98
479.14	462.33
479.50	461.43
479.87	461.43
480.23	461.05
480.60	461.26
480.96	461.00
481.33	461.88
481.69	462.21
482.06	462.17
482.42	462.76
482.79	463.52
483.15	463.81
483.52	464.83
483.88	465.24
484.25	465.95
484.61	466.79
484.98	467.76
485.34	470.12
485.71	471.74
486.07	473.74
486.44	473.83
486.80	476.33
487.17	478.64
487.53	482.07
487.90	484.98
488.26	488.74
488.62	492.33
488.99	495.26
489.35	498.81
489.72	502.38
490.08	505.71
490.44	509.57
490.81	514.21
491.17	518.12
491.54	522.71
491.90	527.17
492.26	532.29
492.63	537.69
492.99	542.19
493.36	547.55
493.72	553.26
494.08	559.45
494.45	565.62
494.81	572.17
495.17	577.00
495.54	583.64
495.90	589.76
496.26	596.24
496.63	602.88
496.99	609.69
497.35	616.95
497.72	624.52
498.08	631.67
498.44	639.10
498.80	647.29
499.17	655.67
499.53	663.95
499.89	672.69
500.26	681.14
500.62	690.26
500.98	699.38
501.34	708.10
501.71	717.14
502.07	726.52
502.43	735.48
502.79	745.60
503.16	754.67
503.52	764.14
503.88	774.07
504.24	783.81
504.60	793.81
504.97	804.19
505.33	814.29
505.69	825.48
506.05	835.88
506.41	845.74
506.78	855.40
507.14	865.62
507.50	875.45
507.86	886.12
508.22	895.93
508.59	905.57
508.95	916.02
509.31	927.50
509.67	938.24
510.03	948.55
510.39	958.79
510.75	969.57
511.12	979.57
511.48	989.33
511.84	999.24
512.20	1009.00
512.56	1019.45
512.92	1029.55
513.28	1039.50
513.64	1049.02
514.00	1059.52
514.37	1069.81
514.73	1080.07
515.09	1090.76
515.45	1099.69
515.81	1109.21
516.17	1118.64
516.53	1127.60
516.89	1135.79
517.25	1144.60
517.61	1153.62
517.97	1161.43
518.33	1169.74
518.69	1179.36
519.05	1188.38
519.41	1196.93
519.77	1206.90
520.13	1213.93
520.49	1221.71
520.85	1229.26
521.21	1238.64
521.57	1245.86
521.93	1252.95
522.29	1259.98
522.65	1266.52
523.01	1274.43
523.37	1281.07
523.73	1288.10
524.09	1294.86
524.45	1300.60
524.81	1306.38
525.17	1312.02
525.53	1318.98
525.89	1324.95
526.25	1330.79
526.61	1336.21
526.97	1341.17
527.33	1346.33
527.68	1353.88
528.04	1359.45
528.40	1364.43
528.76	1368.81
529.12	1374.21
529.48	1380.07
529.84	1385.07
530.20	1389.10
530.56	1392.10
530.91	1397.07
531.27	1401.21
531.63	1406.19
531.99	1410.71
532.35	1414.93
532.71	1419.21
533.07	1423.31
533.42	1429.60
533.78	1433.50
534.14	1437.64
534.50	1441.83
534.86	1445.14
535.21	1446.88
535.57	1451.14
535.93	1454.40
536.29	1457.83
536.65	1461.12
537.00	1463.40
537.36	1466.81
537.72	1469.79
538.08	1473.86
538.44	1476.50
538.79	1478.93
539.15	1480.98
539.51	1484.12
539.87	1487.17
540.22	1489.76
540.58	1492.50
540.94	1492.45
541.29	1493.48
541.65	1493.95
542.01	1496.36
542.37	1497.02
542.72	1497.90
543.08	1498.24
543.44	1500.14
543.79	1499.76
544.15	1500.98
544.51	1502.02
544.87	1502.71
545.22	1504.95
545.58	1505.07
545.94	1505.19
546.29	1505.69
546.65	1505.90
547.01	1504.69
547.36	1503.48
547.72	1502.74
548.07	1501.55
548.43	1501.12
548.79	1500.57
549.14	1500.12
549.50	1498.88
549.86	1497.86
550.21	1497.55
550.57	1497.12
550.92	1494.93
551.28	1494.74
551.64	1493.76
551.99	1492.95
552.35	1491.00
552.70	1487.90
553.06	1487.43
553.41	1486.62
553.77	1486.60
554.13	1484.79
554.48	1485.26
554.84	1485.81
555.19	1485.71
555.55	1486.62
555.90	1485.19
556.26	1484.36
556.61	1483.40
556.97	1482.33
557.32	1481.40
557.68	1479.95
558.03	1477.86
558.39	1476.76
558.74	1475.14
559.10	1473.05
559.45	1471.48
559.81	1470.21
560.16	1468.50
560.52	1466.67
560.87	1465.74
561.23	1462.88
561.58	1462.88
561.94	1460.21
562.29	1456.88
562.64	1454.88
563.00	1450.90
563.35	1450.05
563.71	1448.10
564.06	1446.38
564.42	1444.88
564.77	1444.38
565.12	1443.36
565.48	1444.12
565.83	1442.86
566.19	1441.10
566.54	1438.86
566.89	1436.74
567.25	1435.69
567.60	1436.17
567.96	1435.62
568.31	1434.69
568.66	1434.33
569.02	1431.83
569.37	1429.71
569.72	1428.88
570.08	1426.36
570.43	1424.57
570.78	1422.26
571.14	1420.52
571.49	1419.02
571.84	1417.45
572.20	1414.69
572.55	1412.76
572.90	1408.07
573.26	1405.45
573.61	1402.71
573.96	1400.86
574.31	1397.76
574.67	1394.48
575.02	1389.57
575.37	1385.19
575.72	1380.57
576.08	1376.10
576.43	1372.19
576.78	1368.74
577.13	1364.26
577.49	1360.64
577.84	1356.64
578.19	1352.31
578.54	1348.07
578.90	1343.71
579.25	1338.90
579.60	1334.19
579.95	1328.69
580.30	1324.83
580.66	1320.50
581.01	1316.64
581.36	1311.45
581.71	1307.48
582.06	1304.36
582.42	1300.81
582.77	1295.88
583.12	1291.43
583.47	1286.81
583.82	1281.86
584.17	1277.26
584.53	1273.55
584.88	1269.36
585.23	1265.81
585.58	1261.26
585.93	1256.10
586.28	1251.83
586.63	1247.50
586.98	1243.26
587.34	1239.45
587.69	1234.02
588.04	1228.98
588.39	1223.95
588.74	1218.31
589.09	1213.88
589.44	1207.14
589.79	1202.36
590.14	1198.10
590.49	1193.10
590.84	1188.33
591.19	1184.45
591.54	1180.36
591.89	1175.57
592.25	1172.38
592.60	1166.93
592.95	1162.19
593.30	1158.43
593.65	1154.19
594.00	1148.95
594.35	1149.60
594.70	1144.52
595.05	1140.12
595.40	1135.81
595.75	1131.24
596.10	1127.64
596.45	1123.40
596.80	1119.60
597.15	1114.88
597.50	1109.76
597.85	1105.93
598.19	1101.90
598.54	1096.76
598.89	1091.86
599.24	1087.00
599.59	1080.93
599.94	1076.40
600.29	1072.07
600.64	1067.07
600.99	1062.50
601.34	1058.45
601.69	1047.79
602.04	1042.86
602.39	1038.52
602.74	1034.33
603.08	1029.64
603.43	1026.43
603.78	1021.17
604.13	1015.50
604.48	1010.52
604.83	1005.95
605.18	1001.31
605.53	997.26
605.87	992.26
606.22	987.88
606.57	983.24
606.92	977.95
607.27	973.17
607.62	968.29
607.96	964.10
608.31	959.31
608.66	954.71
609.01	950.02
609.36	945.95
609.70	941.33
610.05	936.19
610.40	932.29
610.75	926.64
611.10	922.55
611.44	919.10
611.79	914.38
612.14	910.07
612.49	904.19
612.83	898.19
613.18	893.86
613.53	888.40
613.88	883.45
614.22	879.00
614.57	874.45
614.92	869.14
615.27	864.45
615.61	858.57
615.96	853.17
616.31	848.98
616.65	845.07
617.00	840.83
617.35	836.33
617.70	830.81
618.04	826.36
618.39	821.69
618.74	817.05
619.08	812.79
619.43	808.48
619.78	804.86
620.12	800.83
620.47	797.31
620.82	793.17
621.16	788.98
621.51	785.67
621.85	781.38
622.20	777.43
622.55	772.62
622.89	769.07
623.24	765.10
623.59	761.10
623.93	757.02
624.28	753.00
624.62	751.36
624.97	749.81
625.32	745.83
625.66	741.52
626.01	737.57
626.35	733.95
626.70	730.14
627.04	727.07
627.39	723.55
627.73	720.26
628.08	717.02
628.43	712.98
628.77	708.45
629.12	705.14
629.46	702.33
629.81	699.29
630.15	695.93
630.50	692.98
630.84	689.45
631.19	684.98
631.53	681.02
631.88	675.10
632.22	668.95
632.57	666.19
632.91	662.60
633.26	659.00
633.60	655.12
633.95	651.26
634.29	646.62
634.64	643.07
634.98	638.83
635.32	635.98
635.67	633.36
636.01	630.33
636.36	626.95
636.70	623.74
637.05	619.90
637.39	616.29
637.73	613.00
638.08	610.14
638.42	606.93
638.77	604.07
639.11	601.00
639.45	598.14
639.80	594.43
640.14	591.50
640.49	588.43
640.83	584.83
641.17	581.98
641.52	578.71
641.86	575.86
642.20	573.60
642.55	569.57
642.89	566.10
643.23	562.52
643.58	559.69
643.92	556.21
644.26	553.67
644.61	551.26
644.95	547.86
645.29	544.24
645.64	542.10
645.98	538.81
646.32	536.07
646.66	533.07
647.01	529.67
647.35	527.07
647.69	524.33
648.04	522.55
648.38	520.05
648.72	517.52
649.06	514.69
649.41	510.76
649.75	508.02
650.09	505.26
650.43	502.88
650.78	499.50
651.12	496.71
651.46	493.79
651.80	490.79
652.14	488.31
652.49	486.33
652.83	482.71
653.17	480.43
653.51	477.81
653.85	475.71
654.20	473.17
654.54	470.26
654.88	467.40
655.22	465.14
655.56	462.55
655.90	460.40
656.25	457.71
656.59	456.00
656.93	453.90
657.27	452.29
657.61	449.81
657.95	448.10
658.29	445.90
658.64	443.79
658.98	441.62
659.32	439.21
659.66	436.67
660.00	435.17
660.34	433.10
660.68	430.69
661.02	428.64
661.36	426.71
661.70	424.48
662.05	422.40
662.39	420.31
662.73	419.05
663.07	418.31
663.41	416.40
663.75	414.12
664.09	412.14
664.43	409.67
664.77	408.12
665.11	405.69
665.45	403.79
665.79	402.21
666.13	400.19
666.47	398.38
666.81	396.67
667.15	394.40
667.49	392.69
667.83	392.05
668.17	390.05
668.51	388.62
668.85	387.62
669.19	386.76
669.53	384.45
669.87	382.02
670.21	379.33
670.55	378.05
670.89	377.43
671.23	376.00
671.57	374.86
671.91	373.19
672.25	372.00
672.58	371.33
672.92	369.69
673.26	368.33
673.60	366.88
673.94	365.40
674.28	364.50
674.62	363.64
674.96	361.71
675.30	361.02
675.64	359.57
675.97	358.07
676.31	356.43
676.65	355.26
676.99	354.69
677.33	353.19
677.67	351.98
678.01	349.86
678.34	348.52
678.68	347.05
679.02	345.79
679.36	344.38
679.70	342.55
680.04	341.43
680.37	340.21
680.71	339.14
681.05	338.02
681.39	337.07
681.73	335.48
682.06	334.24
682.40	332.79
682.74	331.81
683.08	331.81
683.42	330.33
683.75	329.60
684.09	327.64
684.43	326.93
684.77	325.71
685.10	324.48
685.44	323.45
685.78	322.36
686.12	321.43
686.45	320.57
686.79	319.24
687.13	318.45
687.46	317.50
687.80	316.93
688.14	315.95
688.48	314.74
688.81	313.76
689.15	313.07
689.49	312.00
689.82	310.90
690.16	308.48
690.50	307.74
690.83	306.38
691.17	305.48
691.51	304.45
691.84	303.76
692.18	302.62
692.52	301.88
692.85	301.31
693.19	301.05
693.52	300.07
693.86	299.12
694.20	297.81
694.53	297.14
694.87	295.71
695.21	294.64
695.54	293.90
695.88	292.71
696.21	291.45
696.55	290.45
696.88	289.95
697.22	289.19
697.56	288.64
697.89	287.79
698.23	287.48
698.56	286.55
698.90	285.55
699.23	284.98
699.57	284.24
699.90	283.10
700.24	281.69
700.58	281.40
700.91	281.31
701.25	282.14
701.58	281.93
701.92	281.62
702.25	280.79
702.59	279.76
702.92	279.29
703.26	278.76
703.59	278.24
703.93	278.93
704.26	278.71
704.60	278.00
704.93	277.10
705.26	276.14
705.60	275.57
705.93	275.02
706.27	275.05
706.60	274.55
706.94	274.74
707.27	274.05
707.61	273.26
707.94	272.36
708.27	270.45
708.61	269.21
708.94	268.45
709.28	268.52
709.61	267.90
709.94	267.64
710.28	266.98
710.61	266.69
710.95	264.36
711.28	264.86
711.61	264.50
711.95	264.45
712.28	263.93
712.61	263.55
712.95	263.98
713.28	264.29
713.61	263.60
713.95	262.45
714.28	262.19
714.61	261.62
714.95	261.12
715.28	260.45
715.61	259.93
715.95	259.98
716.28	258.98
716.61	259.10
716.95	258.24
717.28	257.95
717.61	257.36
717.94	257.19
718.28	255.38
718.61	254.67
718.94	254.00
719.27	253.50
719.61	253.14
719.94	252.07
720.27	250.48
720.60	249.83
720.94	249.38
721.27	248.98
721.60	248.86
721.93	248.33
722.27	248.52
722.60	248.52
722.93	247.76
723.26	247.55
723.59	246.76
723.93	246.60
724.26	246.36
724.59	245.86
724.92	245.33
725.25	245.60
725.59	245.21
725.92	245.12
726.25	244.64
726.58	244.36
726.91	244.07
727.24	243.98
727.57	243.86
727.91	243.31
728.24	243.33
728.57	242.60
728.90	242.88
729.23	242.17
729.56	242.83
729.89	242.50
730.22	242.14
730.55	241.81
730.89	241.60
731.22	241.26
731.55	241.24
731.88	241.26
732.21	240.60
732.54	240.31
732.87	240.00
733.20	240.00
733.53	239.81
733.86	239.76
734.19	239.21
734.52	239.24
734.85	240.45
735.18	239.71
735.51	240.40
735.84	239.90
736.17	240.05
736.50	238.67
736.83	240.69
737.16	240.64
737.49	240.60
737.82	240.29
738.15	240.31
738.48	239.86
738.81	239.64
739.14	239.21
739.47	238.88
739.80	238.79
740.13	238.86
740.46	238.19
740.79	237.57
741.12	237.43
741.45	236.90
741.78	235.69
742.11	236.24
742.44	235.36
742.77	235.45
743.10	234.74
743.43	234.38
743.75	232.14
744.08	234.81
744.41	234.26
744.74	233.93
745.07	233.26
745.40	233.45
745.73	233.98
746.06	233.88
746.39	233.81
746.71	233.45
747.04	233.02
747.37	232.71
747.70	233.02
748.03	232.93
748.36	233.07
748.68	232.83
749.01	231.88
749.34	231.88
749.67	231.69
750.00	232.21
750.33	233.88
750.65	234.02
750.98	231.14
751.31	231.02
751.64	231.05
751.97	232.21
752.29	231.79
752.62	230.64
752.95	230.57
753.28	230.38
753.60	230.31
753.93	230.79
754.26	230.88
754.59	230.02
754.91	229.57
755.24	229.00
755.57	228.83
755.90	228.52
756.22	228.12
756.55	227.62
756.88	227.00
757.20	225.33
757.53	224.57
757.86	224.62
758.19	224.76
758.51	224.60
758.84	223.33
759.17	223.26
759.49	223.24
759.82	224.26
760.15	224.55
760.47	224.36
760.80	223.60
761.13	223.98
761.45	223.76
761.78	223.93
762.11	224.12
762.43	224.02
762.76	224.24
763.08	224.38
763.41	224.52
763.74	224.62
764.06	224.40
764.39	224.33
764.71	224.00
765.04	223.55
765.37	223.29
765.69	223.12
766.02	222.88
766.34	222.50
766.67	221.45
767.00	221.69
767.32	222.86
767.65	224.07
767.97	223.86
768.30	223.98
768.62	223.64
768.95	223.36
769.27	223.07
769.60	223.29
769.92	222.90
770.25	222.69
770.57	222.17
770.90	222.02
771.22	221.81
771.55	221.76
771.87	222.02
772.20	221.98
772.52	223.67
772.85	226.24
773.17	226.55
773.50	226.38
773.82	225.64
774.15	224.67
774.47	223.17
774.80	223.00
775.12	223.00
775.45	223.00
775.77	223.07
776.09	223.29
776.42	222.95
776.74	223.88
777.07	223.57
777.39	223.50
777.72	223.24
778.04	223.62
778.36	223.26
778.69	223.02
779.01	223.10
779.33	221.31
779.66	219.10
779.98	219.05
780.31	218.83
780.63	219.64
780.95	219.55
781.28	219.60
781.60	219.12
781.92	218.88
782.25	218.88
782.57	218.71
782.89	218.43
783.22	218.43
783.54	217.62
783.86	217.93
784.19	218.07
784.51	218.98
784.83	218.26
785.16	218.31
785.48	218.45
785.80	218.38
786.12	218.67
786.45	218.29
786.77	218.19
787.09	218.26
787.42	217.69
787.74	217.83
