SpectraSuite Data File
++++++++++++++++++++++++++++++++++++
Date: Tue Apr 02 18:42:45 EDT 2013
User: group
Dark Spectrum Present: No
Reference Spectrum Present: No
Number of Sampled Component Spectra: 1
Spectrometers: USB2E7196
Integration Time (usec): 580000 (USB2E7196)
Spectra Averaged: 2 (USB2E7196)
Boxcar Smoothing: 10 (USB2E7196)
Correct for Electrical Dark: No (USB2E7196)
Strobe/Lamp Enabled: No (USB2E7196)
Correct for Detector Non-linearity: No (USB2E7196)
Correct for Stray Light: No (USB2E7196)
Number of Pixels in Processed Spectrum: 2048
>>>>>Begin Processed Spectral Data<<<<<
339.09	0.00
339.48	192.50
339.86	197.50
340.24	196.50
340.63	197.00
341.01	231.50
341.39	198.50
341.78	206.00
342.16	212.50
342.54	207.50
342.93	198.71
343.31	208.48
343.69	209.17
344.07	209.60
344.46	210.24
344.84	211.00
345.22	209.86
345.60	210.57
345.99	210.74
346.37	210.64
346.75	210.83
347.13	211.05
347.52	211.14
347.90	211.90
348.28	212.00
348.66	212.52
349.05	212.00
349.43	212.29
349.81	212.52
350.19	212.60
350.57	212.55
350.96	212.67
351.34	213.14
351.72	213.26
352.10	213.36
352.48	213.19
352.87	213.07
353.25	213.10
353.63	212.83
354.01	213.00
354.39	213.12
354.77	213.10
355.15	213.71
355.54	213.55
355.92	212.88
356.30	212.71
356.68	213.83
357.06	213.60
357.44	213.12
357.82	212.83
358.20	213.60
358.58	213.74
358.97	213.69
359.35	214.12
359.73	214.48
360.11	214.55
360.49	214.81
360.87	214.71
361.25	215.02
361.63	215.83
362.01	215.79
362.39	215.76
362.77	215.83
363.15	215.64
363.53	215.74
363.91	215.67
364.29	215.81
364.67	214.07
365.05	214.21
365.43	214.50
365.81	215.02
366.19	215.21
366.57	215.93
366.95	215.67
367.33	214.83
367.71	215.02
368.09	215.52
368.47	215.36
368.85	215.29
369.23	215.55
369.61	214.67
369.99	215.10
370.37	215.14
370.75	216.02
371.13	215.52
371.51	215.10
371.89	215.33
372.27	215.52
372.65	215.64
373.03	215.79
373.41	215.60
373.78	215.31
374.16	214.10
374.54	213.45
374.92	213.64
375.30	213.81
375.68	213.36
376.06	213.29
376.44	213.36
376.82	213.62
377.19	213.40
377.57	213.52
377.95	213.07
378.33	212.95
378.71	211.76
379.09	212.29
379.47	212.57
379.84	212.38
380.22	212.05
380.60	211.64
380.98	211.60
381.36	211.60
381.73	211.17
382.11	211.57
382.49	211.74
382.87	211.26
383.25	211.52
383.62	213.81
384.00	213.33
384.38	213.52
384.76	213.86
385.13	214.86
385.51	215.07
385.89	214.79
386.27	214.81
386.64	215.24
387.02	214.90
387.40	214.86
387.78	215.05
388.15	215.05
388.53	215.02
388.91	214.93
389.29	215.07
389.66	215.50
390.04	215.24
390.42	215.52
390.79	215.74
391.17	215.50
391.55	213.24
391.92	213.38
392.30	213.67
392.68	213.45
393.05	213.17
393.43	212.95
393.81	213.19
394.18	212.95
394.56	213.19
394.94	213.60
395.31	213.60
395.69	214.10
396.06	214.50
396.44	214.81
396.82	214.83
397.19	215.69
397.57	215.57
397.95	216.02
398.32	215.48
398.70	215.81
399.07	216.33
399.45	216.33
399.82	216.38
400.20	215.81
400.58	215.79
400.95	215.07
401.33	215.62
401.70	217.00
402.08	217.21
402.45	217.12
402.83	217.71
403.20	217.86
403.58	217.64
403.95	218.05
404.33	218.31
404.71	218.40
405.08	219.48
405.46	219.79
405.83	220.40
406.21	220.95
406.58	221.52
406.96	221.71
407.33	222.17
407.70	223.00
408.08	225.40
408.45	226.24
408.83	227.29
409.20	227.79
409.58	227.60
409.95	228.81
410.33	229.93
410.70	230.02
411.08	231.36
411.45	232.50
411.82	233.31
412.20	235.02
412.57	237.48
412.95	237.33
413.32	239.19
413.69	240.52
414.07	241.88
414.44	243.50
414.82	245.67
415.19	248.19
415.56	250.31
415.94	251.36
416.31	253.93
416.68	256.86
417.06	260.17
417.43	263.67
417.81	267.05
418.18	270.26
418.55	274.21
418.93	278.29
419.30	282.71
419.67	287.19
420.04	291.67
420.42	296.02
420.79	302.88
421.16	308.60
421.54	315.43
421.91	322.10
422.28	328.38
422.66	334.62
423.03	342.40
423.40	349.07
423.77	356.64
424.15	363.76
424.52	371.14
424.89	379.57
425.26	387.17
425.64	394.88
426.01	403.88
426.38	412.57
426.75	422.07
427.13	431.00
427.50	440.50
427.87	450.31
428.24	459.93
428.61	468.64
428.99	480.24
429.36	490.31
429.73	501.88
430.10	513.74
430.47	525.40
430.85	535.76
431.22	548.64
431.59	563.17
431.96	576.05
432.33	590.36
432.70	603.90
433.08	620.60
433.45	635.90
433.82	651.10
434.19	668.12
434.56	684.69
434.93	700.81
435.30	716.95
435.68	735.02
436.05	752.19
436.42	769.48
436.79	784.74
437.16	801.88
437.53	819.45
437.90	836.88
438.27	854.88
438.64	873.40
439.01	890.57
439.38	904.93
439.75	919.79
440.13	936.86
440.50	952.90
440.87	965.24
441.24	978.55
441.61	993.12
441.98	1004.26
442.35	1016.67
442.72	1029.36
443.09	1043.55
443.46	1050.83
443.83	1056.64
444.20	1060.76
444.57	1067.12
444.94	1071.29
445.31	1074.48
445.68	1080.31
446.05	1081.67
446.42	1080.57
446.79	1078.95
447.16	1076.38
447.53	1076.02
447.90	1069.76
448.27	1063.55
448.64	1054.98
449.01	1048.67
449.37	1036.93
449.74	1026.36
450.11	1015.17
450.48	1000.74
450.85	983.93
451.22	971.45
451.59	959.98
451.96	948.50
452.33	932.52
452.70	917.76
453.07	900.69
453.43	881.00
453.80	864.98
454.17	849.71
454.54	834.38
454.91	818.26
455.28	801.52
455.65	786.17
456.02	774.24
456.38	761.50
456.75	746.17
457.12	733.38
457.49	720.12
457.86	705.69
458.23	695.40
458.59	683.86
458.96	671.50
459.33	660.31
459.70	650.12
460.07	642.19
460.43	632.55
460.80	624.19
461.17	616.57
461.54	607.90
461.91	599.29
462.27	591.40
462.64	584.36
463.01	577.10
463.38	570.40
463.74	559.67
464.11	553.10
464.48	547.45
464.85	541.12
465.21	536.38
465.58	531.26
465.95	524.57
466.32	519.50
466.68	514.52
467.05	509.40
467.42	504.33
467.78	498.19
468.15	493.17
468.52	489.36
468.88	483.86
469.25	479.12
469.62	475.40
469.98	471.12
470.35	467.79
470.72	464.21
471.08	459.90
471.45	457.26
471.82	454.48
472.18	450.62
472.55	448.05
472.92	444.79
473.28	441.67
473.65	438.76
474.02	436.29
474.38	434.12
474.75	431.83
475.11	429.29
475.48	428.00
475.85	426.38
476.21	424.38
476.58	423.24
476.94	421.95
477.31	420.38
477.67	419.57
478.04	417.83
478.41	416.79
478.77	417.62
479.14	416.45
479.50	415.71
479.87	415.55
480.23	415.21
480.60	414.62
480.96	414.38
481.33	415.19
481.69	415.07
482.06	415.17
482.42	415.98
482.79	416.83
483.15	417.05
483.52	418.17
483.88	418.67
484.25	419.45
484.61	420.36
484.98	420.98
485.34	422.10
485.71	424.52
486.07	425.95
486.44	426.38
486.80	427.57
487.17	429.05
487.53	431.52
487.90	433.74
488.26	436.69
488.62	439.69
488.99	441.76
489.35	444.50
489.72	447.45
490.08	449.38
490.44	451.74
490.81	455.29
491.17	457.81
491.54	461.24
491.90	464.90
492.26	468.67
492.63	472.55
492.99	476.02
493.36	479.60
493.72	484.36
494.08	488.67
494.45	493.74
494.81	498.48
495.17	502.98
495.54	508.60
495.90	512.88
496.26	517.93
496.63	523.48
496.99	528.64
497.35	534.50
497.72	541.02
498.08	546.86
498.44	552.83
498.80	559.38
499.17	565.64
499.53	571.12
499.89	578.14
500.26	585.33
500.62	592.52
500.98	600.62
501.34	607.12
501.71	613.81
502.07	620.83
502.43	627.95
502.79	634.40
503.16	640.90
503.52	648.05
503.88	654.93
504.24	662.19
504.60	669.31
504.97	676.67
505.33	683.86
505.69	692.64
506.05	700.81
506.41	708.74
506.78	716.57
507.14	724.88
507.50	732.50
507.86	740.26
508.22	748.02
508.59	754.36
508.95	762.64
509.31	772.05
509.67	779.48
510.03	787.48
510.39	795.33
510.75	803.29
511.12	811.24
511.48	818.76
511.84	826.69
512.20	835.02
512.56	842.62
512.92	851.07
513.28	857.88
513.64	864.81
514.00	871.60
514.37	879.14
514.73	886.43
515.09	893.74
515.45	900.83
515.81	907.83
516.17	914.60
516.53	921.10
516.89	926.43
517.25	934.00
517.61	940.95
517.97	947.57
518.33	953.50
518.69	960.71
519.05	967.52
519.41	973.45
519.77	980.60
520.13	986.67
520.49	991.88
520.85	998.26
521.21	1004.55
521.57	1011.88
521.93	1016.98
522.29	1022.55
522.65	1027.38
523.01	1032.90
523.37	1038.64
523.73	1044.98
524.09	1050.05
524.45	1055.07
524.81	1059.33
525.17	1063.79
525.53	1068.67
525.89	1073.76
526.25	1078.71
526.61	1082.45
526.97	1086.40
527.33	1090.93
527.68	1096.90
528.04	1101.60
528.40	1105.60
528.76	1109.83
529.12	1113.29
529.48	1118.21
529.84	1122.88
530.20	1127.74
530.56	1131.93
530.91	1135.93
531.27	1139.93
531.63	1144.02
531.99	1147.86
532.35	1152.12
532.71	1156.26
533.07	1161.14
533.42	1167.62
533.78	1171.43
534.14	1176.36
534.50	1181.05
534.86	1184.95
535.21	1187.62
535.57	1192.19
535.93	1195.52
536.29	1200.19
536.65	1204.36
537.00	1207.90
537.36	1211.31
537.72	1215.07
538.08	1219.60
538.44	1222.38
538.79	1225.74
539.15	1229.74
539.51	1234.17
539.87	1238.19
540.22	1241.86
540.58	1245.02
540.94	1246.45
541.29	1249.48
541.65	1251.86
542.01	1255.24
542.37	1257.07
542.72	1259.00
543.08	1260.86
543.44	1264.19
543.79	1266.05
544.15	1268.55
544.51	1272.12
544.87	1275.00
545.22	1277.55
545.58	1279.00
545.94	1282.14
546.29	1285.14
546.65	1287.45
547.01	1289.43
547.36	1291.52
547.72	1294.00
548.07	1297.79
548.43	1300.00
548.79	1302.05
549.14	1305.26
549.50	1308.60
549.86	1311.57
550.21	1314.76
550.57	1318.52
550.92	1320.83
551.28	1323.93
551.64	1326.50
551.99	1328.86
552.35	1331.55
552.70	1334.93
553.06	1338.31
553.41	1341.36
553.77	1345.86
554.13	1350.07
554.48	1354.88
554.84	1359.07
555.19	1363.00
555.55	1366.74
555.90	1370.57
556.26	1374.90
556.61	1378.45
556.97	1380.81
557.32	1385.31
557.68	1389.81
558.03	1393.48
558.39	1398.57
558.74	1402.86
559.10	1406.90
559.45	1411.50
559.81	1416.74
560.16	1419.81
560.52	1425.14
560.87	1429.79
561.23	1433.05
561.58	1438.36
561.94	1441.88
562.29	1446.10
562.64	1450.79
563.00	1454.62
563.35	1459.71
563.71	1464.90
564.06	1470.40
564.42	1476.02
564.77	1481.33
565.12	1487.64
565.48	1494.43
565.83	1500.14
566.19	1505.38
566.54	1511.38
566.89	1516.62
567.25	1522.52
567.60	1529.79
567.96	1536.98
568.31	1544.05
568.66	1550.07
569.02	1553.88
569.37	1559.33
569.72	1564.98
570.08	1570.45
570.43	1575.24
570.78	1580.55
571.14	1585.29
571.49	1589.98
571.84	1595.57
572.20	1599.62
572.55	1604.21
572.90	1607.52
573.26	1611.45
573.61	1616.36
573.96	1621.02
574.31	1624.05
574.67	1627.83
575.02	1630.74
575.37	1632.67
575.72	1635.33
576.08	1638.48
576.43	1642.07
576.78	1646.05
577.13	1649.88
577.49	1653.52
577.84	1657.71
578.19	1660.98
578.54	1665.52
578.90	1669.74
579.25	1673.83
579.60	1677.62
579.95	1679.76
580.30	1683.17
580.66	1686.90
581.01	1689.76
581.36	1692.76
581.71	1696.76
582.06	1700.52
582.42	1705.05
582.77	1707.38
583.12	1710.50
583.47	1714.00
583.82	1717.29
584.17	1719.69
584.53	1723.05
584.88	1726.05
585.23	1729.00
585.58	1731.76
585.93	1733.40
586.28	1735.26
586.63	1737.57
586.98	1740.38
587.34	1744.36
587.69	1746.62
588.04	1749.14
588.39	1752.31
588.74	1753.14
589.09	1755.93
589.44	1755.69
589.79	1757.74
590.14	1760.43
590.49	1761.83
590.84	1762.88
591.19	1765.17
591.54	1767.50
591.89	1768.05
592.25	1770.21
592.60	1771.29
592.95	1772.02
593.30	1774.10
593.65	1775.07
594.00	1774.31
594.35	1780.67
594.70	1779.50
595.05	1780.57
595.40	1780.74
595.75	1780.98
596.10	1782.74
596.45	1784.17
596.80	1786.00
597.15	1786.21
597.50	1786.00
597.85	1787.21
598.19	1787.38
598.54	1786.76
598.89	1786.21
599.24	1787.36
599.59	1786.05
599.94	1786.07
600.29	1786.93
600.64	1785.50
600.99	1785.07
601.34	1786.17
601.69	1780.10
602.04	1779.76
602.39	1779.00
602.74	1778.83
603.08	1777.43
603.43	1778.52
603.78	1775.17
604.13	1774.71
604.48	1773.10
604.83	1773.40
605.18	1772.69
605.53	1772.57
605.87	1771.14
606.22	1770.00
606.57	1767.98
606.92	1767.00
607.27	1766.19
607.62	1765.52
607.96	1765.64
608.31	1766.05
608.66	1764.76
609.01	1763.64
609.36	1763.10
609.70	1761.26
610.05	1759.05
610.40	1757.48
610.75	1753.71
611.10	1754.81
611.44	1751.95
611.79	1750.40
612.14	1747.98
612.49	1744.07
612.83	1740.67
613.18	1738.71
613.53	1735.60
613.88	1731.90
614.22	1727.83
614.57	1723.90
614.92	1720.36
615.27	1716.57
615.61	1711.55
615.96	1707.76
616.31	1703.67
616.65	1700.83
617.00	1697.67
617.35	1694.00
617.70	1690.60
618.04	1686.62
618.39	1680.60
618.74	1677.14
619.08	1671.95
619.43	1666.95
619.78	1663.64
620.12	1659.74
620.47	1655.74
620.82	1651.86
621.16	1647.50
621.51	1644.98
621.85	1640.43
622.20	1635.29
622.55	1630.50
622.89	1627.14
623.24	1624.38
623.59	1620.52
623.93	1615.43
624.28	1611.33
624.62	1609.69
624.97	1606.10
625.32	1601.93
625.66	1598.02
626.01	1593.69
626.35	1590.67
626.70	1587.57
627.04	1584.33
627.39	1580.67
627.73	1577.76
628.08	1574.21
628.43	1570.67
628.77	1565.95
629.12	1562.07
629.46	1558.76
629.81	1554.88
630.15	1549.83
630.50	1544.02
630.84	1539.55
631.19	1534.69
631.53	1529.14
631.88	1521.55
632.22	1515.10
632.57	1510.86
632.91	1505.62
633.26	1501.19
633.60	1495.57
633.95	1489.14
634.29	1482.88
634.64	1477.45
634.98	1471.17
635.32	1466.45
635.67	1462.67
636.01	1457.14
636.36	1452.02
636.70	1447.64
637.05	1442.50
637.39	1437.76
637.73	1432.64
638.08	1427.86
638.42	1422.86
638.77	1418.64
639.11	1413.55
639.45	1408.52
639.80	1402.83
640.14	1397.95
640.49	1392.50
640.83	1388.29
641.17	1383.79
641.52	1378.29
641.86	1373.00
642.20	1369.19
642.55	1362.50
642.89	1355.17
643.23	1349.67
643.58	1344.64
643.92	1336.50
644.26	1330.40
644.61	1324.52
644.95	1318.17
645.29	1311.17
645.64	1305.69
645.98	1299.19
646.32	1294.17
646.66	1287.45
647.01	1280.64
647.35	1275.50
647.69	1268.95
648.04	1262.33
648.38	1256.02
648.72	1249.67
649.06	1243.45
649.41	1235.43
649.75	1228.93
650.09	1223.29
650.43	1217.12
650.78	1210.31
651.12	1204.62
651.46	1198.12
651.80	1191.33
652.14	1185.24
652.49	1178.90
652.83	1172.12
653.17	1165.64
653.51	1158.05
653.85	1152.43
654.20	1146.36
654.54	1138.33
654.88	1131.71
655.22	1125.29
655.56	1118.93
655.90	1112.38
656.25	1105.36
656.59	1099.43
656.93	1093.26
657.27	1087.93
657.61	1081.12
657.95	1075.26
658.29	1069.00
658.64	1062.90
658.98	1056.31
659.32	1049.45
659.66	1043.05
660.00	1036.67
660.34	1030.57
660.68	1024.74
661.02	1018.50
661.36	1012.19
661.70	1006.14
662.05	1000.45
662.39	994.00
662.73	988.02
663.07	983.05
663.41	977.62
663.75	971.26
664.09	965.74
664.43	958.52
664.77	952.67
665.11	945.67
665.45	939.90
665.79	934.10
666.13	928.64
666.47	922.67
666.81	917.64
667.15	911.71
667.49	906.69
667.83	901.60
668.17	896.26
668.51	890.90
668.85	886.43
669.19	881.12
669.53	874.81
669.87	868.95
670.21	863.14
670.55	857.05
670.89	851.79
671.23	846.31
671.57	840.86
671.91	835.74
672.25	830.40
672.58	825.86
672.92	819.62
673.26	814.38
673.60	809.36
673.94	804.05
674.28	799.14
674.62	793.50
674.96	787.69
675.30	782.55
675.64	777.10
675.97	771.17
676.31	765.36
676.65	760.74
676.99	756.48
677.33	751.26
677.67	747.33
678.01	741.95
678.34	737.00
678.68	732.67
679.02	727.33
679.36	722.52
679.70	717.12
680.04	712.45
680.37	707.60
680.71	703.17
681.05	698.62
681.39	694.10
681.73	688.55
682.06	683.93
682.40	679.07
682.74	675.10
683.08	671.38
683.42	666.71
683.75	662.38
684.09	656.98
684.43	652.93
684.77	647.74
685.10	643.33
685.44	638.79
685.78	634.14
686.12	630.12
686.45	625.50
686.79	620.50
687.13	617.07
687.46	612.93
687.80	608.88
688.14	604.64
688.48	600.40
688.81	596.86
689.15	593.71
689.49	589.31
689.82	585.12
690.16	579.98
690.50	575.76
690.83	571.48
691.17	567.43
691.51	563.05
691.84	558.95
692.18	554.95
692.52	550.64
692.85	547.24
693.19	544.40
693.52	541.07
693.86	537.60
694.20	533.69
694.53	529.62
694.87	525.90
695.21	521.93
695.54	518.02
695.88	513.93
696.21	508.88
696.55	505.64
696.88	502.05
697.22	498.62
697.56	495.93
697.89	492.55
698.23	489.69
698.56	486.19
698.90	483.55
699.23	479.88
699.57	477.26
699.90	473.31
700.24	469.33
700.58	466.14
700.91	463.29
701.25	461.62
701.58	459.52
701.92	456.88
702.25	453.71
702.59	451.02
702.92	448.33
703.26	445.86
703.59	443.29
703.93	442.50
704.26	440.50
704.60	437.52
704.93	434.55
705.26	431.36
705.60	429.45
705.93	426.17
706.27	424.19
706.60	421.86
706.94	420.52
707.27	417.24
707.61	414.71
707.94	412.00
708.27	408.10
708.61	404.95
708.94	402.38
709.28	400.29
709.61	397.57
709.94	395.69
710.28	393.76
710.61	391.29
710.95	386.88
711.28	385.90
711.61	383.69
711.95	382.33
712.28	380.14
712.61	377.62
712.95	376.55
713.28	375.50
713.61	373.17
713.95	370.43
714.28	369.14
714.61	367.05
714.95	365.05
715.28	362.93
715.61	361.07
715.95	359.10
716.28	357.21
716.61	355.60
716.95	353.29
717.28	351.38
717.61	349.76
717.94	348.29
718.28	344.67
718.61	342.76
718.94	340.36
719.27	338.93
719.61	337.38
719.94	334.88
720.27	331.93
720.60	330.19
720.94	328.40
721.27	326.88
721.60	325.93
721.93	324.45
722.27	323.86
722.60	322.86
722.93	321.50
723.26	320.26
723.59	318.98
723.93	318.00
724.26	316.62
724.59	315.07
724.92	314.14
725.25	313.95
725.59	312.98
725.92	312.55
726.25	311.50
726.58	310.43
726.91	309.64
727.24	309.19
727.57	308.19
727.91	307.02
728.24	306.14
728.57	304.62
728.90	304.05
729.23	302.14
729.56	301.69
729.89	300.43
730.22	299.00
730.55	297.95
730.89	297.12
731.22	296.33
731.55	295.26
731.88	294.21
732.21	292.69
732.54	291.52
732.87	290.19
733.20	289.10
733.53	288.29
733.86	287.57
734.19	286.19
734.52	285.38
734.85	286.12
735.18	285.21
735.51	285.31
735.84	284.50
736.17	284.31
736.50	282.83
736.83	284.71
737.16	283.90
737.49	283.12
737.82	282.10
738.15	281.24
738.48	280.55
738.81	279.55
739.14	278.76
739.47	278.10
739.80	277.60
740.13	277.07
740.46	275.76
740.79	274.62
741.12	274.14
741.45	273.17
741.78	271.33
742.11	270.95
742.44	269.86
742.77	269.67
743.10	268.67
743.43	267.93
743.75	265.00
744.08	267.29
744.41	266.40
744.74	265.81
745.07	264.86
745.40	264.71
745.73	265.00
746.06	264.43
746.39	263.95
746.71	262.93
747.04	262.00
747.37	261.71
747.70	261.67
748.03	261.12
748.36	261.02
748.68	260.36
749.01	259.29
749.34	258.31
749.67	257.36
750.00	257.24
750.33	258.07
750.65	257.69
750.98	254.62
751.31	254.33
751.64	253.93
751.97	254.74
752.29	254.02
752.62	252.45
752.95	251.83
753.28	250.98
753.60	250.48
753.93	250.90
754.26	250.31
754.59	249.19
754.91	248.67
755.24	247.83
755.57	247.40
755.90	247.02
756.22	246.76
756.55	246.14
756.88	245.31
757.20	243.52
757.53	242.43
757.86	242.05
758.19	241.67
758.51	241.17
758.84	239.81
759.17	239.24
759.49	239.19
759.82	240.02
760.15	240.10
760.47	239.86
760.80	238.57
761.13	238.67
761.45	238.40
761.78	238.12
762.11	238.10
762.43	237.88
762.76	237.40
763.08	237.43
763.41	237.31
763.74	237.19
764.06	236.81
764.39	236.69
764.71	236.21
765.04	235.98
765.37	235.36
765.69	234.98
766.02	234.67
766.34	234.05
766.67	233.10
767.00	233.17
767.32	234.07
767.65	235.31
767.97	234.57
768.30	234.33
768.62	233.98
768.95	233.52
769.27	233.14
769.60	233.45
769.92	232.86
770.25	232.14
770.57	231.48
770.90	231.29
771.22	230.95
771.55	230.98
771.87	230.79
772.20	230.69
772.52	232.43
772.85	234.88
773.17	235.05
773.50	234.67
773.82	234.14
774.15	232.86
774.47	231.62
774.80	231.62
775.12	231.60
775.45	231.33
775.77	231.12
776.09	231.17
776.42	230.60
776.74	231.05
777.07	230.98
777.39	230.95
777.72	230.60
778.04	230.64
778.36	230.43
778.69	230.29
779.01	230.38
779.33	228.24
779.66	225.55
779.98	225.33
780.31	225.17
780.63	225.88
780.95	226.02
781.28	225.90
781.60	225.52
781.92	225.21
782.25	225.19
782.57	225.00
782.89	224.43
783.22	224.26
783.54	223.67
783.86	223.71
784.19	223.57
784.51	224.14
784.83	223.83
785.16	223.48
