SpectraSuite Data File
++++++++++++++++++++++++++++++++++++
Date: Tue Apr 02 18:45:56 EDT 2013
User: group
Dark Spectrum Present: No
Reference Spectrum Present: No
Number of Sampled Component Spectra: 1
Spectrometers: USB2E7196
Integration Time (usec): 580000 (USB2E7196)
Spectra Averaged: 2 (USB2E7196)
Boxcar Smoothing: 10 (USB2E7196)
Correct for Electrical Dark: No (USB2E7196)
Strobe/Lamp Enabled: No (USB2E7196)
Correct for Detector Non-linearity: No (USB2E7196)
Correct for Stray Light: No (USB2E7196)
Number of Pixels in Processed Spectrum: 2048
>>>>>Begin Processed Spectral Data<<<<<
339.09	0.00
339.48	194.00
339.86	198.50
340.24	198.00
340.63	197.00
341.01	232.50
341.39	201.50
341.78	209.50
342.16	213.50
342.54	208.50
342.93	198.60
343.31	208.38
343.69	209.02
344.07	209.31
344.46	209.98
344.84	210.50
345.22	209.21
345.60	209.67
345.99	209.45
346.37	209.24
346.75	209.29
347.13	209.26
347.52	209.43
347.90	209.95
348.28	209.76
348.66	210.26
349.05	209.64
349.43	209.90
349.81	210.00
350.19	210.05
350.57	210.17
350.96	210.33
351.34	210.64
351.72	210.55
352.10	210.71
352.48	210.71
352.87	210.60
353.25	210.57
353.63	210.07
354.01	210.05
354.39	210.07
354.77	209.98
355.15	210.29
355.54	209.95
355.92	209.60
356.30	209.67
356.68	210.88
357.06	210.90
357.44	210.57
357.82	210.74
358.20	211.45
358.58	211.45
358.97	211.36
359.35	211.64
359.73	212.29
360.11	212.17
360.49	212.02
360.87	211.98
361.25	212.38
361.63	213.45
362.01	213.62
362.39	213.55
362.77	213.76
363.15	213.50
363.53	213.60
363.91	213.60
364.29	213.83
364.67	211.86
365.05	211.95
365.43	212.29
365.81	212.43
366.19	212.50
366.57	213.38
366.95	213.50
367.33	213.14
367.71	213.00
368.09	213.50
368.47	213.64
368.85	214.02
369.23	214.50
369.61	213.90
369.99	214.69
370.37	215.17
370.75	216.05
371.13	215.71
371.51	215.45
371.89	215.79
372.27	215.79
372.65	216.40
373.03	216.67
373.41	216.45
373.78	216.24
374.16	215.36
374.54	214.71
374.92	214.52
375.30	214.76
375.68	214.48
376.06	214.52
376.44	214.36
376.82	214.48
377.19	214.36
377.57	214.17
377.95	213.26
378.33	213.21
378.71	212.21
379.09	212.69
379.47	213.36
379.84	212.98
380.22	212.69
380.60	212.07
380.98	212.05
381.36	212.10
381.73	211.81
382.11	212.21
382.49	212.19
382.87	211.98
383.25	211.60
383.62	214.00
384.00	213.71
384.38	213.90
384.76	214.29
385.13	214.79
385.51	214.95
385.89	215.12
386.27	215.00
386.64	215.43
387.02	215.14
387.40	214.93
387.78	215.29
388.15	215.55
388.53	215.67
388.91	215.74
389.29	215.60
389.66	216.19
390.04	216.05
390.42	216.40
390.79	216.67
391.17	216.86
391.55	214.57
391.92	214.45
392.30	214.60
392.68	214.00
393.05	213.95
393.43	213.86
393.81	213.88
394.18	213.64
394.56	213.31
394.94	213.93
395.31	213.71
395.69	214.31
396.06	214.64
396.44	214.69
396.82	214.17
397.19	215.24
397.57	214.86
397.95	215.14
398.32	214.64
398.70	214.86
399.07	215.17
399.45	215.00
399.82	215.17
400.20	214.83
400.58	214.79
400.95	214.05
401.33	214.62
401.70	216.12
402.08	216.17
402.45	216.33
402.83	216.79
403.20	217.07
403.58	216.83
403.95	217.07
404.33	217.76
404.71	218.17
405.08	219.29
405.46	219.71
405.83	220.10
406.21	220.57
406.58	221.17
406.96	221.48
407.33	222.29
407.70	222.95
408.08	225.19
408.45	226.21
408.83	227.29
409.20	227.81
409.58	227.50
409.95	228.79
410.33	229.76
410.70	230.00
411.08	231.02
411.45	232.21
411.82	232.98
412.20	234.14
412.57	236.60
412.95	236.48
413.32	238.29
413.69	239.60
414.07	241.26
414.44	242.93
414.82	244.88
415.19	247.24
415.56	249.31
415.94	250.50
416.31	253.21
416.68	255.98
417.06	259.14
417.43	262.67
417.81	266.05
418.18	269.83
418.55	273.55
418.93	277.40
419.30	281.26
419.67	285.52
420.04	289.83
420.42	294.29
420.79	301.38
421.16	306.93
421.54	313.88
421.91	319.98
422.28	325.86
422.66	332.26
423.03	340.02
423.40	347.14
423.77	354.45
424.15	361.45
424.52	368.83
424.89	377.40
425.26	384.81
425.64	392.19
426.01	400.50
426.38	409.36
426.75	418.81
427.13	428.17
427.50	438.12
427.87	448.45
428.24	457.98
428.61	465.83
428.99	477.05
429.36	487.43
429.73	498.40
430.10	510.36
430.47	522.57
430.85	532.50
431.22	545.19
431.59	559.95
431.96	572.43
432.33	586.55
432.70	599.98
433.08	616.21
433.45	631.33
433.82	646.57
434.19	663.26
434.56	679.71
434.93	695.52
435.30	711.24
435.68	728.71
436.05	745.43
436.42	762.40
436.79	777.88
437.16	795.10
437.53	813.52
437.90	830.95
438.27	848.26
438.64	866.88
439.01	883.57
439.38	897.12
439.75	912.05
440.13	928.76
440.50	944.00
440.87	956.12
441.24	968.93
441.61	983.50
441.98	994.26
442.35	1006.29
442.72	1019.31
443.09	1032.83
443.46	1040.31
443.83	1046.31
444.20	1051.07
444.57	1056.90
444.94	1059.95
445.31	1063.24
445.68	1068.83
446.05	1069.76
446.42	1068.33
446.79	1067.33
447.16	1065.19
447.53	1063.95
447.90	1057.93
448.27	1051.24
448.64	1042.57
449.01	1036.90
449.37	1024.93
449.74	1014.57
450.11	1003.48
450.48	988.86
450.85	972.90
451.22	959.95
451.59	947.71
451.96	936.29
452.33	920.71
452.70	906.71
453.07	889.71
453.43	870.31
453.80	854.36
454.17	838.38
454.54	822.57
454.91	806.88
455.28	790.79
455.65	775.55
456.02	764.67
456.38	752.24
456.75	737.14
457.12	724.38
457.49	711.45
457.86	697.38
458.23	687.33
458.59	675.79
458.96	664.19
459.33	654.02
459.70	643.50
460.07	635.31
460.43	625.38
460.80	616.64
461.17	608.79
461.54	600.74
461.91	592.98
462.27	584.93
462.64	577.62
463.01	570.79
463.38	564.67
463.74	554.45
464.11	548.24
464.48	542.79
464.85	536.79
465.21	532.29
465.58	527.40
465.95	520.93
466.32	515.98
466.68	510.81
467.05	505.67
467.42	500.71
467.78	495.52
468.15	491.05
468.52	487.43
468.88	482.38
469.25	477.38
469.62	474.12
469.98	470.45
470.35	467.12
470.72	463.50
471.08	458.95
471.45	455.98
471.82	453.26
472.18	448.90
472.55	446.52
472.92	442.64
473.28	439.74
473.65	436.62
474.02	433.50
474.38	431.36
474.75	429.48
475.11	427.17
475.48	425.48
475.85	423.71
476.21	421.67
476.58	420.45
476.94	419.57
477.31	418.48
477.67	416.95
478.04	415.76
478.41	414.71
478.77	416.36
479.14	415.19
479.50	414.48
479.87	414.67
480.23	414.38
480.60	414.05
480.96	413.67
481.33	414.62
481.69	415.36
482.06	416.02
482.42	416.45
482.79	416.64
483.15	417.05
483.52	417.74
483.88	418.19
484.25	418.88
484.61	419.38
484.98	419.88
485.34	421.93
485.71	423.26
486.07	424.86
486.44	424.07
486.80	425.60
487.17	427.00
487.53	429.52
487.90	431.29
488.26	434.79
488.62	437.55
488.99	439.52
489.35	441.74
489.72	443.88
490.08	446.60
490.44	450.19
490.81	453.43
491.17	456.36
491.54	460.43
491.90	463.98
492.26	467.74
492.63	471.83
492.99	475.19
493.36	479.55
493.72	484.12
494.08	488.29
494.45	493.36
494.81	498.69
495.17	502.98
495.54	508.00
495.90	512.43
496.26	517.64
496.63	522.90
496.99	528.29
497.35	534.29
497.72	539.93
498.08	545.50
498.44	551.60
498.80	558.24
499.17	564.10
499.53	570.24
499.89	577.17
500.26	583.74
500.62	590.86
500.98	597.83
501.34	604.00
501.71	611.76
502.07	618.31
502.43	624.69
502.79	631.48
503.16	638.62
503.52	645.71
503.88	652.62
504.24	660.29
504.60	668.19
504.97	675.71
505.33	683.12
505.69	691.17
506.05	698.71
506.41	706.12
506.78	713.64
507.14	721.02
507.50	728.60
507.86	736.43
508.22	743.98
508.59	751.48
508.95	760.05
509.31	768.40
509.67	776.36
510.03	784.02
510.39	792.19
510.75	800.57
511.12	808.24
511.48	816.19
511.84	823.38
512.20	830.71
512.56	838.21
512.92	846.21
513.28	853.48
513.64	860.52
514.00	868.00
514.37	875.24
514.73	883.62
515.09	891.57
515.45	898.52
515.81	905.62
516.17	912.05
516.53	917.98
516.89	923.07
517.25	930.00
517.61	937.40
517.97	943.86
518.33	949.81
518.69	956.62
519.05	962.62
519.41	968.90
519.77	976.29
520.13	982.02
520.49	987.33
520.85	993.31
521.21	1000.36
521.57	1006.24
521.93	1011.45
522.29	1016.55
522.65	1021.24
523.01	1026.81
523.37	1031.93
523.73	1037.36
524.09	1042.86
524.45	1048.79
524.81	1053.26
525.17	1058.17
525.53	1063.10
525.89	1067.52
526.25	1072.43
526.61	1077.10
526.97	1080.95
527.33	1084.26
527.68	1090.38
528.04	1094.50
528.40	1098.29
528.76	1101.93
529.12	1105.90
529.48	1110.64
529.84	1114.43
530.20	1118.55
530.56	1122.38
530.91	1126.24
531.27	1131.02
531.63	1135.38
531.99	1139.17
532.35	1143.10
532.71	1146.43
533.07	1150.50
533.42	1157.52
533.78	1161.21
534.14	1165.76
534.50	1170.33
534.86	1175.12
535.21	1177.43
535.57	1182.21
535.93	1186.00
536.29	1191.10
536.65	1194.74
537.00	1197.88
537.36	1201.81
537.72	1205.26
538.08	1208.88
538.44	1211.64
538.79	1214.45
539.15	1217.38
539.51	1220.29
539.87	1223.98
540.22	1227.60
540.58	1230.50
540.94	1230.95
541.29	1233.50
541.65	1234.81
542.01	1238.00
542.37	1240.21
542.72	1242.40
543.08	1243.98
543.44	1246.88
543.79	1247.43
544.15	1250.52
544.51	1254.33
544.87	1256.83
545.22	1259.93
545.58	1262.86
545.94	1265.88
546.29	1267.83
546.65	1270.55
547.01	1273.00
547.36	1274.86
547.72	1276.95
548.07	1279.76
548.43	1281.74
548.79	1284.31
549.14	1287.95
549.50	1289.81
549.86	1291.76
550.21	1294.33
550.57	1298.17
550.92	1300.57
551.28	1304.21
551.64	1306.69
551.99	1308.81
552.35	1311.29
552.70	1313.83
553.06	1316.55
553.41	1319.98
553.77	1325.40
554.13	1328.40
554.48	1332.81
554.84	1337.14
555.19	1341.17
555.55	1345.29
555.90	1349.43
556.26	1353.14
556.61	1356.52
556.97	1360.29
557.32	1363.93
557.68	1368.24
558.03	1371.64
558.39	1375.57
558.74	1379.19
559.10	1383.31
559.45	1387.60
559.81	1391.52
560.16	1395.00
560.52	1398.90
560.87	1403.86
561.23	1406.50
561.58	1412.60
561.94	1415.74
562.29	1420.10
562.64	1425.40
563.00	1428.93
563.35	1433.74
563.71	1438.12
564.06	1442.93
564.42	1448.40
564.77	1454.95
565.12	1460.62
565.48	1467.76
565.83	1473.38
566.19	1479.31
566.54	1484.07
566.89	1489.60
567.25	1495.86
567.60	1503.19
567.96	1510.52
568.31	1516.55
568.66	1523.14
569.02	1527.00
569.37	1532.71
569.72	1538.95
570.08	1542.36
570.43	1547.48
570.78	1552.52
571.14	1559.17
571.49	1564.24
571.84	1569.55
572.20	1573.71
572.55	1578.36
572.90	1580.69
573.26	1586.17
573.61	1590.24
573.96	1596.00
574.31	1600.19
574.67	1603.79
575.02	1606.48
575.37	1608.57
575.72	1611.31
576.08	1614.52
576.43	1618.86
576.78	1622.10
577.13	1625.57
577.49	1630.33
577.84	1635.26
578.19	1639.19
578.54	1642.62
578.90	1647.38
579.25	1650.33
579.60	1653.57
579.95	1656.67
580.30	1660.29
580.66	1663.26
581.01	1667.00
581.36	1668.93
581.71	1672.81
582.06	1677.62
582.42	1682.12
582.77	1685.31
583.12	1688.57
583.47	1692.60
583.82	1695.79
584.17	1699.79
584.53	1702.86
584.88	1705.62
585.23	1708.38
585.58	1710.55
585.93	1713.17
586.28	1715.36
586.63	1718.83
586.98	1721.81
587.34	1726.19
587.69	1729.45
588.04	1731.98
588.39	1734.31
588.74	1736.62
589.09	1738.50
589.44	1739.07
589.79	1740.33
590.14	1742.38
590.49	1744.45
590.84	1745.67
591.19	1747.26
591.54	1748.48
591.89	1749.60
592.25	1753.43
592.60	1754.19
592.95	1756.64
593.30	1758.17
593.65	1759.50
594.00	1759.76
594.35	1767.52
594.70	1767.40
595.05	1768.98
595.40	1769.12
595.75	1769.95
596.10	1772.31
596.45	1772.98
596.80	1774.67
597.15	1775.95
597.50	1776.90
597.85	1778.52
598.19	1778.43
598.54	1779.26
598.89	1780.81
599.24	1782.26
599.59	1780.98
599.94	1781.60
600.29	1782.17
600.64	1782.45
600.99	1782.67
601.34	1784.76
601.69	1779.00
602.04	1778.40
602.39	1777.93
602.74	1778.88
603.08	1778.19
603.43	1777.45
603.78	1777.83
604.13	1777.83
604.48	1777.52
604.83	1777.81
605.18	1777.31
605.53	1777.95
605.87	1776.88
606.22	1775.14
606.57	1773.33
606.92	1772.88
607.27	1772.17
607.62	1771.55
607.96	1770.33
608.31	1769.74
608.66	1767.38
609.01	1765.55
609.36	1765.24
609.70	1764.00
610.05	1761.69
610.40	1761.07
610.75	1759.93
611.10	1758.64
611.44	1756.05
611.79	1754.24
612.14	1751.79
612.49	1747.79
612.83	1744.52
613.18	1741.90
613.53	1739.86
613.88	1737.38
614.22	1733.71
614.57	1730.07
614.92	1726.21
615.27	1722.40
615.61	1718.31
615.96	1715.12
616.31	1711.21
616.65	1708.38
617.00	1705.36
617.35	1703.02
617.70	1699.69
618.04	1695.17
618.39	1691.67
618.74	1688.40
619.08	1684.81
619.43	1681.76
619.78	1679.12
620.12	1676.38
620.47	1673.62
620.82	1670.24
621.16	1665.74
621.51	1663.29
621.85	1660.55
622.20	1656.64
622.55	1653.07
622.89	1649.88
623.24	1647.45
623.59	1644.79
623.93	1640.40
624.28	1636.90
624.62	1634.90
624.97	1632.29
625.32	1628.36
625.66	1624.07
626.01	1620.24
626.35	1616.81
626.70	1612.24
627.04	1609.17
627.39	1604.81
627.73	1600.71
628.08	1597.40
628.43	1594.43
628.77	1590.00
629.12	1585.83
629.46	1582.86
629.81	1579.00
630.15	1574.31
630.50	1568.62
630.84	1563.36
631.19	1558.31
631.53	1552.60
631.88	1545.31
632.22	1539.33
632.57	1536.71
632.91	1531.14
633.26	1527.33
633.60	1521.48
633.95	1516.55
634.29	1510.88
634.64	1506.95
634.98	1503.07
635.32	1499.02
635.67	1494.79
636.01	1490.31
636.36	1486.14
636.70	1482.05
637.05	1478.19
637.39	1474.14
637.73	1470.36
638.08	1467.74
638.42	1464.33
638.77	1460.83
639.11	1457.07
639.45	1452.86
639.80	1446.52
640.14	1442.40
640.49	1437.12
640.83	1432.38
641.17	1428.19
641.52	1423.69
641.86	1418.14
642.20	1413.52
642.55	1406.38
642.89	1400.38
643.23	1394.95
643.58	1389.98
643.92	1383.40
644.26	1377.52
644.61	1372.83
644.95	1366.83
645.29	1359.67
645.64	1353.43
645.98	1347.05
646.32	1341.83
646.66	1334.62
647.01	1328.86
647.35	1322.98
647.69	1316.95
648.04	1311.95
648.38	1306.24
648.72	1300.74
649.06	1294.57
649.41	1287.67
649.75	1282.55
650.09	1276.98
650.43	1271.00
650.78	1263.93
651.12	1257.71
651.46	1251.71
651.80	1245.26
652.14	1239.38
652.49	1234.05
652.83	1227.33
653.17	1221.19
653.51	1213.93
653.85	1208.88
654.20	1202.95
654.54	1195.95
654.88	1189.33
655.22	1183.50
655.56	1177.43
655.90	1170.40
656.25	1164.31
656.59	1158.38
656.93	1152.19
657.27	1147.07
657.61	1140.60
657.95	1135.29
658.29	1129.45
658.64	1123.40
658.98	1116.48
659.32	1109.29
659.66	1103.21
660.00	1097.98
660.34	1091.74
660.68	1086.24
661.02	1079.60
661.36	1073.60
661.70	1068.12
662.05	1062.10
662.39	1055.83
662.73	1050.69
663.07	1046.31
663.41	1041.07
663.75	1035.05
664.09	1029.05
664.43	1021.83
664.77	1015.98
665.11	1009.43
665.45	1003.64
665.79	998.12
666.13	992.45
666.47	987.57
666.81	981.52
667.15	975.29
667.49	969.88
667.83	964.64
668.17	959.36
668.51	953.79
668.85	948.43
669.19	944.10
669.53	937.74
669.87	931.07
670.21	924.90
670.55	918.74
670.89	914.24
671.23	909.21
671.57	903.57
671.91	898.24
672.25	893.02
672.58	888.14
672.92	881.95
673.26	876.64
673.60	870.98
673.94	865.69
674.28	861.69
674.62	856.93
674.96	851.24
675.30	846.19
675.64	841.48
675.97	836.93
676.31	831.45
676.65	826.69
676.99	823.07
677.33	818.21
677.67	813.48
678.01	807.33
678.34	802.31
678.68	798.74
679.02	794.21
679.36	789.24
679.70	783.86
680.04	778.79
680.37	774.00
680.71	769.07
681.05	764.36
681.39	759.33
681.73	754.31
682.06	749.64
682.40	745.21
682.74	740.76
683.08	735.81
683.42	730.45
683.75	725.88
684.09	720.21
684.43	715.38
684.77	710.38
685.10	705.60
685.44	700.45
685.78	694.69
686.12	689.69
686.45	685.31
686.79	680.50
687.13	676.93
687.46	672.21
687.80	668.40
688.14	663.62
688.48	659.02
688.81	654.69
689.15	650.98
689.49	646.40
689.82	641.71
690.16	636.74
690.50	632.67
690.83	628.31
691.17	623.05
691.51	618.24
691.84	614.45
692.18	610.40
692.52	606.86
692.85	603.21
693.19	599.83
693.52	595.52
693.86	591.12
694.20	586.43
694.53	582.81
694.87	578.33
695.21	574.19
695.54	569.88
695.88	565.19
696.21	560.24
696.55	555.76
696.88	551.38
697.22	547.69
697.56	544.60
697.89	540.62
698.23	538.10
698.56	533.81
698.90	530.29
699.23	526.45
699.57	522.83
699.90	519.26
700.24	515.17
700.58	511.26
700.91	508.33
701.25	507.21
701.58	504.38
701.92	501.45
702.25	498.60
702.59	495.21
702.92	492.38
703.26	489.24
703.59	486.62
703.93	485.45
704.26	482.43
704.60	478.48
704.93	475.00
705.26	471.36
705.60	469.38
705.93	465.57
706.27	463.33
706.60	460.71
706.94	458.40
707.27	455.24
707.61	452.79
707.94	449.62
708.27	444.76
708.61	441.50
708.94	438.81
709.28	436.07
709.61	433.26
709.94	431.07
710.28	428.90
710.61	426.24
710.95	421.64
711.28	420.83
711.61	418.81
711.95	417.29
712.28	414.81
712.61	411.86
712.95	410.79
713.28	409.43
713.61	406.55
713.95	403.93
714.28	401.90
714.61	399.67
714.95	397.38
715.28	394.86
715.61	392.50
715.95	390.17
716.28	387.90
716.61	386.10
716.95	383.33
717.28	380.74
717.61	378.50
717.94	376.57
718.28	373.07
718.61	370.76
718.94	368.38
719.27	366.57
719.61	364.98
719.94	362.38
720.27	359.02
720.60	357.14
720.94	354.69
721.27	353.12
721.60	351.88
721.93	350.57
722.27	349.79
722.60	348.48
722.93	346.69
723.26	344.83
723.59	342.69
723.93	341.50
724.26	340.14
724.59	338.40
724.92	337.48
725.25	336.31
725.59	335.07
725.92	333.60
726.25	332.17
726.58	330.76
726.91	329.52
727.24	328.57
727.57	327.02
727.91	325.67
728.24	324.21
728.57	322.38
728.90	320.88
729.23	318.69
729.56	317.93
729.89	316.81
730.22	315.67
730.55	314.64
730.89	313.36
731.22	312.05
731.55	311.17
731.88	309.90
732.21	308.64
732.54	307.48
732.87	306.45
733.20	305.57
733.53	304.67
733.86	303.76
734.19	302.31
734.52	301.90
734.85	302.55
735.18	301.26
735.51	300.90
735.84	300.21
736.17	300.05
736.50	298.29
736.83	299.83
737.16	298.83
737.49	298.07
737.82	297.02
738.15	296.76
738.48	295.79
738.81	294.52
739.14	293.21
739.47	292.10
739.80	291.21
740.13	290.24
740.46	289.00
740.79	287.86
741.12	287.00
741.45	285.57
741.78	283.50
742.11	283.29
742.44	282.05
742.77	281.67
743.10	280.50
743.43	279.45
743.75	276.45
744.08	278.38
744.41	277.33
744.74	276.69
745.07	275.62
745.40	275.19
745.73	275.40
746.06	275.12
746.39	274.71
746.71	273.81
747.04	272.81
747.37	272.17
747.70	271.81
748.03	271.07
748.36	270.69
748.68	269.90
749.01	268.55
749.34	268.07
749.67	267.40
750.00	267.12
750.33	268.05
750.65	267.50
750.98	264.60
751.31	264.36
751.64	263.83
751.97	264.12
752.29	263.33
752.62	261.95
752.95	261.02
753.28	260.05
753.60	259.48
753.93	259.76
754.26	259.05
754.59	258.12
754.91	257.40
755.24	256.64
755.57	255.95
755.90	255.50
756.22	254.67
756.55	253.67
756.88	252.98
757.20	251.21
757.53	250.21
757.86	249.60
758.19	249.07
758.51	248.55
758.84	246.95
759.17	246.43
759.49	246.10
759.82	246.60
760.15	246.50
760.47	246.19
760.80	245.19
761.13	245.52
761.45	244.88
761.78	244.57
762.11	244.26
762.43	243.95
762.76	243.45
763.08	243.14
763.41	243.12
763.74	242.40
764.06	242.02
764.39	241.64
764.71	241.12
765.04	240.67
765.37	240.29
765.69	239.88
766.02	239.33
766.34	239.00
766.67	238.00
767.00	237.95
767.32	238.74
767.65	239.52
767.97	238.90
768.30	238.81
768.62	238.71
768.95	238.17
769.27	237.86
769.60	238.07
769.92	237.55
770.25	236.55
770.57	236.00
770.90	235.55
771.22	235.14
771.55	235.07
771.87	234.74
772.20	234.29
772.52	235.88
772.85	238.17
773.17	237.52
773.50	237.21
773.82	236.64
774.15	235.21
774.47	233.69
774.80	233.14
775.12	232.76
775.45	232.43
775.77	232.43
776.09	232.31
776.42	231.83
776.74	232.50
777.07	232.38
777.39	232.45
777.72	232.24
778.04	232.14
778.36	231.62
778.69	231.52
779.01	231.26
779.33	229.60
779.66	226.98
779.98	226.81
780.31	226.76
780.63	227.57
780.95	227.95
781.28	227.86
781.60	227.21
781.92	227.17
782.25	226.74
782.57	226.60
782.89	226.14
783.22	226.19
783.54	225.36
783.86	225.69
784.19	225.55
784.51	226.02
784.83	225.36
