SpectraSuite Data File
++++++++++++++++++++++++++++++++++++
Date: Tue Apr 02 18:46:36 EDT 2013
User: group
Dark Spectrum Present: No
Reference Spectrum Present: No
Number of Sampled Component Spectra: 1
Spectrometers: USB2E7196
Integration Time (usec): 580000 (USB2E7196)
Spectra Averaged: 2 (USB2E7196)
Boxcar Smoothing: 10 (USB2E7196)
Correct for Electrical Dark: No (USB2E7196)
Strobe/Lamp Enabled: No (USB2E7196)
Correct for Detector Non-linearity: No (USB2E7196)
Correct for Stray Light: No (USB2E7196)
Number of Pixels in Processed Spectrum: 2048
>>>>>Begin Processed Spectral Data<<<<<
339.09	0.00
339.48	194.00
339.86	193.50
340.24	199.00
340.63	198.00
341.01	234.50
341.39	202.00
341.78	207.00
342.16	213.00
342.54	207.50
342.93	199.33
343.31	209.21
343.69	209.90
344.07	210.52
344.46	211.36
344.84	212.07
345.22	210.95
345.60	211.40
345.99	211.74
346.37	211.57
346.75	211.69
347.13	212.02
347.52	212.26
347.90	212.93
348.28	212.90
348.66	213.36
349.05	212.67
349.43	212.69
349.81	212.71
350.19	212.71
350.57	213.05
350.96	212.95
351.34	213.33
351.72	213.24
352.10	213.26
352.48	212.88
352.87	212.62
353.25	212.52
353.63	212.38
354.01	212.19
354.39	212.21
354.77	212.17
355.15	212.48
355.54	212.17
355.92	211.40
356.30	211.52
356.68	212.62
357.06	212.67
357.44	212.43
357.82	212.29
358.20	213.43
358.58	213.02
358.97	213.24
359.35	213.33
359.73	213.98
360.11	214.29
360.49	214.43
360.87	214.60
361.25	215.02
361.63	215.71
362.01	215.71
362.39	215.71
362.77	215.76
363.15	215.55
363.53	215.60
363.91	215.71
364.29	215.60
364.67	213.88
365.05	213.83
365.43	214.17
365.81	214.45
366.19	214.31
366.57	215.19
366.95	215.14
367.33	214.48
367.71	214.19
368.09	214.24
368.47	214.17
368.85	213.90
369.23	214.05
369.61	213.31
369.99	214.10
370.37	214.36
370.75	215.31
371.13	214.76
371.51	214.45
371.89	214.74
372.27	214.74
372.65	214.74
373.03	214.76
373.41	214.64
373.78	214.52
374.16	213.40
374.54	213.05
374.92	212.86
375.30	213.14
375.68	212.88
376.06	212.98
376.44	212.83
376.82	212.90
377.19	212.86
377.57	212.83
377.95	212.10
378.33	211.90
378.71	210.79
379.09	211.12
379.47	211.38
379.84	211.10
380.22	211.10
380.60	210.79
380.98	210.69
381.36	210.67
381.73	210.40
382.11	210.86
382.49	210.86
382.87	210.60
383.25	210.50
383.62	212.88
384.00	212.55
384.38	212.86
384.76	213.36
385.13	214.05
385.51	214.12
385.89	213.79
386.27	214.02
386.64	214.38
387.02	214.19
387.40	213.98
387.78	214.38
388.15	214.29
388.53	214.31
388.91	214.60
389.29	214.50
389.66	215.07
390.04	214.76
390.42	214.90
390.79	215.24
391.17	215.26
391.55	213.10
391.92	213.12
392.30	213.07
392.68	212.67
393.05	212.38
393.43	212.40
393.81	212.79
394.18	212.33
394.56	212.29
394.94	212.95
395.31	212.86
395.69	213.24
396.06	213.67
396.44	213.83
396.82	213.52
397.19	214.60
397.57	214.14
397.95	214.79
398.32	214.24
398.70	214.48
399.07	215.05
399.45	214.74
399.82	214.71
400.20	214.74
400.58	214.93
400.95	214.38
401.33	214.90
401.70	216.40
402.08	216.71
402.45	216.93
402.83	217.50
403.20	217.88
403.58	217.95
403.95	218.38
404.33	219.02
404.71	219.17
405.08	220.33
405.46	220.60
405.83	220.90
406.21	221.38
406.58	221.76
406.96	222.12
407.33	222.98
407.70	223.86
408.08	226.10
408.45	226.88
408.83	227.83
409.20	228.19
409.58	227.67
409.95	229.02
410.33	229.98
410.70	230.17
411.08	231.36
411.45	232.14
411.82	232.98
412.20	234.29
412.57	236.93
412.95	236.64
413.32	238.64
413.69	239.71
414.07	241.50
414.44	243.36
414.82	245.07
415.19	247.38
415.56	249.33
415.94	250.19
416.31	253.19
416.68	256.19
417.06	259.64
417.43	263.29
417.81	266.36
418.18	270.05
418.55	273.60
418.93	277.67
419.30	281.86
419.67	286.12
420.04	290.52
420.42	294.76
420.79	301.79
421.16	307.52
421.54	314.67
421.91	321.05
422.28	327.02
422.66	333.52
423.03	341.21
423.40	348.29
423.77	355.69
424.15	362.69
424.52	369.98
424.89	378.62
425.26	386.05
425.64	393.40
426.01	401.50
426.38	410.50
426.75	419.57
427.13	428.67
427.50	438.33
427.87	448.31
428.24	457.86
428.61	465.81
428.99	476.98
429.36	487.50
429.73	498.24
430.10	509.71
430.47	521.40
430.85	531.81
431.22	544.38
431.59	558.90
431.96	571.48
432.33	585.69
432.70	598.93
433.08	614.88
433.45	630.45
433.82	645.33
434.19	662.24
434.56	679.02
434.93	694.76
435.30	710.67
435.68	728.10
436.05	745.62
436.42	762.90
436.79	777.88
437.16	794.33
437.53	812.19
437.90	829.95
438.27	847.88
438.64	866.29
439.01	883.14
439.38	896.60
439.75	911.45
440.13	927.10
440.50	942.57
440.87	955.60
441.24	968.93
441.61	983.57
441.98	993.88
442.35	1005.67
442.72	1018.21
443.09	1031.79
443.46	1039.12
443.83	1043.93
444.20	1047.83
444.57	1053.79
444.94	1057.19
445.31	1060.50
445.68	1065.79
446.05	1066.60
446.42	1065.05
446.79	1063.88
447.16	1062.02
447.53	1061.26
447.90	1055.50
448.27	1049.10
448.64	1040.05
449.01	1033.74
449.37	1022.90
449.74	1012.05
450.11	1001.60
450.48	987.21
450.85	971.14
451.22	958.38
451.59	946.79
451.96	936.05
452.33	920.71
452.70	906.50
453.07	889.21
453.43	870.12
453.80	853.86
454.17	838.40
454.54	822.86
454.91	806.60
455.28	790.10
455.65	775.52
456.02	764.52
456.38	752.24
456.75	736.90
457.12	723.24
457.49	711.14
457.86	696.64
458.23	687.21
458.59	676.24
458.96	664.67
459.33	654.10
459.70	643.86
460.07	636.00
460.43	626.67
460.80	618.60
461.17	611.60
461.54	603.81
461.91	595.60
462.27	587.62
462.64	581.33
463.01	574.21
463.38	567.81
463.74	556.79
464.11	549.98
464.48	544.19
464.85	538.50
465.21	533.69
465.58	528.93
465.95	521.67
466.32	516.17
466.68	510.71
467.05	505.93
467.42	500.67
467.78	494.74
468.15	489.79
468.52	486.24
468.88	480.36
469.25	475.88
469.62	472.62
469.98	468.52
470.35	465.07
470.72	461.31
471.08	456.52
471.45	453.64
471.82	451.12
472.18	447.81
472.55	445.40
472.92	441.74
473.28	438.12
473.65	435.38
474.02	432.45
474.38	430.81
474.75	429.10
475.11	426.81
475.48	425.38
475.85	423.71
476.21	421.69
476.58	420.40
476.94	418.95
477.31	417.86
477.67	417.07
478.04	415.83
478.41	415.33
478.77	416.90
479.14	415.71
479.50	415.00
479.87	414.50
480.23	414.40
480.60	414.50
480.96	414.74
481.33	416.00
481.69	415.90
482.06	415.95
482.42	415.88
482.79	416.24
483.15	416.74
483.52	417.64
483.88	417.95
484.25	418.64
484.61	419.67
484.98	419.88
485.34	421.40
485.71	422.64
486.07	423.86
486.44	423.52
486.80	425.45
487.17	427.14
487.53	429.55
487.90	431.48
488.26	434.40
488.62	437.21
488.99	438.90
489.35	441.98
489.72	444.81
490.08	447.43
490.44	450.07
490.81	453.43
491.17	456.64
491.54	460.38
491.90	464.19
492.26	467.64
492.63	471.67
492.99	475.17
493.36	479.48
493.72	483.67
494.08	488.05
494.45	492.76
494.81	497.71
495.17	502.29
495.54	507.10
495.90	510.83
496.26	515.52
496.63	520.71
496.99	526.14
497.35	531.69
497.72	537.74
498.08	544.19
498.44	550.31
498.80	556.45
499.17	562.67
499.53	568.95
499.89	575.74
500.26	582.74
500.62	589.81
500.98	596.90
501.34	603.93
501.71	611.38
502.07	618.64
502.43	625.67
502.79	632.60
503.16	639.76
503.52	647.83
503.88	654.60
504.24	662.45
504.60	670.07
504.97	678.21
505.33	685.57
505.69	693.60
506.05	701.62
506.41	708.81
506.78	716.83
507.14	724.02
507.50	732.05
507.86	739.71
508.22	747.43
508.59	754.62
508.95	762.81
509.31	770.98
509.67	779.26
510.03	786.79
510.39	794.33
510.75	802.31
511.12	809.98
511.48	818.19
511.84	825.88
512.20	833.93
512.56	841.36
512.92	849.21
513.28	856.40
513.64	863.60
514.00	871.60
514.37	879.05
514.73	886.50
515.09	894.02
515.45	901.60
515.81	908.21
516.17	915.14
516.53	921.52
516.89	927.07
517.25	932.98
517.61	940.07
517.97	946.33
518.33	952.86
518.69	959.60
519.05	966.10
519.41	972.12
519.77	979.14
520.13	984.40
520.49	989.98
520.85	996.00
521.21	1002.33
521.57	1007.98
521.93	1012.95
522.29	1018.76
522.65	1023.40
523.01	1028.38
523.37	1034.21
523.73	1039.90
524.09	1044.95
524.45	1050.19
524.81	1054.62
525.17	1059.36
525.53	1064.17
525.89	1067.95
526.25	1072.69
526.61	1076.88
526.97	1081.74
527.33	1085.48
527.68	1091.00
528.04	1094.86
528.40	1098.55
528.76	1102.14
529.12	1107.02
529.48	1112.10
529.84	1115.98
530.20	1120.57
530.56	1124.43
530.91	1127.88
531.27	1131.98
531.63	1136.26
531.99	1140.55
532.35	1143.86
532.71	1147.24
533.07	1151.88
533.42	1158.43
533.78	1161.67
534.14	1166.40
534.50	1169.62
534.86	1173.62
535.21	1176.76
535.57	1181.74
535.93	1186.05
536.29	1191.07
536.65	1193.69
537.00	1195.95
537.36	1199.81
537.72	1203.10
538.08	1206.55
538.44	1209.31
538.79	1212.31
539.15	1215.12
539.51	1218.43
539.87	1223.38
540.22	1226.69
540.58	1229.57
540.94	1231.62
541.29	1235.10
541.65	1237.17
542.01	1240.93
542.37	1243.33
542.72	1245.45
543.08	1246.95
543.44	1249.62
543.79	1250.02
544.15	1253.48
544.51	1256.81
544.87	1259.79
545.22	1262.93
545.58	1266.38
545.94	1269.83
546.29	1272.88
546.65	1275.26
547.01	1277.60
547.36	1279.62
547.72	1282.60
548.07	1285.76
548.43	1287.40
548.79	1289.29
549.14	1291.21
549.50	1293.76
549.86	1295.02
550.21	1297.86
550.57	1301.40
550.92	1303.40
551.28	1307.69
551.64	1310.67
551.99	1313.29
552.35	1315.93
552.70	1318.21
553.06	1321.05
553.41	1323.76
553.77	1327.93
554.13	1332.02
554.48	1336.29
554.84	1341.33
555.19	1344.55
555.55	1349.33
555.90	1353.38
556.26	1356.88
556.61	1360.71
556.97	1363.10
557.32	1368.05
557.68	1372.31
558.03	1376.19
558.39	1380.71
558.74	1384.10
559.10	1387.50
559.45	1392.74
559.81	1397.02
560.16	1400.29
560.52	1403.64
560.87	1408.33
561.23	1411.00
561.58	1416.55
561.94	1420.10
562.29	1422.36
562.64	1427.02
563.00	1429.81
563.35	1434.07
563.71	1439.12
564.06	1444.88
564.42	1450.90
564.77	1456.24
565.12	1461.83
565.48	1468.95
565.83	1474.40
566.19	1480.26
566.54	1485.36
566.89	1489.81
567.25	1495.50
567.60	1503.02
567.96	1510.81
568.31	1517.64
568.66	1525.05
569.02	1529.07
569.37	1534.52
569.72	1541.10
570.08	1546.00
570.43	1550.05
570.78	1555.71
571.14	1561.69
571.49	1566.12
571.84	1571.48
572.20	1577.07
572.55	1581.95
572.90	1584.90
573.26	1589.76
573.61	1594.05
573.96	1599.02
574.31	1603.31
574.67	1606.67
575.02	1609.71
575.37	1611.57
575.72	1614.79
576.08	1617.57
576.43	1620.52
576.78	1624.45
577.13	1627.38
577.49	1630.81
577.84	1636.83
578.19	1640.98
578.54	1645.36
578.90	1649.76
579.25	1652.98
579.60	1655.60
579.95	1658.00
580.30	1661.67
580.66	1665.60
581.01	1669.86
581.36	1673.45
581.71	1677.62
582.06	1682.43
582.42	1686.95
582.77	1690.95
583.12	1693.95
583.47	1697.02
583.82	1701.60
584.17	1704.69
584.53	1709.52
584.88	1713.10
585.23	1715.64
585.58	1718.79
585.93	1720.69
586.28	1724.24
586.63	1727.55
586.98	1730.83
587.34	1735.55
587.69	1738.14
588.04	1740.26
588.39	1741.50
588.74	1742.81
589.09	1744.71
589.44	1744.90
589.79	1746.17
590.14	1748.21
590.49	1749.83
590.84	1751.43
591.19	1753.43
591.54	1756.38
591.89	1756.60
592.25	1759.88
592.60	1761.14
592.95	1762.71
593.30	1764.95
593.65	1765.43
594.00	1765.86
594.35	1772.95
594.70	1773.50
595.05	1775.50
595.40	1775.88
595.75	1777.31
596.10	1779.38
596.45	1781.55
596.80	1784.26
597.15	1785.95
597.50	1786.86
597.85	1788.40
598.19	1788.81
598.54	1789.10
598.89	1788.90
599.24	1789.90
599.59	1789.57
599.94	1790.43
600.29	1790.07
600.64	1789.86
600.99	1790.45
601.34	1791.05
601.69	1784.62
602.04	1783.76
602.39	1782.74
602.74	1784.00
603.08	1783.14
603.43	1784.36
603.78	1782.90
604.13	1782.14
604.48	1781.02
604.83	1781.60
605.18	1780.81
605.53	1781.17
605.87	1780.93
606.22	1780.40
606.57	1779.33
606.92	1777.62
607.27	1777.36
607.62	1776.98
607.96	1776.76
608.31	1777.10
608.66	1776.12
609.01	1775.05
609.36	1774.86
609.70	1773.50
610.05	1771.00
610.40	1770.50
610.75	1767.45
611.10	1766.67
611.44	1764.17
611.79	1763.02
612.14	1760.36
612.49	1757.36
612.83	1754.31
613.18	1751.50
613.53	1749.19
613.88	1746.71
614.22	1744.12
614.57	1739.79
614.92	1736.76
615.27	1733.29
615.61	1728.31
615.96	1725.29
616.31	1722.05
616.65	1719.10
617.00	1716.57
617.35	1713.79
617.70	1710.02
618.04	1706.57
618.39	1702.05
618.74	1697.93
619.08	1693.62
619.43	1689.71
619.78	1686.64
620.12	1684.07
620.47	1680.86
620.82	1675.81
621.16	1671.71
621.51	1668.69
621.85	1665.19
622.20	1660.64
622.55	1655.40
622.89	1652.67
623.24	1648.95
623.59	1645.29
623.93	1640.90
624.28	1637.05
624.62	1635.33
624.97	1633.07
625.32	1629.12
625.66	1625.40
626.01	1622.10
626.35	1619.10
626.70	1615.33
627.04	1612.50
627.39	1607.88
627.73	1604.12
628.08	1601.62
628.43	1597.60
628.77	1593.64
629.12	1590.55
629.46	1587.24
629.81	1584.55
630.15	1579.86
630.50	1575.60
630.84	1571.12
631.19	1566.31
631.53	1560.81
631.88	1553.40
632.22	1546.88
632.57	1542.64
632.91	1537.50
633.26	1533.74
633.60	1528.33
633.95	1522.86
634.29	1517.64
634.64	1513.21
634.98	1508.31
635.32	1503.86
635.67	1501.12
636.01	1497.19
636.36	1492.19
636.70	1487.86
637.05	1482.74
637.39	1478.64
637.73	1474.14
638.08	1471.05
638.42	1466.90
638.77	1463.45
639.11	1458.79
639.45	1454.12
639.80	1449.02
640.14	1444.83
640.49	1438.69
640.83	1433.36
641.17	1429.26
641.52	1423.55
641.86	1418.45
642.20	1413.81
642.55	1408.71
642.89	1402.12
643.23	1396.29
643.58	1391.86
643.92	1386.05
644.26	1380.64
644.61	1375.60
644.95	1370.00
645.29	1362.62
645.64	1357.00
645.98	1350.90
646.32	1346.69
646.66	1340.90
647.01	1334.86
647.35	1329.21
647.69	1324.24
648.04	1319.10
648.38	1313.90
648.72	1308.88
649.06	1303.38
649.41	1296.83
649.75	1289.64
650.09	1283.88
650.43	1277.79
650.78	1270.43
651.12	1264.00
651.46	1258.43
651.80	1251.38
652.14	1245.40
652.49	1240.21
652.83	1234.10
653.17	1227.76
653.51	1220.93
653.85	1216.12
654.20	1210.31
654.54	1203.45
654.88	1197.36
655.22	1192.00
655.56	1185.40
655.90	1178.79
656.25	1172.38
656.59	1166.62
656.93	1160.76
657.27	1155.38
657.61	1148.62
657.95	1144.00
658.29	1137.79
658.64	1131.74
658.98	1125.21
659.32	1118.14
659.66	1111.55
660.00	1105.45
660.34	1099.38
660.68	1093.62
661.02	1086.69
661.36	1080.86
661.70	1075.88
662.05	1070.38
662.39	1064.02
662.73	1058.62
663.07	1053.67
663.41	1047.95
663.75	1041.76
664.09	1036.60
664.43	1030.05
664.77	1024.95
665.11	1017.95
665.45	1012.40
665.79	1007.21
666.13	1001.40
666.47	996.29
666.81	991.17
667.15	985.67
667.49	980.95
667.83	975.67
668.17	970.10
668.51	964.26
668.85	958.10
669.19	953.52
669.53	947.26
669.87	941.12
670.21	935.33
670.55	929.31
670.89	924.95
671.23	919.95
671.57	915.12
671.91	910.12
672.25	905.17
672.58	900.81
672.92	895.00
673.26	889.88
673.60	884.48
673.94	879.12
674.28	874.21
674.62	869.19
674.96	864.29
675.30	859.60
675.64	854.81
675.97	850.43
676.31	844.24
676.65	839.50
676.99	835.93
677.33	830.79
677.67	826.60
678.01	820.98
678.34	815.64
678.68	810.95
679.02	805.31
679.36	799.57
679.70	793.83
680.04	788.60
680.37	784.57
680.71	779.79
681.05	775.81
681.39	770.17
681.73	765.36
682.06	759.57
682.40	755.26
682.74	751.00
683.08	746.81
683.42	741.71
683.75	737.12
684.09	730.95
684.43	726.38
684.77	721.26
685.10	716.26
685.44	711.10
685.78	705.86
686.12	701.95
686.45	697.95
686.79	693.45
687.13	689.55
687.46	684.33
687.80	681.02
688.14	675.24
688.48	671.36
688.81	666.55
689.15	662.98
689.49	657.74
689.82	653.02
690.16	647.79
690.50	643.52
690.83	638.64
691.17	634.17
691.51	629.48
691.84	625.62
692.18	621.26
692.52	617.17
692.85	613.12
693.19	609.02
693.52	604.52
693.86	600.17
694.20	595.43
694.53	591.64
694.87	586.26
695.21	582.21
695.54	577.98
695.88	573.26
696.21	568.60
696.55	564.93
696.88	561.00
697.22	556.64
697.56	553.33
697.89	549.60
698.23	545.90
698.56	542.24
698.90	538.29
699.23	534.52
699.57	531.29
699.90	527.50
700.24	523.14
700.58	519.60
700.91	516.24
701.25	514.21
701.58	511.76
701.92	509.19
702.25	506.26
702.59	502.81
702.92	499.60
703.26	496.17
703.59	492.67
703.93	491.07
704.26	488.60
704.60	485.10
704.93	481.86
705.26	478.60
705.60	475.88
705.93	472.62
706.27	470.33
706.60	467.45
706.94	465.62
707.27	462.55
707.61	459.76
707.94	456.83
708.27	452.52
708.61	448.48
708.94	445.64
709.28	442.64
709.61	440.00
709.94	437.55
710.28	435.19
710.61	432.71
710.95	428.69
711.28	427.36
711.61	425.14
711.95	423.50
712.28	420.98
712.61	418.14
712.95	416.71
713.28	415.10
713.61	412.26
713.95	409.02
714.28	407.17
714.61	404.98
714.95	402.76
715.28	400.33
715.61	398.19
715.95	395.88
716.28	393.79
716.61	391.93
716.95	389.38
717.28	387.17
717.61	384.95
717.94	382.43
718.28	379.07
718.61	376.83
718.94	374.17
719.27	371.98
719.61	369.74
719.94	367.14
720.27	363.86
720.60	362.19
720.94	360.19
721.27	358.40
721.60	356.88
721.93	355.05
722.27	354.24
722.60	352.83
722.93	350.57
723.26	349.14
723.59	347.05
723.93	345.88
724.26	344.55
724.59	342.79
724.92	341.60
725.25	340.33
725.59	339.10
725.92	337.93
726.25	336.64
726.58	335.64
726.91	334.38
727.24	333.55
727.57	331.71
727.91	329.86
728.24	328.48
728.57	326.90
728.90	325.57
729.23	323.52
729.56	322.79
729.89	321.90
730.22	320.60
730.55	319.50
730.89	318.12
731.22	316.52
731.55	315.60
731.88	314.40
732.21	312.98
732.54	311.36
732.87	310.14
733.20	309.21
733.53	308.05
733.86	307.05
734.19	305.43
734.52	304.74
734.85	305.50
735.18	304.14
735.51	303.81
735.84	303.19
736.17	302.79
736.50	300.62
736.83	301.95
737.16	300.71
737.49	299.90
737.82	298.74
738.15	298.07
738.48	297.36
738.81	296.12
739.14	294.93
739.47	293.90
739.80	292.81
740.13	292.00
740.46	290.83
740.79	289.26
741.12	288.74
741.45	287.67
741.78	285.50
742.11	285.02
742.44	283.43
742.77	283.00
743.10	281.62
743.43	281.10
743.75	278.14
744.08	279.74
744.41	278.48
744.74	277.52
745.07	276.17
745.40	275.40
745.73	275.81
746.06	275.24
746.39	274.76
746.71	274.12
747.04	272.90
747.37	272.38
747.70	272.19
748.03	271.45
748.36	271.10
748.68	270.50
749.01	269.55
749.34	268.93
749.67	267.93
750.00	267.60
750.33	268.14
750.65	267.62
750.98	264.79
751.31	264.40
751.64	264.02
751.97	264.86
752.29	264.02
752.62	262.19
752.95	261.24
753.28	260.62
753.60	259.62
753.93	259.74
754.26	259.17
754.59	258.26
754.91	257.40
755.24	256.83
755.57	256.05
755.90	255.57
756.22	255.17
756.55	254.36
756.88	253.67
757.20	252.24
757.53	251.24
757.86	250.86
758.19	250.33
758.51	249.74
758.84	248.07
759.17	247.45
759.49	247.02
759.82	247.55
760.15	247.14
760.47	246.71
760.80	245.86
761.13	245.55
761.45	245.10
761.78	244.71
762.11	244.14
762.43	243.64
762.76	243.14
763.08	242.86
763.41	242.52
763.74	242.05
764.06	241.52
764.39	241.26
764.71	240.79
765.04	240.40
765.37	239.95
765.69	239.60
766.02	239.19
766.34	239.05
766.67	238.00
767.00	238.10
767.32	239.07
767.65	239.79
767.97	239.31
768.30	239.00
768.62	238.71
768.95	238.24
769.27	238.02
769.60	237.93
769.92	237.26
770.25	236.90
770.57	236.48
770.90	236.29
771.22	235.79
771.55	235.52
771.87	235.40
772.20	235.26
772.52	236.95
772.85	239.55
773.17	239.21
773.50	238.93
773.82	238.24
774.15	237.07
774.47	235.71
774.80	235.43
775.12	235.17
775.45	234.95
775.77	234.71
776.09	234.74
776.42	234.48
776.74	235.00
777.07	234.64
777.39	234.33
777.72	233.60
778.04	233.67
778.36	233.38
778.69	233.38
779.01	233.17
779.33	231.17
779.66	228.17
779.98	227.86
780.31	227.76
780.63	228.55
780.95	228.74
781.28	228.60
781.60	228.29
781.92	228.31
782.25	228.02
782.57	228.00
782.89	227.60
783.22	227.17
783.54	226.60
783.86	226.50
784.19	226.38
784.51	227.05
784.83	226.48
