SpectraSuite Data File
++++++++++++++++++++++++++++++++++++
Date: Tue Apr 02 18:46:51 EDT 2013
User: group
Dark Spectrum Present: No
Reference Spectrum Present: No
Number of Sampled Component Spectra: 1
Spectrometers: USB2E7196
Integration Time (usec): 580000 (USB2E7196)
Spectra Averaged: 2 (USB2E7196)
Boxcar Smoothing: 10 (USB2E7196)
Correct for Electrical Dark: No (USB2E7196)
Strobe/Lamp Enabled: No (USB2E7196)
Correct for Detector Non-linearity: No (USB2E7196)
Correct for Stray Light: No (USB2E7196)
Number of Pixels in Processed Spectrum: 2048
>>>>>Begin Processed Spectral Data<<<<<
339.09	0.00
339.48	192.00
339.86	195.50
340.24	195.00
340.63	198.50
341.01	226.50
341.39	200.50
341.78	205.00
342.16	214.00
342.54	207.00
342.93	197.50
343.31	207.33
343.69	207.71
344.07	208.02
344.46	208.74
344.84	209.33
345.22	208.31
345.60	208.83
345.99	209.07
346.37	208.79
346.75	208.64
347.13	208.57
347.52	208.93
347.90	209.69
348.28	209.69
348.66	209.93
349.05	209.31
349.43	209.67
349.81	209.88
350.19	210.10
350.57	209.93
350.96	209.98
351.34	210.14
351.72	210.38
352.10	210.81
352.48	210.69
352.87	210.64
353.25	210.64
353.63	210.71
354.01	210.55
354.39	210.74
354.77	211.07
355.15	211.52
355.54	211.29
355.92	210.52
356.30	210.55
356.68	211.79
357.06	212.10
357.44	211.74
357.82	211.64
358.20	212.67
358.58	212.71
358.97	212.93
359.35	213.45
359.73	213.90
360.11	213.60
360.49	213.88
360.87	213.81
361.25	214.24
361.63	214.79
362.01	215.00
362.39	214.95
362.77	215.14
363.15	215.24
363.53	215.12
363.91	215.40
364.29	215.57
364.67	213.90
365.05	213.79
365.43	214.19
365.81	214.50
366.19	214.45
366.57	215.24
366.95	215.17
367.33	214.60
367.71	214.57
368.09	215.43
368.47	215.43
368.85	215.52
369.23	215.95
369.61	215.21
369.99	215.93
370.37	216.12
370.75	216.95
371.13	216.52
371.51	216.26
371.89	216.52
372.27	216.74
372.65	216.79
373.03	217.02
373.41	216.76
373.78	216.50
374.16	215.45
374.54	214.83
374.92	214.88
375.30	214.98
375.68	214.79
376.06	214.69
376.44	214.52
376.82	214.81
377.19	214.62
377.57	214.52
377.95	213.81
378.33	213.64
378.71	212.52
379.09	212.83
379.47	213.21
379.84	213.07
380.22	212.81
380.60	212.64
380.98	212.50
381.36	212.48
381.73	212.48
382.11	212.90
382.49	212.98
382.87	212.57
383.25	212.69
383.62	214.98
384.00	214.76
384.38	214.64
384.76	214.81
385.13	215.64
385.51	215.86
385.89	215.64
386.27	215.86
386.64	216.05
387.02	215.88
387.40	215.76
387.78	215.83
388.15	215.93
388.53	215.71
388.91	215.71
389.29	215.57
389.66	215.79
390.04	215.33
390.42	215.62
390.79	215.81
391.17	215.86
391.55	213.62
391.92	213.38
392.30	213.71
392.68	213.29
393.05	213.00
393.43	212.90
393.81	213.05
394.18	212.67
394.56	212.76
394.94	213.26
395.31	213.14
395.69	213.74
396.06	213.88
396.44	214.10
396.82	214.05
397.19	215.02
397.57	214.83
397.95	215.17
398.32	214.76
398.70	214.98
399.07	215.17
399.45	215.12
399.82	215.00
400.20	214.81
400.58	214.74
400.95	213.93
401.33	214.36
401.70	215.88
402.08	216.12
402.45	216.10
402.83	216.36
403.20	216.36
403.58	216.14
403.95	216.55
404.33	217.19
404.71	217.45
405.08	219.07
405.46	219.36
405.83	219.95
406.21	220.21
406.58	220.55
406.96	220.90
407.33	221.55
407.70	222.60
408.08	224.83
408.45	225.83
408.83	226.98
409.20	227.48
409.58	226.98
409.95	228.07
410.33	229.29
410.70	229.67
411.08	230.83
411.45	231.98
411.82	232.86
412.20	234.40
412.57	236.69
412.95	236.05
413.32	237.86
413.69	239.21
414.07	241.00
414.44	242.95
414.82	245.24
415.19	247.64
415.56	249.67
415.94	250.69
416.31	253.60
416.68	256.14
417.06	259.45
417.43	263.10
417.81	266.55
418.18	270.14
418.55	274.24
418.93	278.50
419.30	282.69
419.67	287.14
420.04	291.36
420.42	295.45
420.79	302.26
421.16	307.95
421.54	315.10
421.91	321.48
422.28	327.43
422.66	333.76
423.03	341.69
423.40	348.52
423.77	356.12
424.15	362.95
424.52	370.43
424.89	378.76
425.26	385.95
425.64	393.33
426.01	401.26
426.38	409.71
426.75	419.21
427.13	428.29
427.50	437.74
427.87	447.33
428.24	457.14
428.61	465.93
428.99	476.86
429.36	486.67
429.73	497.55
430.10	509.12
430.47	520.48
430.85	530.98
431.22	543.43
431.59	558.12
431.96	570.88
432.33	585.19
432.70	598.95
433.08	615.57
433.45	630.90
433.82	646.43
434.19	663.31
434.56	679.67
434.93	694.98
435.30	711.12
435.68	728.98
436.05	746.31
436.42	762.64
436.79	778.31
437.16	794.86
437.53	813.38
437.90	831.31
438.27	849.10
438.64	866.93
439.01	883.88
439.38	897.29
439.75	912.33
440.13	928.26
440.50	943.38
440.87	955.38
441.24	968.33
441.61	982.33
441.98	992.90
442.35	1005.33
442.72	1018.62
443.09	1031.60
443.46	1039.07
443.83	1045.05
444.20	1049.81
444.57	1055.79
444.94	1059.50
445.31	1062.24
445.68	1067.95
446.05	1069.17
446.42	1068.26
446.79	1066.93
447.16	1065.17
447.53	1063.79
447.90	1058.24
448.27	1052.29
448.64	1044.05
449.01	1038.26
449.37	1027.95
449.74	1017.05
450.11	1005.29
450.48	990.48
450.85	974.29
451.22	961.52
451.59	949.00
451.96	937.71
452.33	922.21
452.70	908.55
453.07	891.43
453.43	871.26
453.80	854.88
454.17	838.86
454.54	823.26
454.91	807.10
455.28	791.43
455.65	776.43
456.02	764.90
456.38	752.00
456.75	736.81
457.12	723.19
457.49	711.05
457.86	696.52
458.23	686.90
458.59	675.62
458.96	664.12
459.33	653.26
459.70	643.55
460.07	635.48
460.43	625.81
460.80	617.55
461.17	610.55
461.54	602.43
461.91	594.57
462.27	586.64
462.64	579.60
463.01	572.05
463.38	566.10
463.74	555.38
464.11	549.33
464.48	543.24
464.85	536.83
465.21	532.33
465.58	527.88
465.95	521.31
466.32	516.21
466.68	511.19
467.05	506.31
467.42	500.79
467.78	495.38
468.15	490.50
468.52	486.86
468.88	481.43
469.25	476.83
469.62	473.43
469.98	469.74
470.35	466.12
470.72	462.21
471.08	457.48
471.45	455.05
471.82	452.33
472.18	449.17
472.55	446.98
472.92	443.52
473.28	440.45
473.65	437.55
474.02	435.17
474.38	432.88
474.75	431.07
475.11	428.93
475.48	427.21
475.85	425.60
476.21	423.38
476.58	421.98
476.94	421.00
477.31	419.45
477.67	418.10
478.04	417.21
478.41	416.95
478.77	418.10
479.14	416.64
479.50	415.86
479.87	415.33
480.23	414.95
480.60	414.14
480.96	414.02
481.33	414.60
481.69	414.86
482.06	414.88
482.42	415.02
482.79	415.33
483.15	415.79
483.52	416.43
483.88	416.83
484.25	417.57
484.61	418.26
484.98	418.93
485.34	420.86
485.71	422.45
486.07	423.62
486.44	423.17
486.80	424.67
487.17	425.83
487.53	427.90
487.90	430.24
488.26	433.00
488.62	435.95
488.99	437.93
489.35	440.19
489.72	442.71
490.08	445.31
490.44	447.95
490.81	451.21
491.17	454.19
491.54	458.14
491.90	462.19
492.26	466.14
492.63	470.17
492.99	473.26
493.36	477.02
493.72	481.50
494.08	486.00
494.45	491.24
494.81	496.43
495.17	501.10
495.54	505.90
495.90	510.93
496.26	515.76
496.63	521.21
496.99	526.71
497.35	532.95
497.72	539.10
498.08	544.74
498.44	550.83
498.80	557.83
499.17	563.26
499.53	569.31
499.89	576.17
500.26	582.79
500.62	589.62
500.98	596.69
501.34	603.45
501.71	611.05
502.07	617.88
502.43	625.17
502.79	632.29
503.16	639.40
503.52	646.50
503.88	653.21
504.24	661.02
504.60	669.24
504.97	676.81
505.33	684.43
505.69	693.43
506.05	700.98
506.41	708.43
506.78	716.74
507.14	723.64
507.50	730.74
507.86	739.24
508.22	747.24
508.59	754.45
508.95	762.55
509.31	770.60
509.67	778.31
510.03	785.55
510.39	793.24
510.75	800.69
511.12	808.60
511.48	816.40
511.84	823.12
512.20	830.81
512.56	838.45
512.92	846.00
513.28	853.50
513.64	861.14
514.00	868.07
514.37	875.31
514.73	883.24
515.09	890.98
515.45	897.05
515.81	903.83
516.17	911.24
516.53	917.26
516.89	923.24
517.25	930.17
517.61	938.00
517.97	944.21
518.33	950.90
518.69	957.26
519.05	964.10
519.41	971.17
519.77	977.83
520.13	983.55
520.49	989.31
520.85	993.95
521.21	1000.38
521.57	1005.98
521.93	1011.31
522.29	1016.81
522.65	1021.40
523.01	1027.24
523.37	1033.02
523.73	1038.26
524.09	1044.14
524.45	1049.26
524.81	1053.36
525.17	1057.71
525.53	1063.10
525.89	1067.79
526.25	1073.02
526.61	1076.76
526.97	1080.38
527.33	1084.10
527.68	1089.76
528.04	1094.00
528.40	1098.69
528.76	1102.43
529.12	1107.38
529.48	1112.71
529.84	1116.79
530.20	1122.02
530.56	1126.14
530.91	1129.86
531.27	1134.60
531.63	1138.48
531.99	1141.90
532.35	1146.52
532.71	1150.10
533.07	1154.64
533.42	1161.48
533.78	1164.86
534.14	1169.43
534.50	1173.83
534.86	1178.79
535.21	1181.79
535.57	1186.50
535.93	1189.76
536.29	1194.69
536.65	1198.14
537.00	1201.12
537.36	1205.10
537.72	1207.93
538.08	1211.14
538.44	1214.38
538.79	1216.86
539.15	1218.90
539.51	1221.79
539.87	1225.43
540.22	1228.81
540.58	1231.83
540.94	1232.38
541.29	1235.24
541.65	1237.12
542.01	1240.48
542.37	1242.36
542.72	1243.81
543.08	1245.55
543.44	1248.57
543.79	1248.74
544.15	1251.38
544.51	1254.33
544.87	1256.43
545.22	1259.12
545.58	1262.38
545.94	1265.17
546.29	1268.29
546.65	1272.60
547.01	1277.02
547.36	1278.71
547.72	1280.48
548.07	1282.43
548.43	1285.17
548.79	1287.00
549.14	1289.83
549.50	1292.55
549.86	1294.33
550.21	1297.83
550.57	1301.71
550.92	1303.38
551.28	1307.81
551.64	1310.67
551.99	1313.33
552.35	1316.57
552.70	1319.76
553.06	1322.76
553.41	1325.76
553.77	1329.62
554.13	1332.38
554.48	1335.21
554.84	1339.76
555.19	1343.86
555.55	1349.21
555.90	1352.19
556.26	1356.71
556.61	1361.33
556.97	1364.00
557.32	1368.02
557.68	1372.36
558.03	1375.69
558.39	1380.52
558.74	1384.05
559.10	1387.40
559.45	1391.38
559.81	1395.33
560.16	1398.74
560.52	1402.57
560.87	1408.05
561.23	1411.21
561.58	1417.38
561.94	1420.86
562.29	1424.76
562.64	1429.95
563.00	1433.57
563.35	1438.10
563.71	1442.67
564.06	1447.40
564.42	1452.76
564.77	1457.90
565.12	1462.76
565.48	1469.93
565.83	1475.88
566.19	1481.98
566.54	1487.52
566.89	1492.88
567.25	1499.02
567.60	1506.57
567.96	1514.38
568.31	1519.90
568.66	1526.07
569.02	1530.10
569.37	1536.50
569.72	1541.38
570.08	1546.71
570.43	1551.71
570.78	1558.19
571.14	1563.40
571.49	1567.62
571.84	1573.81
572.20	1578.71
572.55	1582.81
572.90	1584.62
573.26	1588.48
573.61	1592.19
573.96	1597.33
574.31	1601.57
574.67	1605.21
575.02	1607.86
575.37	1609.45
575.72	1612.55
576.08	1616.79
576.43	1620.38
576.78	1623.48
577.13	1627.62
577.49	1631.14
577.84	1635.12
578.19	1638.26
578.54	1643.19
578.90	1648.62
579.25	1651.45
579.60	1655.40
579.95	1658.57
580.30	1663.60
580.66	1668.52
581.01	1672.55
581.36	1675.24
581.71	1679.67
582.06	1684.83
582.42	1689.21
582.77	1692.71
583.12	1696.33
583.47	1699.38
583.82	1702.48
584.17	1706.38
584.53	1710.90
584.88	1713.88
585.23	1717.19
585.58	1719.81
585.93	1721.45
586.28	1723.76
586.63	1727.12
586.98	1730.45
587.34	1735.24
587.69	1737.69
588.04	1740.71
588.39	1742.55
588.74	1744.93
589.09	1747.02
589.44	1747.26
589.79	1748.83
590.14	1751.24
590.49	1753.10
590.84	1754.67
591.19	1757.62
591.54	1759.36
591.89	1759.86
592.25	1763.19
592.60	1764.40
592.95	1766.86
593.30	1769.81
593.65	1770.76
594.00	1770.74
594.35	1777.67
594.70	1777.93
595.05	1779.10
595.40	1778.93
595.75	1779.86
596.10	1782.05
596.45	1783.21
596.80	1784.95
597.15	1786.81
597.50	1787.05
597.85	1788.60
598.19	1789.62
598.54	1789.76
598.89	1790.02
599.24	1791.62
599.59	1790.90
599.94	1791.69
600.29	1792.33
600.64	1792.14
600.99	1792.12
601.34	1793.29
601.69	1786.50
602.04	1786.95
602.39	1786.79
602.74	1787.05
603.08	1786.88
603.43	1786.76
603.78	1786.24
604.13	1785.93
604.48	1784.45
604.83	1785.93
605.18	1785.45
605.53	1785.14
605.87	1784.26
606.22	1783.74
606.57	1781.76
606.92	1780.57
607.27	1779.17
607.62	1777.52
607.96	1776.98
608.31	1777.90
608.66	1776.71
609.01	1776.00
609.36	1774.74
609.70	1773.55
610.05	1771.62
610.40	1770.74
610.75	1768.21
611.10	1766.43
611.44	1763.93
611.79	1762.26
612.14	1758.90
612.49	1755.05
612.83	1753.14
613.18	1750.14
613.53	1747.33
613.88	1744.50
614.22	1741.88
614.57	1738.67
614.92	1735.57
615.27	1731.86
615.61	1726.86
615.96	1723.21
616.31	1720.07
616.65	1717.71
617.00	1715.14
617.35	1712.48
617.70	1709.31
618.04	1706.12
618.39	1703.10
618.74	1700.38
619.08	1696.55
619.43	1693.52
619.78	1691.21
620.12	1686.67
620.47	1683.79
620.82	1680.05
621.16	1675.43
621.51	1672.07
621.85	1669.10
622.20	1666.29
622.55	1661.86
622.89	1659.00
623.24	1656.36
623.59	1652.71
623.93	1648.71
624.28	1643.67
624.62	1641.14
624.97	1638.19
625.32	1634.50
625.66	1629.64
626.01	1625.43
626.35	1621.93
626.70	1618.21
627.04	1615.07
627.39	1611.79
627.73	1608.62
628.08	1605.43
628.43	1602.38
628.77	1598.24
629.12	1594.07
629.46	1589.26
629.81	1585.21
630.15	1581.07
630.50	1576.21
630.84	1571.71
631.19	1565.93
631.53	1561.74
631.88	1554.86
632.22	1548.43
632.57	1544.45
632.91	1539.43
633.26	1535.07
633.60	1529.48
633.95	1523.12
634.29	1517.02
634.64	1512.02
634.98	1506.40
635.32	1502.33
635.67	1498.69
636.01	1494.40
636.36	1488.64
636.70	1484.45
637.05	1480.48
637.39	1475.57
637.73	1470.64
638.08	1466.76
638.42	1463.02
638.77	1458.00
639.11	1454.10
639.45	1449.81
639.80	1444.40
640.14	1440.38
640.49	1435.12
640.83	1430.88
641.17	1427.60
641.52	1423.36
641.86	1417.86
642.20	1413.10
642.55	1407.02
642.89	1401.71
643.23	1395.74
643.58	1391.90
643.92	1386.26
644.26	1380.90
644.61	1375.55
644.95	1370.62
645.29	1364.29
645.64	1359.02
645.98	1354.17
646.32	1349.62
646.66	1343.76
647.01	1337.62
647.35	1332.14
647.69	1326.60
648.04	1320.64
648.38	1314.48
648.72	1308.10
649.06	1302.74
649.41	1296.45
649.75	1291.00
650.09	1284.60
650.43	1278.10
650.78	1271.33
651.12	1265.10
651.46	1258.45
651.80	1252.76
652.14	1246.43
652.49	1240.88
652.83	1233.90
653.17	1227.71
653.51	1220.19
653.85	1214.98
654.20	1209.24
654.54	1203.05
654.88	1197.21
655.22	1191.86
655.56	1185.67
655.90	1179.79
656.25	1173.81
656.59	1167.67
656.93	1161.21
657.27	1156.12
657.61	1150.48
657.95	1144.67
658.29	1138.50
658.64	1133.36
658.98	1127.05
659.32	1120.95
659.66	1114.50
660.00	1109.31
660.34	1102.81
660.68	1096.88
661.02	1090.45
661.36	1084.29
661.70	1078.12
662.05	1072.17
662.39	1065.90
662.73	1060.71
663.07	1055.76
663.41	1049.57
663.75	1043.86
664.09	1038.12
664.43	1031.67
664.77	1025.86
665.11	1019.79
665.45	1014.79
665.79	1008.81
666.13	1002.86
666.47	997.64
666.81	992.55
667.15	986.83
667.49	981.76
667.83	977.05
668.17	971.48
668.51	966.36
668.85	961.69
669.19	956.50
669.53	951.02
669.87	944.71
670.21	938.69
670.55	933.36
670.89	929.21
671.23	924.14
671.57	918.71
671.91	913.88
672.25	908.81
672.58	903.55
672.92	897.81
673.26	892.81
673.60	887.48
673.94	881.81
674.28	876.95
674.62	872.60
674.96	867.45
675.30	862.93
675.64	858.02
675.97	852.12
676.31	846.93
676.65	841.64
676.99	838.10
677.33	833.24
677.67	828.83
678.01	823.43
678.34	818.64
678.68	814.48
679.02	809.64
679.36	804.50
679.70	799.45
680.04	794.81
680.37	789.62
680.71	784.83
681.05	780.86
681.39	775.98
681.73	770.40
682.06	764.88
682.40	759.86
682.74	755.02
683.08	751.19
683.42	746.00
683.75	741.45
684.09	735.55
684.43	730.48
684.77	725.48
685.10	720.52
685.44	715.33
685.78	709.62
686.12	704.71
686.45	700.40
686.79	695.52
687.13	690.88
687.46	686.62
687.80	682.40
688.14	677.36
688.48	672.43
688.81	667.86
689.15	664.12
689.49	659.62
689.82	654.52
690.16	648.95
690.50	644.64
690.83	640.43
691.17	635.98
691.51	631.57
691.84	627.17
692.18	622.40
692.52	618.31
692.85	614.83
693.19	611.95
693.52	607.67
693.86	603.07
694.20	599.21
694.53	594.98
694.87	590.17
695.21	585.67
695.54	581.33
695.88	577.07
696.21	572.12
696.55	567.74
696.88	564.24
697.22	560.40
697.56	556.79
697.89	552.79
698.23	549.14
698.56	545.33
698.90	541.50
699.23	537.52
699.57	534.10
699.90	529.95
700.24	524.74
700.58	521.14
700.91	517.88
701.25	515.95
701.58	513.21
701.92	510.33
702.25	507.43
702.59	503.86
702.92	500.76
703.26	497.74
703.59	494.67
703.93	493.10
704.26	490.33
704.60	487.14
704.93	483.57
705.26	480.19
705.60	477.31
705.93	473.83
706.27	471.88
706.60	469.02
706.94	467.17
707.27	464.02
707.61	461.12
707.94	458.52
708.27	454.10
708.61	450.86
708.94	448.05
709.28	445.48
709.61	442.93
709.94	440.36
710.28	438.05
710.61	435.52
710.95	431.00
711.28	429.74
711.61	427.07
711.95	425.40
712.28	422.88
712.61	420.31
712.95	419.26
713.28	417.45
713.61	414.64
713.95	411.48
714.28	409.86
714.61	407.48
714.95	404.79
715.28	401.98
715.61	399.45
715.95	397.24
716.28	394.69
716.61	392.81
716.95	390.21
717.28	387.83
717.61	385.31
717.94	383.55
718.28	379.95
718.61	377.81
718.94	375.19
719.27	373.19
719.61	371.43
719.94	368.79
720.27	365.74
720.60	363.55
720.94	362.00
721.27	360.14
721.60	358.67
721.93	357.00
722.27	356.02
722.60	354.36
722.93	352.14
723.26	350.55
723.59	348.38
723.93	346.98
724.26	345.64
724.59	344.12
724.92	342.79
725.25	342.12
725.59	340.64
725.92	339.83
726.25	338.33
726.58	337.14
726.91	335.55
727.24	334.62
727.57	333.48
727.91	331.55
728.24	330.21
728.57	328.74
728.90	327.81
729.23	325.83
729.56	325.38
729.89	324.38
730.22	322.90
730.55	321.71
730.89	320.43
731.22	318.83
731.55	317.64
731.88	316.40
732.21	314.81
732.54	313.45
732.87	311.95
733.20	311.21
733.53	309.86
733.86	308.90
734.19	307.29
734.52	306.33
734.85	306.57
735.18	305.40
735.51	304.90
735.84	303.95
736.17	303.62
736.50	301.79
736.83	302.90
737.16	302.24
737.49	301.45
737.82	300.29
738.15	299.76
738.48	298.64
738.81	297.67
739.14	296.33
739.47	295.50
739.80	294.62
740.13	293.81
740.46	292.55
740.79	291.48
741.12	290.36
741.45	289.31
741.78	287.48
742.11	287.14
742.44	285.98
742.77	285.48
743.10	284.24
743.43	283.05
743.75	280.24
744.08	281.79
744.41	280.90
744.74	280.02
745.07	278.86
745.40	278.57
745.73	278.57
746.06	277.81
746.39	277.21
746.71	276.17
747.04	274.95
747.37	274.10
747.70	273.71
748.03	273.29
748.36	272.98
748.68	272.07
749.01	270.74
749.34	270.02
749.67	269.12
750.00	268.83
750.33	269.95
750.65	269.83
750.98	266.93
751.31	266.31
751.64	266.02
751.97	266.69
752.29	266.02
752.62	264.33
752.95	263.64
753.28	262.79
753.60	262.17
753.93	261.95
754.26	261.62
754.59	260.52
754.91	259.64
755.24	258.74
755.57	258.45
755.90	257.79
756.22	256.81
756.55	255.67
756.88	254.48
757.20	252.69
757.53	251.33
757.86	250.50
758.19	250.31
758.51	249.69
758.84	248.07
759.17	247.33
759.49	247.14
759.82	247.74
760.15	247.62
760.47	247.10
760.80	246.26
761.13	246.40
761.45	245.83
761.78	245.43
762.11	244.98
762.43	244.45
762.76	243.93
763.08	243.90
763.41	244.12
763.74	244.05
764.06	243.45
764.39	243.14
764.71	242.79
765.04	242.14
765.37	241.55
765.69	241.14
766.02	240.74
766.34	240.33
766.67	239.29
767.00	239.14
767.32	239.98
767.65	240.79
767.97	240.05
768.30	239.81
768.62	239.69
768.95	239.12
769.27	238.79
769.60	238.76
769.92	238.33
770.25	237.43
770.57	236.90
770.90	236.69
771.22	236.14
771.55	235.98
771.87	235.86
772.20	235.67
772.52	237.07
772.85	239.36
773.17	239.07
773.50	238.64
773.82	238.05
774.15	236.76
774.47	235.38
774.80	234.98
775.12	234.67
775.45	234.43
775.77	234.57
776.09	234.19
776.42	234.14
776.74	234.36
777.07	233.93
777.39	233.64
777.72	233.02
778.04	233.21
778.36	232.93
778.69	232.55
779.01	232.48
779.33	230.62
779.66	227.98
779.98	227.57
780.31	227.64
780.63	228.45
780.95	228.62
781.28	228.48
781.60	227.98
781.92	228.00
782.25	227.88
782.57	227.55
782.89	227.45
783.22	227.00
783.54	226.14
783.86	226.48
784.19	226.24
784.51	226.93
784.83	226.57
