SpectraSuite Data File
++++++++++++++++++++++++++++++++++++
Date: Tue Apr 02 18:44:00 EDT 2013
User: group
Dark Spectrum Present: No
Reference Spectrum Present: No
Number of Sampled Component Spectra: 1
Spectrometers: USB2E7196
Integration Time (usec): 580000 (USB2E7196)
Spectra Averaged: 2 (USB2E7196)
Boxcar Smoothing: 10 (USB2E7196)
Correct for Electrical Dark: No (USB2E7196)
Strobe/Lamp Enabled: No (USB2E7196)
Correct for Detector Non-linearity: No (USB2E7196)
Correct for Stray Light: No (USB2E7196)
Number of Pixels in Processed Spectrum: 2048
>>>>>Begin Processed Spectral Data<<<<<
339.09	0.00
339.48	191.00
339.86	195.00
340.24	194.00
340.63	197.50
341.01	234.00
341.39	198.00
341.78	203.50
342.16	209.00
342.54	199.50
342.93	196.57
343.31	206.36
343.69	207.05
344.07	207.69
344.46	208.43
344.84	208.98
345.22	207.79
345.60	208.40
345.99	208.62
346.37	208.52
346.75	208.79
347.13	208.71
347.52	209.00
347.90	209.71
348.28	209.67
348.66	210.24
349.05	209.52
349.43	209.67
349.81	210.10
350.19	210.64
350.57	210.81
350.96	210.93
351.34	211.43
351.72	211.55
352.10	211.57
352.48	211.60
352.87	211.64
353.25	211.81
353.63	211.79
354.01	211.74
354.39	211.93
354.77	212.48
355.15	213.24
355.54	213.10
355.92	212.67
356.30	212.86
356.68	214.33
357.06	214.45
357.44	214.10
357.82	213.98
358.20	214.90
358.58	214.98
358.97	215.07
359.35	215.31
359.73	215.79
360.11	215.98
360.49	216.02
360.87	216.10
361.25	216.17
361.63	216.83
362.01	217.19
362.39	217.17
362.77	217.10
363.15	216.98
363.53	216.95
363.91	217.14
364.29	217.10
364.67	215.05
365.05	215.21
365.43	215.81
365.81	216.05
366.19	216.14
366.57	216.79
366.95	216.83
367.33	216.45
367.71	216.33
368.09	216.76
368.47	216.88
368.85	216.93
369.23	217.45
369.61	216.69
369.99	217.29
370.37	217.67
370.75	218.52
371.13	217.98
371.51	217.71
371.89	217.88
372.27	217.93
372.65	218.21
373.03	218.14
373.41	217.71
373.78	217.50
374.16	216.40
374.54	215.83
374.92	215.45
375.30	215.43
375.68	214.95
376.06	214.86
376.44	214.67
376.82	214.69
377.19	214.31
377.57	214.40
377.95	213.79
378.33	213.50
378.71	212.40
379.09	213.10
379.47	213.43
379.84	213.14
380.22	212.86
380.60	212.36
380.98	212.33
381.36	212.33
381.73	212.14
382.11	212.36
382.49	212.17
382.87	212.17
383.25	212.07
383.62	214.55
384.00	214.07
384.38	214.19
384.76	214.64
385.13	215.45
385.51	215.36
385.89	215.21
386.27	215.38
386.64	215.60
387.02	215.00
387.40	214.74
387.78	214.83
388.15	215.12
388.53	214.95
388.91	214.93
389.29	214.88
389.66	215.17
390.04	214.76
390.42	215.33
390.79	215.33
391.17	215.33
391.55	213.24
391.92	213.38
392.30	213.64
392.68	213.05
393.05	212.83
393.43	212.93
393.81	212.93
394.18	212.57
394.56	212.69
394.94	213.29
395.31	213.19
395.69	213.74
396.06	213.90
396.44	214.14
396.82	214.02
397.19	214.95
397.57	214.55
397.95	215.29
398.32	214.67
398.70	214.86
399.07	215.26
399.45	214.90
399.82	214.95
400.20	214.81
400.58	214.98
400.95	214.10
401.33	214.38
401.70	215.83
402.08	216.05
402.45	216.17
402.83	216.55
403.20	216.83
403.58	217.00
403.95	217.55
404.33	218.05
404.71	218.55
405.08	219.81
405.46	220.26
405.83	220.48
406.21	220.81
406.58	221.26
406.96	221.76
407.33	222.48
407.70	223.24
408.08	225.21
408.45	226.02
408.83	227.29
409.20	227.67
409.58	227.29
409.95	228.48
410.33	229.52
410.70	229.98
411.08	231.31
411.45	231.90
411.82	232.64
412.20	234.17
412.57	236.36
412.95	235.83
413.32	237.43
413.69	238.69
414.07	240.57
414.44	242.62
414.82	244.36
415.19	246.74
415.56	248.60
415.94	249.76
416.31	252.67
416.68	255.64
417.06	259.19
417.43	262.69
417.81	266.12
418.18	269.48
418.55	273.12
418.93	276.86
419.30	281.14
419.67	285.71
420.04	289.93
420.42	294.29
420.79	301.36
421.16	307.17
421.54	314.10
421.91	320.21
422.28	326.07
422.66	332.48
423.03	340.52
423.40	347.71
423.77	354.64
424.15	361.62
424.52	368.76
424.89	377.05
425.26	384.98
425.64	392.00
426.01	400.71
426.38	409.86
426.75	419.81
427.13	429.10
427.50	438.71
427.87	448.90
428.24	458.62
428.61	467.36
428.99	478.57
429.36	488.98
429.73	500.29
430.10	511.74
430.47	523.83
430.85	533.98
431.22	546.36
431.59	561.64
431.96	574.64
432.33	588.95
432.70	602.86
433.08	618.67
433.45	634.48
433.82	649.43
434.19	666.43
434.56	682.93
434.93	698.43
435.30	714.52
435.68	732.57
436.05	750.10
436.42	766.79
436.79	782.50
437.16	799.79
437.53	817.64
437.90	835.74
438.27	853.62
438.64	872.40
439.01	889.57
439.38	903.12
439.75	917.45
440.13	933.81
440.50	949.81
440.87	962.26
441.24	975.98
441.61	990.90
441.98	1001.38
442.35	1013.12
442.72	1026.24
443.09	1039.43
443.46	1045.95
443.83	1051.19
444.20	1056.12
444.57	1062.02
444.94	1065.52
445.31	1068.88
445.68	1074.52
446.05	1075.83
446.42	1073.88
446.79	1072.71
447.16	1070.83
447.53	1069.86
447.90	1063.21
448.27	1056.19
448.64	1048.36
449.01	1041.74
449.37	1030.14
449.74	1018.93
450.11	1008.31
450.48	993.69
450.85	977.48
451.22	965.26
451.59	953.02
451.96	941.02
452.33	925.50
452.70	911.10
453.07	894.14
453.43	873.93
453.80	857.43
454.17	841.76
454.54	826.07
454.91	810.26
455.28	794.57
455.65	780.52
456.02	769.29
456.38	756.45
456.75	740.79
457.12	728.10
457.49	715.12
457.86	700.33
458.23	690.67
458.59	679.21
458.96	667.07
459.33	656.90
459.70	647.05
460.07	638.74
460.43	628.98
460.80	620.29
461.17	613.31
461.54	605.07
461.91	597.50
462.27	589.29
462.64	582.05
463.01	574.52
463.38	567.93
463.74	557.02
464.11	550.02
464.48	544.52
464.85	538.21
465.21	534.88
465.58	529.67
465.95	522.60
466.32	517.71
466.68	512.81
467.05	507.31
467.42	502.21
467.78	496.79
468.15	491.71
468.52	488.17
468.88	482.69
469.25	477.93
469.62	474.50
469.98	470.71
470.35	466.86
470.72	463.26
471.08	458.60
471.45	456.19
471.82	453.69
472.18	450.02
472.55	446.93
472.92	443.10
473.28	440.55
473.65	437.69
474.02	434.69
474.38	432.81
474.75	430.83
475.11	428.19
475.48	426.62
475.85	424.81
476.21	422.93
476.58	422.07
476.94	420.69
477.31	419.14
477.67	417.81
478.04	417.19
478.41	416.45
478.77	417.67
479.14	416.26
479.50	415.07
479.87	414.98
480.23	414.81
480.60	413.93
480.96	413.74
481.33	414.74
481.69	415.29
482.06	415.38
482.42	416.10
482.79	416.81
483.15	417.12
483.52	418.57
483.88	419.14
484.25	419.52
484.61	420.21
484.98	421.21
485.34	423.10
485.71	424.36
486.07	425.52
486.44	425.64
486.80	427.24
487.17	429.24
487.53	431.26
487.90	433.17
488.26	436.38
488.62	438.86
488.99	440.50
489.35	442.98
489.72	445.64
490.08	447.64
490.44	450.14
490.81	453.52
491.17	456.26
491.54	459.93
491.90	463.95
492.26	467.93
492.63	471.86
492.99	475.26
493.36	479.05
493.72	483.52
494.08	487.90
494.45	492.33
494.81	497.26
495.17	502.07
495.54	507.60
495.90	512.21
496.26	517.60
496.63	523.07
496.99	528.40
497.35	533.98
497.72	540.76
498.08	546.83
498.44	553.17
498.80	559.50
499.17	565.48
499.53	571.21
499.89	577.93
500.26	584.33
500.62	591.17
500.98	598.48
501.34	604.98
501.71	611.95
502.07	619.07
502.43	626.07
502.79	632.71
503.16	639.74
503.52	646.21
503.88	652.69
504.24	660.00
504.60	667.95
504.97	676.19
505.33	683.02
505.69	691.83
506.05	699.43
506.41	707.21
506.78	714.86
507.14	722.26
507.50	729.98
507.86	737.69
508.22	745.19
508.59	752.45
508.95	760.74
509.31	769.21
509.67	776.67
510.03	784.29
510.39	792.88
510.75	800.05
511.12	808.36
511.48	816.88
511.84	824.17
512.20	830.81
512.56	837.83
512.92	845.86
513.28	852.60
513.64	859.93
514.00	867.31
514.37	874.90
514.73	882.71
515.09	890.55
515.45	897.31
515.81	904.81
516.17	911.45
516.53	917.74
516.89	923.48
517.25	930.71
517.61	937.79
517.97	943.29
518.33	950.07
518.69	956.57
519.05	962.71
519.41	969.86
519.77	977.17
520.13	983.12
520.49	988.52
520.85	994.12
521.21	1000.33
521.57	1006.10
521.93	1011.10
522.29	1017.00
522.65	1022.14
523.01	1028.21
523.37	1032.93
523.73	1038.86
524.09	1044.24
524.45	1049.48
524.81	1054.45
525.17	1059.43
525.53	1063.95
525.89	1068.29
526.25	1072.98
526.61	1077.02
526.97	1080.88
527.33	1084.60
527.68	1090.76
528.04	1094.79
528.40	1098.79
528.76	1102.76
529.12	1106.95
529.48	1112.02
529.84	1115.90
530.20	1119.52
530.56	1123.86
530.91	1128.36
531.27	1132.52
531.63	1136.64
531.99	1140.31
532.35	1143.98
532.71	1147.00
533.07	1152.05
533.42	1158.95
533.78	1163.43
534.14	1168.21
534.50	1172.29
534.86	1177.57
535.21	1180.10
535.57	1185.79
535.93	1189.64
536.29	1193.98
536.65	1198.40
537.00	1201.29
537.36	1204.71
537.72	1208.74
538.08	1212.19
538.44	1214.83
538.79	1218.69
539.15	1221.95
539.51	1225.88
539.87	1229.57
540.22	1233.31
540.58	1236.24
540.94	1237.67
541.29	1240.98
541.65	1242.69
542.01	1245.83
542.37	1247.64
542.72	1249.19
543.08	1250.98
543.44	1254.17
543.79	1255.26
544.15	1256.93
544.51	1260.81
544.87	1263.38
545.22	1265.33
545.58	1267.64
545.94	1270.43
546.29	1272.52
546.65	1274.93
547.01	1277.10
547.36	1279.31
547.72	1281.71
548.07	1285.05
548.43	1287.48
548.79	1288.74
549.14	1291.24
549.50	1294.12
549.86	1296.02
550.21	1299.74
550.57	1302.43
550.92	1305.12
551.28	1308.71
551.64	1312.02
551.99	1313.98
552.35	1316.52
552.70	1319.71
553.06	1322.83
553.41	1327.14
553.77	1331.81
554.13	1335.76
554.48	1339.93
554.84	1344.60
555.19	1348.69
555.55	1352.90
555.90	1355.88
556.26	1359.83
556.61	1364.52
556.97	1367.38
557.32	1371.67
557.68	1374.95
558.03	1378.76
558.39	1382.74
558.74	1386.69
559.10	1390.90
559.45	1395.98
559.81	1400.79
560.16	1405.81
560.52	1410.67
560.87	1415.19
561.23	1418.55
561.58	1424.24
561.94	1427.40
562.29	1430.76
562.64	1435.69
563.00	1439.57
563.35	1444.83
563.71	1449.98
564.06	1455.33
564.42	1461.14
564.77	1467.38
565.12	1472.86
565.48	1479.67
565.83	1485.55
566.19	1491.74
566.54	1496.90
566.89	1501.33
567.25	1507.90
567.60	1514.64
567.96	1522.00
568.31	1528.07
568.66	1533.83
569.02	1538.19
569.37	1545.33
569.72	1551.57
570.08	1556.07
570.43	1560.69
570.78	1566.19
571.14	1572.71
571.49	1577.31
571.84	1582.90
572.20	1587.26
572.55	1592.33
572.90	1595.55
573.26	1599.93
573.61	1603.33
573.96	1608.76
574.31	1613.26
574.67	1616.86
575.02	1619.07
575.37	1620.69
575.72	1623.55
576.08	1627.40
576.43	1630.55
576.78	1633.74
577.13	1637.05
577.49	1641.07
577.84	1644.88
578.19	1648.83
578.54	1651.43
578.90	1655.33
579.25	1659.21
579.60	1662.48
579.95	1665.81
580.30	1670.33
580.66	1674.05
581.01	1678.48
581.36	1680.90
581.71	1684.29
582.06	1688.55
582.42	1692.69
582.77	1696.50
583.12	1699.60
583.47	1703.31
583.82	1707.17
584.17	1709.48
584.53	1713.93
584.88	1717.05
585.23	1721.64
585.58	1723.67
585.93	1725.76
586.28	1727.90
586.63	1730.76
586.98	1734.05
587.34	1737.74
587.69	1739.38
588.04	1741.12
588.39	1742.90
588.74	1744.21
589.09	1746.86
589.44	1747.19
589.79	1748.83
590.14	1750.07
590.49	1751.74
590.84	1752.26
591.19	1753.76
591.54	1755.93
591.89	1757.40
592.25	1760.83
592.60	1760.67
592.95	1762.31
593.30	1764.45
593.65	1765.69
594.00	1765.21
594.35	1771.14
594.70	1770.95
595.05	1771.88
595.40	1773.79
595.75	1774.45
596.10	1776.62
596.45	1777.55
596.80	1778.40
597.15	1779.60
597.50	1779.57
597.85	1781.21
598.19	1781.50
598.54	1781.79
598.89	1782.69
599.24	1782.17
599.59	1781.21
599.94	1781.12
600.29	1781.36
600.64	1781.19
600.99	1781.43
601.34	1781.88
601.69	1777.19
602.04	1776.31
602.39	1775.79
602.74	1774.69
603.08	1774.36
603.43	1775.33
603.78	1774.60
604.13	1774.86
604.48	1773.17
604.83	1774.52
605.18	1773.64
605.53	1773.07
605.87	1772.29
606.22	1770.62
606.57	1769.55
606.92	1768.10
607.27	1768.00
607.62	1767.57
607.96	1767.19
608.31	1767.36
608.66	1766.45
609.01	1763.48
609.36	1763.83
609.70	1762.50
610.05	1760.48
610.40	1759.29
610.75	1755.81
611.10	1753.93
611.44	1751.29
611.79	1749.74
612.14	1746.93
612.49	1744.02
612.83	1741.48
613.18	1738.43
613.53	1735.14
613.88	1731.86
614.22	1727.76
614.57	1723.90
614.92	1719.07
615.27	1715.31
615.61	1710.62
615.96	1707.36
616.31	1704.48
616.65	1701.69
617.00	1699.36
617.35	1697.21
617.70	1693.88
618.04	1690.24
618.39	1686.24
618.74	1682.93
619.08	1679.17
619.43	1675.36
619.78	1671.95
620.12	1669.64
620.47	1666.29
620.82	1662.55
621.16	1657.83
621.51	1655.33
621.85	1652.02
622.20	1649.07
622.55	1644.64
622.89	1640.67
623.24	1637.48
623.59	1633.21
623.93	1627.98
624.28	1622.62
624.62	1620.00
624.97	1616.64
625.32	1612.74
625.66	1609.29
626.01	1604.88
626.35	1600.95
626.70	1597.48
627.04	1593.79
627.39	1588.86
627.73	1586.36
628.08	1583.12
628.43	1579.93
628.77	1576.07
629.12	1572.14
629.46	1568.45
629.81	1564.83
630.15	1560.74
630.50	1556.10
630.84	1552.12
631.19	1547.19
631.53	1543.62
631.88	1536.19
632.22	1530.93
632.57	1527.00
632.91	1522.17
633.26	1517.76
633.60	1512.83
633.95	1506.90
634.29	1501.79
634.64	1497.62
634.98	1491.12
635.32	1487.36
635.67	1484.36
636.01	1479.62
636.36	1474.57
636.70	1469.86
637.05	1465.14
637.39	1460.57
637.73	1455.36
638.08	1451.55
638.42	1447.48
638.77	1442.55
639.11	1438.38
639.45	1432.83
639.80	1427.33
640.14	1422.76
640.49	1417.38
640.83	1411.81
641.17	1407.02
641.52	1401.05
641.86	1395.26
642.20	1391.69
642.55	1385.19
642.89	1378.29
643.23	1372.76
643.58	1368.40
643.92	1363.24
644.26	1357.38
644.61	1352.05
644.95	1346.50
645.29	1340.17
645.64	1334.98
645.98	1329.60
646.32	1324.52
646.66	1318.40
647.01	1312.07
647.35	1305.93
647.69	1300.64
648.04	1295.95
648.38	1290.60
648.72	1285.52
649.06	1279.86
649.41	1273.17
649.75	1267.48
650.09	1262.10
650.43	1255.48
650.78	1248.14
651.12	1240.86
651.46	1235.38
651.80	1228.83
652.14	1222.07
652.49	1216.05
652.83	1209.55
653.17	1201.57
653.51	1194.93
653.85	1189.19
654.20	1182.81
654.54	1175.17
654.88	1167.95
655.22	1161.26
655.56	1154.24
655.90	1147.33
656.25	1140.69
656.59	1134.45
656.93	1127.57
657.27	1121.57
657.61	1114.71
657.95	1108.48
658.29	1102.26
658.64	1095.69
658.98	1088.95
659.32	1082.21
659.66	1076.00
660.00	1069.64
660.34	1064.48
660.68	1057.88
661.02	1051.29
661.36	1044.86
661.70	1039.52
662.05	1033.98
662.39	1028.26
662.73	1022.60
663.07	1018.07
663.41	1012.21
663.75	1005.40
664.09	999.79
664.43	993.33
664.77	987.67
665.11	981.36
665.45	975.90
665.79	969.60
666.13	963.98
666.47	958.95
666.81	952.81
667.15	946.33
667.49	940.52
667.83	935.69
668.17	929.88
668.51	924.69
668.85	919.43
669.19	914.79
669.53	908.17
669.87	901.79
670.21	895.00
670.55	888.79
670.89	884.10
671.23	878.69
671.57	872.62
671.91	867.52
672.25	862.48
672.58	857.45
672.92	851.57
673.26	846.21
673.60	840.33
673.94	835.07
674.28	830.07
674.62	824.98
674.96	819.45
675.30	815.29
675.64	809.93
675.97	804.64
676.31	798.02
676.65	793.07
676.99	789.45
677.33	784.55
677.67	779.79
678.01	773.57
678.34	768.57
678.68	764.38
679.02	759.00
679.36	753.86
679.70	748.10
680.04	743.40
680.37	738.21
680.71	733.48
681.05	728.90
681.39	723.88
681.73	719.14
682.06	713.79
682.40	708.93
682.74	704.60
683.08	700.62
683.42	696.33
683.75	692.45
684.09	687.33
684.43	682.31
684.77	677.48
685.10	673.86
685.44	669.12
685.78	664.05
686.12	659.45
686.45	655.14
686.79	650.36
687.13	646.55
687.46	642.64
687.80	638.98
688.14	634.43
688.48	630.57
688.81	625.98
689.15	622.45
689.49	617.40
689.82	612.62
690.16	607.33
690.50	603.05
690.83	598.00
691.17	592.83
691.51	588.83
691.84	585.05
692.18	580.71
692.52	577.19
692.85	573.88
693.19	571.14
693.52	567.02
693.86	563.02
694.20	558.52
694.53	554.69
694.87	550.14
695.21	546.00
695.54	542.02
695.88	538.24
696.21	533.64
696.55	530.02
696.88	526.21
697.22	522.64
697.56	519.45
697.89	516.02
698.23	513.10
698.56	509.76
698.90	506.57
699.23	502.62
699.57	498.69
699.90	494.88
700.24	490.79
700.58	487.33
700.91	484.83
701.25	483.57
701.58	480.88
701.92	477.95
702.25	475.07
702.59	471.83
702.92	468.45
703.26	465.60
703.59	462.55
703.93	462.05
704.26	459.29
704.60	456.26
704.93	453.05
705.26	449.88
705.60	447.02
705.93	443.36
706.27	440.98
706.60	438.81
706.94	436.40
707.27	433.43
707.61	431.02
707.94	428.12
708.27	423.64
708.61	420.62
708.94	418.36
709.28	416.12
709.61	413.57
709.94	411.36
710.28	409.02
710.61	407.19
710.95	402.79
711.28	401.74
711.61	399.60
711.95	398.10
712.28	395.95
712.61	393.67
712.95	392.81
713.28	391.43
713.61	388.81
713.95	386.02
714.28	383.74
714.61	381.62
714.95	379.33
715.28	377.29
715.61	375.07
715.95	372.88
716.28	370.57
716.61	369.14
716.95	367.14
717.28	364.90
717.61	362.55
717.94	360.57
718.28	357.17
718.61	354.90
718.94	352.76
719.27	351.10
719.61	349.24
719.94	346.83
720.27	343.98
720.60	342.12
720.94	340.64
721.27	339.50
721.60	338.00
721.93	336.33
722.27	335.60
722.60	334.36
722.93	332.71
723.26	331.33
723.59	329.33
723.93	328.21
724.26	327.24
724.59	326.05
724.92	325.19
725.25	324.62
725.59	323.64
725.92	322.55
726.25	320.95
726.58	319.86
726.91	318.69
727.24	318.24
727.57	317.19
727.91	315.57
728.24	314.38
728.57	313.05
728.90	312.24
729.23	310.36
729.56	309.64
729.89	308.67
730.22	307.45
730.55	306.36
730.89	305.00
731.22	303.71
731.55	302.33
731.88	300.93
732.21	299.55
732.54	298.17
732.87	296.98
733.20	296.19
733.53	295.36
733.86	294.43
734.19	292.95
734.52	292.14
734.85	293.02
735.18	291.90
735.51	291.62
735.84	290.69
736.17	290.45
736.50	288.81
736.83	290.24
737.16	289.45
737.49	288.93
737.82	288.00
738.15	287.48
738.48	287.02
738.81	286.26
739.14	285.10
739.47	284.36
739.80	283.69
740.13	282.98
740.46	281.86
740.79	280.60
741.12	279.88
741.45	278.81
741.78	276.45
742.11	276.21
742.44	275.12
742.77	274.88
743.10	273.64
743.43	272.88
743.75	270.24
744.08	271.95
744.41	270.79
744.74	269.90
745.07	268.71
745.40	268.10
745.73	268.33
746.06	267.74
746.39	267.21
746.71	266.12
747.04	265.19
747.37	264.31
747.70	264.26
748.03	263.90
748.36	263.43
748.68	263.12
749.01	261.79
749.34	261.24
749.67	260.33
750.00	260.10
750.33	261.24
750.65	260.74
750.98	257.81
751.31	257.48
751.64	257.31
751.97	258.24
752.29	257.90
752.62	256.19
752.95	255.81
753.28	255.02
753.60	254.62
753.93	254.88
754.26	254.71
754.59	253.69
754.91	252.88
755.24	252.38
755.57	251.71
755.90	251.45
756.22	250.67
756.55	249.93
756.88	249.12
757.20	247.17
757.53	245.93
757.86	245.48
758.19	245.24
758.51	244.67
758.84	242.95
759.17	242.14
759.49	242.00
759.82	242.57
760.15	242.67
760.47	242.26
760.80	241.29
761.13	241.21
761.45	240.64
761.78	240.31
762.11	240.21
762.43	239.95
762.76	239.57
763.08	239.48
763.41	239.67
763.74	239.45
764.06	239.07
764.39	238.93
764.71	238.36
765.04	237.90
765.37	237.60
765.69	237.21
766.02	236.95
766.34	236.40
766.67	235.24
767.00	235.14
767.32	236.17
767.65	237.26
767.97	236.86
768.30	236.86
768.62	236.67
768.95	236.07
769.27	235.50
769.60	235.45
769.92	234.95
770.25	234.10
770.57	233.38
770.90	233.14
771.22	232.67
771.55	232.43
771.87	232.19
772.20	232.00
772.52	233.48
772.85	235.71
773.17	235.62
773.50	235.33
773.82	234.74
774.15	233.43
774.47	231.67
774.80	231.05
775.12	230.55
775.45	230.07
775.77	229.95
776.09	230.38
776.42	230.10
776.74	230.38
777.07	230.31
777.39	230.38
777.72	230.07
778.04	230.38
778.36	230.40
778.69	230.24
779.01	230.24
779.33	228.48
779.66	226.17
779.98	226.12
780.31	226.10
780.63	226.90
780.95	227.10
781.28	227.05
781.60	226.98
781.92	227.07
782.25	227.17
782.57	227.07
782.89	226.60
783.22	226.43
783.54	226.02
783.86	226.00
784.19	225.64
784.51	226.33
784.83	225.93
785.16	225.79
