SpectraSuite Data File
++++++++++++++++++++++++++++++++++++
Date: Tue Apr 02 18:44:02 EDT 2013
User: group
Dark Spectrum Present: No
Reference Spectrum Present: No
Number of Sampled Component Spectra: 1
Spectrometers: USB2E7196
Integration Time (usec): 580000 (USB2E7196)
Spectra Averaged: 2 (USB2E7196)
Boxcar Smoothing: 10 (USB2E7196)
Correct for Electrical Dark: No (USB2E7196)
Strobe/Lamp Enabled: No (USB2E7196)
Correct for Detector Non-linearity: No (USB2E7196)
Correct for Stray Light: No (USB2E7196)
Number of Pixels in Processed Spectrum: 2048
>>>>>Begin Processed Spectral Data<<<<<
339.09	0.00
339.48	192.00
339.86	194.00
340.24	194.00
340.63	198.50
341.01	232.00
341.39	196.00
341.78	204.50
342.16	206.00
342.54	207.00
342.93	195.83
343.31	205.45
343.69	206.14
344.07	206.76
344.46	207.55
344.84	207.98
345.22	206.83
345.60	207.36
345.99	207.45
346.37	207.40
346.75	207.36
347.13	207.43
347.52	207.64
347.90	208.26
348.28	208.31
348.66	208.71
349.05	208.26
349.43	208.55
349.81	208.83
350.19	209.07
350.57	209.50
350.96	209.95
351.34	210.48
351.72	210.64
352.10	210.79
352.48	210.69
352.87	210.76
353.25	210.81
353.63	210.67
354.01	210.76
354.39	210.95
354.77	211.19
355.15	211.48
355.54	211.33
355.92	210.81
356.30	210.93
356.68	212.26
357.06	212.43
357.44	212.00
357.82	211.98
358.20	213.00
358.58	212.90
358.97	213.02
359.35	213.17
359.73	213.31
360.11	213.26
360.49	213.57
360.87	213.67
361.25	214.00
361.63	215.21
362.01	215.36
362.39	215.52
362.77	215.62
363.15	215.64
363.53	215.90
363.91	216.10
364.29	216.17
364.67	214.62
365.05	214.50
365.43	214.81
365.81	214.95
366.19	214.95
366.57	215.62
366.95	215.57
367.33	215.38
367.71	215.71
368.09	216.26
368.47	216.07
368.85	216.10
369.23	216.55
369.61	215.36
369.99	216.24
370.37	216.55
370.75	217.79
371.13	217.40
371.51	217.17
371.89	217.50
372.27	217.71
372.65	217.79
373.03	218.14
373.41	218.10
373.78	218.24
374.16	217.17
374.54	216.62
374.92	216.38
375.30	216.36
375.68	215.95
376.06	215.93
376.44	215.98
376.82	216.02
377.19	215.81
377.57	216.02
377.95	215.02
378.33	214.81
378.71	213.31
379.09	213.69
379.47	214.00
379.84	213.60
380.22	213.29
380.60	212.83
380.98	212.62
381.36	212.40
381.73	212.00
382.11	212.43
382.49	212.33
382.87	212.07
383.25	211.93
383.62	214.31
384.00	213.81
384.38	213.83
384.76	214.10
385.13	214.95
385.51	215.05
385.89	214.79
386.27	214.86
386.64	215.33
387.02	215.12
387.40	214.81
387.78	215.00
388.15	215.26
388.53	215.43
388.91	215.52
389.29	215.60
389.66	215.81
390.04	215.45
390.42	216.00
390.79	216.29
391.17	216.38
391.55	214.02
391.92	214.19
392.30	214.48
392.68	214.21
393.05	213.93
393.43	214.12
393.81	214.43
394.18	214.17
394.56	214.12
394.94	214.60
395.31	214.50
395.69	214.88
396.06	215.05
396.44	215.38
396.82	215.14
397.19	216.36
397.57	216.31
397.95	216.74
398.32	216.12
398.70	216.26
399.07	216.90
399.45	216.86
399.82	216.74
400.20	216.36
400.58	216.33
400.95	215.36
401.33	215.64
401.70	217.21
402.08	217.36
402.45	217.17
402.83	217.76
403.20	218.07
403.58	218.14
403.95	218.31
404.33	218.55
404.71	218.83
405.08	219.83
405.46	220.12
405.83	220.57
406.21	220.93
406.58	221.31
406.96	221.57
407.33	222.31
407.70	223.02
408.08	225.21
408.45	226.24
408.83	227.50
409.20	227.88
409.58	227.40
409.95	228.36
410.33	229.24
410.70	229.33
411.08	230.52
411.45	231.64
411.82	232.76
412.20	234.48
412.57	236.88
412.95	236.50
413.32	238.26
413.69	239.60
414.07	241.33
414.44	243.19
414.82	244.88
415.19	247.05
415.56	249.26
415.94	250.36
416.31	253.19
416.68	255.90
417.06	259.26
417.43	262.67
417.81	265.95
418.18	269.71
418.55	273.31
418.93	277.40
419.30	281.50
419.67	285.60
420.04	289.60
420.42	293.88
420.79	301.02
421.16	306.43
421.54	313.21
421.91	319.40
422.28	325.43
422.66	331.98
423.03	340.05
423.40	346.74
423.77	354.12
424.15	361.07
424.52	368.81
424.89	377.29
425.26	385.02
425.64	392.60
426.01	401.05
426.38	409.88
426.75	419.00
427.13	428.00
427.50	437.38
427.87	447.48
428.24	457.17
428.61	465.55
428.99	477.02
429.36	487.86
429.73	498.83
430.10	510.29
430.47	522.24
430.85	532.52
431.22	545.33
431.59	559.95
431.96	572.74
432.33	586.19
432.70	600.02
433.08	615.86
433.45	631.55
433.82	646.71
434.19	663.52
434.56	680.52
434.93	696.33
435.30	712.98
435.68	730.55
436.05	747.67
436.42	764.64
436.79	780.62
437.16	797.14
437.53	815.71
437.90	833.55
438.27	850.55
438.64	869.00
439.01	885.93
439.38	899.36
439.75	914.40
440.13	931.45
440.50	947.07
440.87	960.29
441.24	973.55
441.61	988.00
441.98	999.26
442.35	1011.24
442.72	1023.95
443.09	1037.05
443.46	1044.52
443.83	1050.33
444.20	1054.93
444.57	1060.38
444.94	1063.57
445.31	1066.07
445.68	1071.90
446.05	1073.95
446.42	1072.33
446.79	1071.02
447.16	1069.12
447.53	1067.79
447.90	1061.02
448.27	1054.69
448.64	1045.83
449.01	1039.57
449.37	1028.86
449.74	1017.93
450.11	1006.64
450.48	991.83
450.85	976.07
451.22	963.10
451.59	951.57
451.96	940.88
452.33	925.81
452.70	912.17
453.07	895.57
453.43	875.90
453.80	859.36
454.17	843.95
454.54	828.81
454.91	813.10
455.28	797.07
455.65	782.60
456.02	771.12
456.38	758.29
456.75	742.55
457.12	729.14
457.49	716.33
457.86	702.14
458.23	692.95
458.59	681.45
458.96	670.26
459.33	658.50
459.70	647.36
460.07	638.76
460.43	628.43
460.80	619.90
461.17	612.79
461.54	604.64
461.91	596.31
462.27	588.14
462.64	581.50
463.01	573.81
463.38	567.81
463.74	556.90
464.11	550.31
464.48	544.83
464.85	538.26
465.21	533.76
465.58	528.90
465.95	521.76
466.32	516.50
466.68	510.76
467.05	506.48
467.42	501.48
467.78	496.10
468.15	491.74
468.52	487.98
468.88	482.00
469.25	477.26
469.62	474.07
469.98	470.07
470.35	465.86
470.72	462.38
471.08	457.19
471.45	454.31
471.82	451.90
472.18	448.86
472.55	446.67
472.92	443.02
473.28	439.67
473.65	437.21
474.02	434.64
474.38	433.36
474.75	431.21
475.11	428.64
475.48	427.07
475.85	425.21
476.21	423.38
476.58	422.57
476.94	421.69
477.31	420.05
477.67	418.81
478.04	417.71
478.41	417.17
478.77	419.02
479.14	418.17
479.50	417.62
479.87	416.90
480.23	416.57
480.60	416.21
480.96	416.02
481.33	416.76
481.69	416.79
482.06	416.52
482.42	416.60
482.79	417.19
483.15	417.57
483.52	418.40
483.88	419.10
484.25	419.43
484.61	419.76
484.98	420.48
485.34	422.19
485.71	424.17
486.07	425.52
486.44	425.00
486.80	426.45
487.17	427.38
487.53	429.67
487.90	431.81
488.26	434.93
488.62	437.81
488.99	439.64
489.35	441.86
489.72	444.62
490.08	447.86
490.44	450.64
490.81	453.81
491.17	456.74
491.54	460.24
491.90	463.69
492.26	467.69
492.63	471.67
492.99	475.19
493.36	478.81
493.72	483.26
494.08	487.50
494.45	492.17
494.81	497.40
495.17	501.76
495.54	506.76
495.90	511.07
496.26	515.69
496.63	521.45
496.99	527.33
497.35	532.76
497.72	538.33
498.08	544.12
498.44	549.86
498.80	556.55
499.17	562.50
499.53	569.02
499.89	575.79
500.26	582.33
500.62	589.05
500.98	596.45
501.34	603.19
501.71	611.05
502.07	618.17
502.43	625.19
502.79	632.24
503.16	639.45
503.52	646.81
503.88	654.00
504.24	661.62
504.60	668.76
504.97	676.79
505.33	684.19
505.69	692.38
506.05	699.93
506.41	707.29
506.78	714.69
507.14	721.98
507.50	729.90
507.86	738.00
508.22	745.74
508.59	752.79
508.95	760.71
509.31	768.71
509.67	776.00
510.03	783.79
510.39	791.74
510.75	799.29
511.12	806.67
511.48	814.86
511.84	821.57
512.20	829.50
512.56	837.10
512.92	844.95
513.28	852.83
513.64	860.31
514.00	867.93
514.37	875.81
514.73	883.36
515.09	890.86
515.45	897.48
515.81	904.62
516.17	911.62
516.53	917.71
516.89	923.31
517.25	930.19
517.61	936.98
517.97	943.19
518.33	949.74
518.69	956.79
519.05	963.24
519.41	969.79
519.77	976.69
520.13	982.55
520.49	987.86
520.85	993.60
521.21	1001.07
521.57	1007.24
521.93	1011.88
522.29	1017.76
522.65	1022.10
523.01	1027.76
523.37	1032.88
523.73	1038.52
524.09	1043.81
524.45	1048.10
524.81	1052.90
525.17	1058.19
525.53	1062.81
525.89	1067.83
526.25	1072.71
526.61	1076.71
526.97	1081.38
527.33	1085.12
527.68	1091.26
528.04	1095.19
528.40	1099.07
528.76	1102.57
529.12	1106.24
529.48	1111.36
529.84	1114.95
530.20	1119.17
530.56	1123.64
530.91	1127.90
531.27	1131.76
531.63	1136.12
531.99	1141.33
532.35	1145.69
532.71	1149.26
533.07	1154.36
533.42	1159.98
533.78	1163.40
534.14	1168.24
534.50	1171.55
534.86	1176.00
535.21	1178.17
535.57	1183.33
535.93	1186.26
536.29	1190.07
536.65	1193.55
537.00	1196.50
537.36	1200.12
537.72	1203.71
538.08	1206.52
538.44	1209.93
538.79	1213.29
539.15	1216.29
539.51	1219.48
539.87	1223.67
540.22	1227.29
540.58	1229.86
540.94	1231.62
541.29	1234.64
541.65	1236.38
542.01	1240.43
542.37	1242.90
542.72	1244.64
543.08	1246.21
543.44	1249.21
543.79	1250.74
544.15	1254.29
544.51	1257.88
544.87	1261.29
545.22	1264.21
545.58	1267.55
545.94	1269.21
546.29	1271.57
546.65	1274.79
547.01	1277.60
547.36	1278.95
547.72	1280.62
548.07	1283.74
548.43	1285.17
548.79	1286.74
549.14	1289.29
549.50	1291.02
549.86	1293.57
550.21	1296.64
550.57	1300.33
550.92	1303.67
551.28	1307.67
551.64	1310.14
551.99	1313.14
552.35	1315.57
552.70	1318.55
553.06	1320.88
553.41	1324.71
553.77	1329.45
554.13	1332.74
554.48	1336.29
554.84	1340.31
555.19	1344.36
555.55	1348.81
555.90	1353.10
556.26	1358.24
556.61	1362.29
556.97	1365.55
557.32	1368.95
557.68	1373.40
558.03	1376.83
558.39	1380.29
558.74	1384.60
559.10	1388.48
559.45	1392.45
559.81	1396.31
560.16	1400.14
560.52	1404.74
560.87	1409.64
561.23	1412.95
561.58	1418.55
561.94	1421.95
562.29	1426.19
562.64	1431.00
563.00	1434.64
563.35	1439.36
563.71	1443.88
564.06	1448.95
564.42	1454.55
564.77	1460.64
565.12	1466.62
565.48	1474.12
565.83	1480.55
566.19	1485.19
566.54	1490.60
566.89	1496.07
567.25	1502.90
567.60	1509.90
567.96	1518.12
568.31	1524.83
568.66	1531.29
569.02	1535.83
569.37	1542.05
569.72	1548.24
570.08	1553.26
570.43	1557.64
570.78	1563.60
571.14	1569.86
571.49	1574.98
571.84	1580.38
572.20	1585.00
572.55	1589.93
572.90	1592.95
573.26	1597.14
573.61	1601.81
573.96	1607.14
574.31	1612.12
574.67	1615.98
575.02	1618.95
575.37	1620.88
575.72	1623.67
576.08	1627.60
576.43	1631.52
576.78	1635.21
577.13	1638.33
577.49	1642.21
577.84	1647.02
578.19	1650.31
578.54	1653.33
578.90	1658.12
579.25	1661.21
579.60	1664.38
579.95	1666.38
580.30	1670.17
580.66	1673.95
581.01	1677.79
581.36	1680.17
581.71	1682.33
582.06	1686.64
582.42	1691.05
582.77	1693.76
583.12	1696.55
583.47	1699.55
583.82	1703.40
584.17	1706.26
584.53	1709.95
584.88	1712.45
585.23	1715.81
585.58	1718.69
585.93	1721.29
586.28	1723.19
586.63	1726.64
586.98	1729.62
587.34	1734.26
587.69	1736.31
588.04	1738.98
588.39	1741.00
588.74	1742.62
589.09	1745.57
589.44	1746.19
589.79	1747.19
590.14	1750.48
590.49	1752.74
590.84	1754.50
591.19	1755.69
591.54	1757.88
591.89	1758.95
592.25	1761.93
592.60	1762.31
592.95	1764.19
593.30	1765.79
593.65	1767.05
594.00	1767.81
594.35	1774.79
594.70	1773.19
595.05	1774.31
595.40	1774.57
595.75	1775.21
596.10	1777.48
596.45	1778.00
596.80	1778.67
597.15	1780.14
597.50	1779.43
597.85	1779.95
598.19	1780.07
598.54	1779.93
598.89	1780.26
599.24	1780.93
599.59	1780.71
599.94	1780.71
600.29	1780.24
600.64	1780.05
600.99	1780.19
601.34	1780.50
601.69	1774.86
602.04	1776.14
602.39	1775.74
602.74	1776.48
603.08	1776.33
603.43	1776.14
603.78	1775.64
604.13	1775.45
604.48	1774.67
604.83	1775.05
605.18	1774.83
605.53	1774.67
605.87	1773.67
606.22	1772.76
606.57	1771.17
606.92	1769.98
607.27	1770.05
607.62	1769.43
607.96	1768.36
608.31	1768.36
608.66	1767.02
609.01	1765.07
609.36	1764.29
609.70	1762.43
610.05	1759.81
610.40	1757.57
610.75	1755.24
611.10	1754.55
611.44	1752.07
611.79	1749.17
612.14	1746.07
612.49	1743.00
612.83	1740.12
613.18	1737.48
613.53	1733.64
613.88	1730.71
614.22	1727.12
614.57	1722.83
614.92	1718.93
615.27	1716.02
615.61	1710.43
615.96	1707.17
616.31	1703.83
616.65	1700.50
617.00	1698.64
617.35	1695.79
617.70	1693.21
618.04	1689.29
618.39	1685.17
618.74	1682.31
619.08	1678.29
619.43	1675.17
619.78	1672.07
620.12	1668.55
620.47	1665.33
620.82	1661.88
621.16	1657.93
621.51	1654.76
621.85	1651.07
622.20	1647.19
622.55	1642.45
622.89	1640.31
623.24	1636.83
623.59	1633.07
623.93	1628.69
624.28	1623.52
624.62	1620.62
624.97	1617.31
625.32	1613.36
625.66	1609.40
626.01	1604.21
626.35	1602.12
626.70	1597.86
627.04	1594.05
627.39	1589.24
627.73	1586.02
628.08	1582.71
628.43	1578.67
628.77	1574.48
629.12	1571.02
629.46	1568.36
629.81	1565.02
630.15	1559.43
630.50	1554.76
630.84	1550.50
631.19	1545.60
631.53	1541.36
631.88	1534.45
632.22	1528.40
632.57	1524.88
632.91	1519.55
633.26	1515.79
633.60	1509.83
633.95	1504.38
634.29	1499.17
634.64	1495.55
634.98	1489.38
635.32	1486.26
635.67	1482.79
636.01	1478.14
636.36	1473.29
636.70	1468.93
637.05	1463.38
637.39	1459.55
637.73	1454.36
638.08	1450.86
638.42	1446.45
638.77	1442.36
639.11	1438.29
639.45	1434.02
639.80	1428.36
640.14	1423.26
640.49	1418.40
640.83	1414.07
641.17	1410.38
641.52	1404.79
641.86	1399.31
642.20	1395.48
642.55	1388.45
642.89	1382.88
643.23	1378.07
643.58	1373.38
643.92	1366.31
644.26	1361.31
644.61	1355.57
644.95	1350.12
645.29	1342.93
645.64	1337.43
645.98	1331.29
646.32	1326.07
646.66	1319.55
647.01	1313.40
647.35	1307.88
647.69	1302.19
648.04	1296.50
648.38	1290.43
648.72	1284.86
649.06	1278.93
649.41	1272.17
649.75	1265.86
650.09	1259.00
650.43	1252.48
650.78	1245.12
651.12	1238.55
651.46	1231.71
651.80	1225.33
652.14	1219.29
652.49	1213.76
652.83	1206.71
653.17	1199.67
653.51	1192.88
653.85	1187.19
654.20	1180.83
654.54	1174.57
654.88	1167.24
655.22	1160.83
655.56	1153.24
655.90	1146.26
656.25	1139.64
656.59	1133.55
656.93	1127.74
657.27	1122.81
657.61	1116.00
657.95	1110.81
658.29	1105.29
658.64	1099.45
658.98	1092.98
659.32	1086.14
659.66	1079.33
660.00	1073.52
660.34	1067.50
660.68	1060.95
661.02	1054.57
661.36	1049.05
661.70	1042.60
662.05	1036.95
662.39	1030.43
662.73	1025.60
663.07	1021.31
663.41	1015.14
663.75	1008.05
664.09	1001.74
664.43	995.10
664.77	989.60
665.11	983.29
665.45	977.38
665.79	971.76
666.13	966.38
666.47	960.50
666.81	954.60
667.15	949.05
667.49	943.88
667.83	939.14
668.17	932.48
668.51	925.90
668.85	920.67
669.19	915.83
669.53	909.45
669.87	903.24
670.21	896.17
670.55	889.88
670.89	885.98
671.23	880.57
671.57	874.69
671.91	868.95
672.25	863.19
672.58	857.81
672.92	851.62
673.26	845.98
673.60	841.17
673.94	836.02
674.28	830.79
674.62	825.86
674.96	820.05
675.30	815.62
675.64	811.21
675.97	805.62
676.31	799.43
676.65	794.50
676.99	790.55
677.33	785.62
677.67	781.19
678.01	774.79
678.34	769.93
678.68	765.14
679.02	759.83
679.36	754.21
679.70	748.55
680.04	743.83
680.37	738.95
680.71	733.17
681.05	729.02
681.39	724.14
681.73	718.67
682.06	714.00
682.40	709.36
682.74	704.50
683.08	699.93
683.42	695.43
683.75	691.45
684.09	686.00
684.43	681.26
684.77	676.19
685.10	672.26
685.44	667.45
685.78	662.83
686.12	658.95
686.45	655.36
686.79	651.14
687.13	647.38
687.46	642.93
687.80	639.57
688.14	634.69
688.48	630.43
688.81	625.98
689.15	622.12
689.49	617.40
689.82	612.95
690.16	608.21
690.50	604.10
690.83	599.38
691.17	594.57
691.51	590.86
691.84	587.67
692.18	583.67
692.52	579.45
692.85	575.62
693.19	571.95
693.52	567.71
693.86	563.57
694.20	559.00
694.53	555.24
694.87	550.90
695.21	546.17
695.54	542.21
695.88	538.14
696.21	533.36
696.55	529.62
696.88	525.98
697.22	522.36
697.56	518.83
697.89	514.90
698.23	511.79
698.56	507.90
698.90	503.81
699.23	499.50
699.57	496.36
699.90	492.86
700.24	489.00
700.58	485.76
700.91	482.93
701.25	481.74
701.58	479.19
701.92	476.71
702.25	474.05
702.59	470.48
702.92	467.88
703.26	465.33
703.59	462.50
703.93	461.31
704.26	458.88
704.60	456.29
704.93	453.52
705.26	450.52
705.60	448.33
705.93	445.48
706.27	443.69
706.60	441.33
706.94	439.29
707.27	436.10
707.61	433.50
707.94	430.69
708.27	426.64
708.61	423.14
708.94	420.31
709.28	417.95
709.61	415.67
709.94	413.19
710.28	410.55
710.61	408.36
710.95	404.02
711.28	402.90
711.61	400.24
711.95	398.67
712.28	396.21
712.61	393.60
712.95	392.29
713.28	390.86
713.61	388.31
713.95	385.57
714.28	383.71
714.61	381.24
714.95	378.93
715.28	376.29
715.61	374.26
715.95	372.31
716.28	370.24
716.61	368.67
716.95	366.29
717.28	364.62
717.61	362.24
717.94	360.52
718.28	357.19
718.61	355.52
718.94	353.17
719.27	351.45
719.61	349.93
719.94	347.71
720.27	345.00
720.60	343.00
720.94	341.10
721.27	339.40
721.60	338.40
721.93	337.02
722.27	336.31
722.60	335.19
722.93	333.31
723.26	332.14
723.59	330.12
723.93	329.10
724.26	327.55
724.59	326.64
724.92	325.31
725.25	324.43
725.59	323.14
725.92	322.07
726.25	320.90
726.58	319.45
726.91	318.26
727.24	317.43
727.57	316.52
727.91	314.93
728.24	314.05
728.57	312.45
728.90	311.52
729.23	309.71
729.56	308.88
729.89	307.81
730.22	306.26
730.55	305.05
730.89	304.12
731.22	303.07
731.55	301.64
731.88	300.50
732.21	299.12
732.54	297.88
732.87	296.90
733.20	295.83
733.53	295.10
733.86	294.26
734.19	292.76
734.52	291.93
734.85	292.62
735.18	291.38
735.51	291.43
735.84	290.71
736.17	290.48
736.50	289.36
736.83	290.95
737.16	290.38
737.49	289.86
737.82	288.55
738.15	287.93
738.48	287.36
738.81	286.50
739.14	285.45
739.47	284.38
739.80	283.57
740.13	283.02
740.46	281.83
740.79	280.52
741.12	280.02
741.45	278.95
741.78	277.29
742.11	277.19
742.44	275.81
742.77	275.29
743.10	274.19
743.43	273.00
743.75	270.14
744.08	271.79
744.41	270.98
744.74	270.36
745.07	269.31
745.40	268.86
745.73	269.10
746.06	268.55
746.39	268.17
746.71	267.24
747.04	266.33
747.37	265.69
747.70	265.55
748.03	264.74
748.36	264.60
748.68	263.71
749.01	262.43
749.34	261.71
749.67	260.98
750.00	260.90
750.33	261.95
750.65	261.64
750.98	258.79
751.31	258.24
751.64	257.79
751.97	258.69
752.29	258.19
752.62	256.86
752.95	256.48
753.28	255.95
753.60	255.48
753.93	255.64
754.26	255.38
754.59	254.05
754.91	253.38
755.24	252.67
755.57	252.21
755.90	251.64
756.22	250.95
756.55	250.36
756.88	249.10
757.20	247.24
757.53	246.33
757.86	245.83
758.19	245.60
758.51	245.31
758.84	243.36
759.17	242.55
759.49	242.14
759.82	242.64
760.15	242.40
760.47	242.14
760.80	241.24
761.13	240.95
761.45	240.98
761.78	240.69
762.11	240.48
762.43	240.24
762.76	240.05
763.08	240.05
763.41	239.90
763.74	239.95
764.06	239.76
764.39	239.36
764.71	238.98
765.04	238.55
765.37	238.12
765.69	237.93
766.02	237.67
766.34	237.24
766.67	235.88
767.00	235.98
767.32	236.86
767.65	237.76
767.97	237.55
768.30	237.21
768.62	236.90
768.95	236.50
769.27	236.07
769.60	236.26
769.92	235.57
770.25	234.67
770.57	234.14
770.90	233.93
771.22	233.62
771.55	233.43
771.87	233.21
772.20	232.69
772.52	234.17
772.85	236.43
773.17	236.14
773.50	236.12
773.82	235.62
774.15	234.26
774.47	232.55
774.80	232.07
775.12	231.93
775.45	231.62
775.77	231.38
776.09	231.57
776.42	231.24
776.74	231.76
777.07	231.64
777.39	231.40
777.72	231.12
778.04	231.14
778.36	230.86
778.69	230.69
779.01	231.07
779.33	229.29
779.66	227.00
779.98	226.93
780.31	226.71
780.63	227.33
780.95	227.52
781.28	227.67
781.60	227.31
781.92	227.14
782.25	227.24
782.57	227.21
782.89	226.83
783.22	226.29
783.54	225.71
783.86	225.79
784.19	225.67
784.51	226.02
784.83	225.64
785.16	225.29
