SpectraSuite Data File
++++++++++++++++++++++++++++++++++++
Date: Tue Apr 02 18:37:45 EDT 2013
User: group
Dark Spectrum Present: No
Reference Spectrum Present: No
Number of Sampled Component Spectra: 1
Spectrometers: USB2E7196
Integration Time (usec): 580000 (USB2E7196)
Spectra Averaged: 2 (USB2E7196)
Boxcar Smoothing: 10 (USB2E7196)
Correct for Electrical Dark: No (USB2E7196)
Strobe/Lamp Enabled: No (USB2E7196)
Correct for Detector Non-linearity: No (USB2E7196)
Correct for Stray Light: No (USB2E7196)
Number of Pixels in Processed Spectrum: 2048
>>>>>Begin Processed Spectral Data<<<<<
339.09	0.00
339.48	198.50
339.86	197.00
340.24	197.00
340.63	199.50
341.01	233.00
341.39	201.50
341.78	207.50
342.16	214.50
342.54	206.00
342.93	199.14
343.31	208.88
343.69	209.26
344.07	209.74
344.46	210.45
344.84	210.93
345.22	209.79
345.60	210.19
345.99	210.31
346.37	210.40
346.75	210.57
347.13	210.69
347.52	210.93
347.90	211.17
348.28	211.12
348.66	211.64
349.05	211.14
349.43	211.36
349.81	211.55
350.19	211.50
350.57	211.52
350.96	211.74
351.34	212.14
351.72	212.33
352.10	212.50
352.48	212.43
352.87	212.48
353.25	212.36
353.63	212.38
354.01	212.36
354.39	212.26
354.77	212.31
355.15	212.93
355.54	212.76
355.92	212.55
356.30	212.64
356.68	213.83
357.06	214.05
357.44	213.76
357.82	213.71
358.20	214.57
358.58	214.69
358.97	214.79
359.35	215.10
359.73	215.45
360.11	215.10
360.49	215.31
360.87	215.26
361.25	215.88
361.63	216.62
362.01	216.93
362.39	216.57
362.77	216.98
363.15	216.69
363.53	216.79
363.91	216.81
364.29	216.81
364.67	215.00
365.05	215.00
365.43	215.24
365.81	215.43
366.19	215.60
366.57	216.36
366.95	216.48
367.33	215.79
367.71	215.69
368.09	216.43
368.47	216.21
368.85	216.07
369.23	216.40
369.61	215.50
369.99	215.98
370.37	216.38
370.75	217.10
371.13	216.81
371.51	216.29
371.89	216.48
372.27	216.55
372.65	216.62
373.03	216.55
373.41	216.62
373.78	216.48
374.16	215.19
374.54	214.52
374.92	214.26
375.30	214.55
375.68	214.45
376.06	214.55
376.44	214.50
376.82	214.64
377.19	214.33
377.57	214.55
377.95	213.83
378.33	213.69
378.71	212.52
379.09	212.62
379.47	213.24
379.84	212.98
380.22	212.88
380.60	212.55
380.98	212.50
381.36	212.29
381.73	212.14
382.11	212.69
382.49	212.88
382.87	212.60
383.25	212.71
383.62	214.95
384.00	214.60
384.38	214.79
384.76	215.40
385.13	216.12
385.51	216.29
385.89	216.14
386.27	216.43
386.64	216.74
387.02	216.67
387.40	216.33
387.78	216.33
388.15	216.10
388.53	216.00
388.91	215.88
389.29	215.74
389.66	215.83
390.04	215.76
390.42	216.10
390.79	216.17
391.17	216.07
391.55	213.64
391.92	213.76
392.30	213.98
392.68	213.45
393.05	213.43
393.43	213.17
393.81	213.45
394.18	212.93
394.56	213.02
394.94	213.45
395.31	213.52
395.69	214.29
396.06	214.95
396.44	215.26
396.82	215.05
397.19	216.50
397.57	216.31
397.95	216.57
398.32	215.95
398.70	216.38
399.07	216.93
399.45	217.14
399.82	216.93
400.20	216.83
400.58	216.98
400.95	216.19
401.33	216.69
401.70	218.05
402.08	218.43
402.45	218.40
402.83	219.12
403.20	219.36
403.58	219.19
403.95	219.33
404.33	219.74
404.71	220.31
405.08	221.10
405.46	221.40
405.83	221.76
406.21	222.02
406.58	222.48
406.96	222.57
407.33	223.12
407.70	223.98
408.08	225.98
408.45	226.55
408.83	227.90
409.20	228.48
409.58	227.95
409.95	229.14
410.33	230.24
410.70	230.52
411.08	231.90
411.45	233.29
411.82	234.52
412.20	236.26
412.57	238.81
412.95	238.62
413.32	240.86
413.69	242.40
414.07	244.48
414.44	246.36
414.82	248.64
415.19	251.36
415.56	253.98
415.94	255.50
416.31	258.93
416.68	261.64
417.06	265.40
417.43	269.62
417.81	273.60
418.18	278.02
418.55	282.40
418.93	287.14
419.30	291.98
419.67	297.14
420.04	302.62
420.42	307.71
420.79	315.81
421.16	322.33
421.54	330.29
421.91	337.52
422.28	344.62
422.66	352.76
423.03	361.88
423.40	369.50
423.77	377.86
424.15	386.17
424.52	395.10
424.89	405.55
425.26	414.67
425.64	423.60
426.01	433.05
426.38	443.64
426.75	454.26
427.13	464.76
427.50	476.17
427.87	487.74
428.24	500.05
428.61	510.64
428.99	523.55
429.36	536.12
429.73	549.79
430.10	563.10
430.47	576.40
430.85	588.69
431.22	604.12
431.59	621.21
431.96	636.38
432.33	653.67
432.70	669.62
433.08	689.17
433.45	707.55
433.82	725.93
434.19	745.95
434.56	766.60
434.93	786.29
435.30	805.64
435.68	826.88
436.05	846.98
436.42	867.07
436.79	886.67
437.16	907.69
437.53	928.69
437.90	950.38
438.27	972.40
438.64	995.19
439.01	1015.90
439.38	1033.86
439.75	1052.12
440.13	1072.57
440.50	1091.64
440.87	1106.76
441.24	1123.62
441.61	1142.02
441.98	1155.76
442.35	1169.98
442.72	1185.64
443.09	1201.74
443.46	1210.69
443.83	1217.62
444.20	1224.00
444.57	1231.50
444.94	1235.40
445.31	1240.79
445.68	1248.10
446.05	1249.98
446.42	1248.29
446.79	1246.86
447.16	1244.45
447.53	1243.19
447.90	1235.71
448.27	1228.24
448.64	1218.74
449.01	1210.79
449.37	1196.98
449.74	1183.55
450.11	1170.24
450.48	1152.90
450.85	1133.76
451.22	1119.00
451.59	1105.19
451.96	1091.07
452.33	1072.31
452.70	1055.67
453.07	1034.76
453.43	1011.76
453.80	991.67
454.17	972.76
454.54	954.67
454.91	935.40
455.28	916.12
455.65	898.31
456.02	883.86
456.38	868.21
456.75	849.83
457.12	834.43
457.49	819.33
457.86	802.19
458.23	789.45
458.59	775.57
458.96	761.60
459.33	748.52
459.70	735.81
460.07	726.05
460.43	714.50
460.80	704.33
461.17	695.38
461.54	685.60
461.91	676.24
462.27	665.79
462.64	657.50
463.01	648.93
463.38	640.76
463.74	628.52
464.11	620.74
464.48	613.98
464.85	606.55
465.21	601.19
465.58	595.55
465.95	588.19
466.32	582.60
466.68	576.12
467.05	570.40
467.42	564.81
467.78	558.52
468.15	552.45
468.52	547.98
468.88	541.40
469.25	535.90
469.62	531.76
469.98	527.55
470.35	523.17
470.72	519.14
471.08	513.90
471.45	510.57
471.82	507.33
472.18	502.83
472.55	499.57
472.92	495.24
473.28	491.93
473.65	488.33
474.02	485.05
474.38	482.86
474.75	480.24
475.11	477.31
475.48	475.52
475.85	473.93
476.21	471.45
476.58	470.05
476.94	469.05
477.31	467.43
477.67	466.26
478.04	465.24
478.41	464.31
478.77	465.95
479.14	464.86
479.50	463.93
479.87	464.05
480.23	463.62
480.60	463.57
480.96	463.19
481.33	464.33
481.69	464.76
482.06	464.57
482.42	464.74
482.79	465.64
483.15	465.79
483.52	466.69
483.88	467.71
484.25	468.45
484.61	469.67
484.98	470.71
485.34	473.29
485.71	474.90
486.07	477.05
486.44	477.07
486.80	479.62
487.17	481.93
487.53	484.81
487.90	488.00
488.26	491.36
488.62	494.74
488.99	497.17
489.35	500.88
489.72	505.02
490.08	508.69
490.44	512.26
490.81	516.62
491.17	520.48
491.54	525.02
491.90	530.21
492.26	534.90
492.63	540.19
492.99	544.64
493.36	550.14
493.72	555.62
494.08	561.26
494.45	567.36
494.81	573.83
495.17	579.67
495.54	586.48
495.90	593.02
496.26	600.02
496.63	607.14
496.99	613.76
497.35	620.67
497.72	628.43
498.08	636.36
498.44	644.40
498.80	652.93
499.17	660.62
499.53	668.83
499.89	678.07
500.26	686.88
500.62	695.55
500.98	704.79
501.34	713.86
501.71	723.21
502.07	731.93
502.43	741.31
502.79	750.52
503.16	759.52
503.52	768.26
503.88	777.12
504.24	786.90
504.60	796.83
504.97	807.60
505.33	817.62
505.69	828.71
506.05	838.74
506.41	848.74
506.78	859.50
507.14	869.19
507.50	879.12
507.86	888.81
508.22	899.07
508.59	909.02
508.95	919.21
509.31	930.24
509.67	940.76
510.03	950.60
510.39	961.38
510.75	971.40
511.12	981.98
511.48	992.69
511.84	1002.69
512.20	1012.93
512.56	1022.40
512.92	1032.79
513.28	1042.33
513.64	1051.62
514.00	1061.05
514.37	1070.64
514.73	1080.67
515.09	1089.69
515.45	1099.86
515.81	1108.88
516.17	1117.76
516.53	1126.21
516.89	1133.98
517.25	1143.00
517.61	1151.86
517.97	1159.40
518.33	1167.93
518.69	1177.17
519.05	1185.55
519.41	1194.40
519.77	1202.88
520.13	1211.00
520.49	1217.62
520.85	1224.52
521.21	1232.64
521.57	1240.05
521.93	1245.71
522.29	1253.38
522.65	1259.48
523.01	1266.02
523.37	1271.90
523.73	1278.36
524.09	1283.83
524.45	1289.98
524.81	1296.50
525.17	1302.17
525.53	1307.95
525.89	1313.55
526.25	1318.67
526.61	1323.14
526.97	1327.81
527.33	1332.50
527.68	1338.07
528.04	1342.60
528.40	1345.64
528.76	1349.81
529.12	1354.29
529.48	1359.81
529.84	1362.52
530.20	1367.52
530.56	1370.71
530.91	1375.00
531.27	1378.93
531.63	1383.86
531.99	1387.10
532.35	1389.24
532.71	1392.02
533.07	1395.90
533.42	1401.05
533.78	1403.95
534.14	1407.79
534.50	1410.19
534.86	1413.07
535.21	1414.62
535.57	1418.62
535.93	1421.88
536.29	1425.19
536.65	1428.14
537.00	1429.86
537.36	1432.45
537.72	1434.43
538.08	1437.00
538.44	1438.86
538.79	1440.69
539.15	1442.24
539.51	1444.55
539.87	1445.67
540.22	1447.69
540.58	1449.07
540.94	1448.60
541.29	1450.48
541.65	1450.52
542.01	1452.02
542.37	1452.64
542.72	1453.40
543.08	1452.60
543.44	1453.24
543.79	1452.38
544.15	1451.90
544.51	1452.62
544.87	1452.64
545.22	1452.64
545.58	1451.48
545.94	1451.31
546.29	1451.29
546.65	1451.00
547.01	1449.64
547.36	1449.38
547.72	1448.21
548.07	1447.14
548.43	1446.57
548.79	1443.90
549.14	1443.07
549.50	1441.19
549.86	1439.45
550.21	1437.81
550.57	1437.43
550.92	1435.40
551.28	1434.45
551.64	1434.12
551.99	1433.17
552.35	1432.14
552.70	1430.05
553.06	1429.45
553.41	1428.19
553.77	1427.55
554.13	1426.55
554.48	1426.29
554.84	1425.98
555.19	1425.36
555.55	1425.40
555.90	1423.81
556.26	1423.02
556.61	1420.88
556.97	1418.86
557.32	1417.79
557.68	1416.81
558.03	1415.19
558.39	1415.07
558.74	1413.57
559.10	1410.40
559.45	1408.93
559.81	1407.02
560.16	1405.38
560.52	1404.29
560.87	1402.81
561.23	1400.05
561.58	1399.69
561.94	1397.86
562.29	1395.62
562.64	1393.90
563.00	1390.95
563.35	1389.17
563.71	1387.38
564.06	1386.69
564.42	1385.60
564.77	1384.14
565.12	1382.40
565.48	1382.86
565.83	1381.69
566.19	1380.14
566.54	1379.17
566.89	1376.90
567.25	1375.98
567.60	1376.74
567.96	1376.67
568.31	1375.71
568.66	1374.90
569.02	1370.83
569.37	1368.64
569.72	1367.55
570.08	1365.62
570.43	1363.67
570.78	1361.67
571.14	1360.98
571.49	1358.83
571.84	1356.74
572.20	1354.21
572.55	1352.74
572.90	1348.21
573.26	1345.48
573.61	1342.57
573.96	1339.83
574.31	1337.14
574.67	1333.93
575.02	1329.88
575.37	1324.81
575.72	1320.48
576.08	1316.81
576.43	1314.10
576.78	1311.10
577.13	1306.69
577.49	1303.21
577.84	1299.93
578.19	1296.45
578.54	1292.29
578.90	1288.90
579.25	1286.05
579.60	1281.88
579.95	1277.31
580.30	1273.60
580.66	1270.67
581.01	1267.00
581.36	1263.31
581.71	1259.74
582.06	1256.64
582.42	1252.60
582.77	1248.38
583.12	1244.98
583.47	1240.38
583.82	1236.12
584.17	1231.67
584.53	1228.64
584.88	1224.26
585.23	1221.14
585.58	1216.76
585.93	1212.10
586.28	1208.10
586.63	1204.14
586.98	1200.69
587.34	1196.93
587.69	1192.26
588.04	1186.57
588.39	1182.88
588.74	1177.40
589.09	1172.67
589.44	1166.76
589.79	1162.12
590.14	1158.05
590.49	1153.02
590.84	1148.31
591.19	1144.17
591.54	1140.07
591.89	1134.74
592.25	1132.67
592.60	1126.90
592.95	1122.57
593.30	1118.33
593.65	1113.88
594.00	1108.31
594.35	1109.38
594.70	1104.57
595.05	1100.60
595.40	1096.93
595.75	1091.79
596.10	1088.79
596.45	1085.02
596.80	1081.60
597.15	1076.95
597.50	1072.33
597.85	1069.02
598.19	1064.98
598.54	1060.79
598.89	1056.29
599.24	1052.98
599.59	1046.62
599.94	1042.40
600.29	1038.19
600.64	1034.17
600.99	1030.52
601.34	1027.00
601.69	1017.29
602.04	1013.05
602.39	1008.52
602.74	1003.81
603.08	999.45
603.43	995.98
603.78	991.29
604.13	986.57
604.48	982.14
604.83	978.45
605.18	973.76
605.53	969.62
605.87	964.98
606.22	960.24
606.57	954.98
606.92	950.26
607.27	945.71
607.62	941.19
607.96	937.07
608.31	932.55
608.66	928.52
609.01	923.98
609.36	919.88
609.70	915.64
610.05	911.52
610.40	907.31
610.75	901.64
611.10	897.95
611.44	893.67
611.79	889.64
612.14	885.71
612.49	880.74
612.83	876.07
613.18	871.60
613.53	867.33
613.88	862.64
614.22	857.95
614.57	853.43
614.92	848.62
615.27	843.67
615.61	838.43
615.96	833.26
616.31	828.88
616.65	824.10
617.00	820.12
617.35	815.21
617.70	810.45
618.04	806.64
618.39	801.57
618.74	797.64
619.08	793.24
619.43	787.90
619.78	783.81
620.12	780.29
620.47	776.64
620.82	772.14
621.16	768.10
621.51	765.52
621.85	761.76
622.20	758.21
622.55	753.79
622.89	749.83
623.24	746.45
623.59	742.57
623.93	739.14
624.28	735.52
624.62	734.19
624.97	732.48
625.32	728.45
625.66	724.93
626.01	721.02
626.35	717.86
626.70	714.76
627.04	712.24
627.39	708.43
627.73	705.83
628.08	703.17
628.43	699.74
628.77	695.33
629.12	691.93
629.46	688.52
629.81	685.50
630.15	681.74
630.50	677.93
630.84	674.43
631.19	671.07
631.53	667.10
631.88	660.90
632.22	655.90
632.57	652.83
632.91	649.14
633.26	645.83
633.60	642.02
633.95	638.52
634.29	634.43
634.64	630.90
634.98	626.36
635.32	623.43
635.67	620.40
636.01	617.40
636.36	614.00
636.70	611.21
637.05	607.90
637.39	604.95
637.73	602.17
638.08	599.50
638.42	595.90
638.77	593.29
639.11	590.69
639.45	587.60
639.80	584.02
640.14	581.07
640.49	577.74
640.83	574.24
641.17	571.43
641.52	568.62
641.86	565.86
642.20	563.45
642.55	559.76
642.89	557.07
643.23	553.98
643.58	551.98
643.92	548.21
644.26	545.33
644.61	542.57
644.95	539.55
645.29	535.88
645.64	533.81
645.98	530.48
646.32	528.14
646.66	525.21
647.01	522.29
647.35	520.24
647.69	517.79
648.04	515.69
648.38	513.07
648.72	510.38
649.06	507.24
649.41	504.29
649.75	501.40
650.09	498.74
650.43	496.21
650.78	492.83
651.12	490.43
651.46	488.36
651.80	485.98
652.14	482.79
652.49	480.83
652.83	477.50
653.17	475.12
653.51	472.00
653.85	469.98
654.20	468.14
654.54	465.21
654.88	462.38
655.22	460.79
655.56	457.93
655.90	455.36
656.25	453.48
656.59	450.98
656.93	449.24
657.27	447.67
657.61	445.05
657.95	443.10
658.29	440.86
658.64	438.48
658.98	436.21
659.32	434.36
659.66	432.12
660.00	430.52
660.34	428.57
660.68	426.69
661.02	424.45
661.36	421.95
661.70	420.00
662.05	418.17
662.39	416.48
662.73	415.52
663.07	414.74
663.41	413.02
663.75	411.05
664.09	409.12
664.43	406.43
664.77	404.55
665.11	402.79
665.45	401.00
665.79	399.64
666.13	397.55
666.47	396.10
666.81	394.43
667.15	392.24
667.49	391.10
667.83	390.14
668.17	388.26
668.51	386.71
668.85	385.45
669.19	384.71
669.53	382.17
669.87	379.79
670.21	377.57
670.55	376.21
670.89	375.57
671.23	373.95
671.57	372.79
671.91	371.67
672.25	370.21
672.58	369.69
672.92	367.48
673.26	366.52
673.60	365.31
673.94	364.29
674.28	363.45
674.62	362.07
674.96	360.24
675.30	359.14
675.64	358.33
675.97	357.00
676.31	355.33
676.65	353.74
676.99	353.64
677.33	352.05
677.67	350.50
678.01	348.33
678.34	347.31
678.68	346.19
679.02	344.79
679.36	343.26
679.70	341.43
680.04	340.81
680.37	339.81
680.71	338.43
681.05	337.02
681.39	335.95
681.73	334.38
682.06	333.05
682.40	332.10
682.74	331.10
683.08	330.29
683.42	328.62
683.75	327.98
684.09	325.79
684.43	324.88
684.77	323.95
685.10	323.14
685.44	322.17
685.78	320.86
686.12	319.98
686.45	319.02
686.79	317.74
687.13	316.83
687.46	315.76
687.80	315.21
688.14	313.88
688.48	313.02
688.81	312.26
689.15	312.14
689.49	311.05
689.82	310.10
690.16	308.67
690.50	308.00
690.83	306.60
691.17	305.52
691.51	304.55
691.84	303.38
692.18	302.40
692.52	301.38
692.85	300.95
693.19	300.55
693.52	299.74
693.86	299.05
694.20	297.98
694.53	297.26
694.87	295.88
695.21	294.93
695.54	293.69
695.88	292.60
696.21	291.24
696.55	290.43
696.88	289.69
697.22	288.79
697.56	288.19
697.89	287.57
698.23	287.33
698.56	286.50
698.90	286.17
699.23	285.21
699.57	284.52
699.90	283.14
700.24	281.79
700.58	281.12
700.91	280.81
701.25	281.67
701.58	281.55
701.92	281.62
702.25	281.05
702.59	280.55
702.92	279.86
703.26	278.90
703.59	278.24
703.93	278.98
704.26	278.33
704.60	277.64
704.93	276.88
705.26	275.98
705.60	275.81
705.93	274.86
706.27	275.07
706.60	274.74
706.94	275.29
707.27	274.88
707.61	274.36
707.94	273.36
708.27	271.10
708.61	269.69
708.94	268.86
709.28	268.88
709.61	268.05
709.94	267.95
710.28	267.60
710.61	267.14
710.95	264.86
711.28	266.00
711.61	265.50
711.95	265.57
712.28	264.81
712.61	264.21
712.95	264.93
713.28	265.21
713.61	264.26
713.95	262.90
714.28	262.48
714.61	261.74
714.95	261.17
715.28	260.60
715.61	259.81
715.95	259.17
716.28	258.24
716.61	258.17
716.95	257.05
717.28	256.57
717.61	256.00
717.94	255.55
718.28	253.31
718.61	252.60
718.94	251.81
719.27	251.38
719.61	250.71
719.94	249.55
720.27	247.83
720.60	247.55
720.94	247.12
721.27	246.81
721.60	246.95
721.93	246.60
722.27	246.93
722.60	247.21
722.93	246.88
723.26	246.60
723.59	245.83
723.93	246.07
724.26	245.93
724.59	245.48
724.92	245.26
725.25	245.81
725.59	245.64
725.92	245.60
726.25	245.33
726.58	245.19
726.91	244.57
727.24	244.69
727.57	244.36
727.91	243.74
728.24	243.48
728.57	242.69
728.90	242.76
729.23	241.74
729.56	242.14
729.89	241.81
730.22	241.57
730.55	241.52
730.89	241.40
731.22	240.98
731.55	240.71
731.88	240.64
732.21	239.93
732.54	239.67
732.87	239.48
733.20	239.50
733.53	239.29
733.86	239.21
734.19	238.50
734.52	238.60
734.85	239.95
735.18	239.50
735.51	240.38
735.84	239.98
736.17	240.52
736.50	239.26
736.83	241.52
737.16	241.07
737.49	240.64
737.82	239.93
738.15	240.02
738.48	239.93
738.81	239.33
739.14	238.71
739.47	238.17
739.80	237.57
740.13	237.71
740.46	237.05
740.79	236.48
741.12	236.36
741.45	235.93
741.78	234.64
742.11	235.02
742.44	233.76
742.77	234.02
743.10	233.29
743.43	232.88
743.75	230.43
744.08	233.19
744.41	233.02
744.74	232.76
745.07	232.14
745.40	232.21
745.73	232.93
746.06	233.00
746.39	233.21
746.71	232.93
747.04	232.10
747.37	232.14
747.70	232.57
748.03	232.79
748.36	233.05
748.68	232.90
749.01	232.14
749.34	232.33
749.67	231.93
750.00	231.90
750.33	233.48
750.65	233.48
750.98	230.60
751.31	230.43
751.64	230.62
751.97	231.67
752.29	231.45
752.62	230.43
752.95	230.21
753.28	230.02
753.60	229.90
753.93	230.50
754.26	230.24
754.59	229.67
754.91	229.19
755.24	228.60
755.57	228.14
755.90	227.90
756.22	227.38
756.55	226.98
756.88	226.57
757.20	225.00
757.53	224.38
757.86	224.36
758.19	224.50
758.51	224.31
758.84	223.40
759.17	223.14
759.49	223.17
759.82	224.19
760.15	224.19
760.47	224.17
760.80	223.43
761.13	223.69
761.45	223.21
761.78	222.90
762.11	222.76
762.43	222.71
762.76	222.76
763.08	223.02
763.41	223.14
763.74	223.19
764.06	223.14
764.39	223.05
764.71	222.79
765.04	222.26
765.37	222.05
765.69	221.81
766.02	221.76
766.34	221.67
766.67	220.69
767.00	220.98
767.32	221.76
767.65	223.10
767.97	222.76
768.30	222.86
768.62	222.86
768.95	222.55
769.27	222.48
769.60	222.71
769.92	222.55
770.25	222.14
770.57	221.76
770.90	221.50
771.22	221.24
771.55	221.26
771.87	221.43
772.20	221.19
772.52	222.48
772.85	224.71
773.17	224.64
773.50	224.43
773.82	223.83
774.15	222.90
774.47	221.57
774.80	221.36
775.12	221.26
775.45	221.14
775.77	221.38
776.09	221.52
776.42	221.50
776.74	221.81
777.07	221.74
777.39	221.74
777.72	221.81
778.04	222.17
778.36	221.83
778.69	221.74
779.01	221.74
779.33	220.10
779.66	217.74
779.98	217.48
780.31	217.55
780.63	218.40
780.95	218.60
781.28	218.50
781.60	218.48
781.92	218.55
782.25	218.57
782.57	218.26
782.89	218.07
783.22	217.93
783.54	217.52
783.86	217.79
784.19	217.74
784.51	218.19
784.83	217.81
785.16	217.74
785.48	217.81
785.80	217.90
786.12	217.98
786.45	217.74
786.77	218.07
787.09	217.81
787.42	216.95
787.74	217.12
788.06	217.02
