SpectraSuite Data File
++++++++++++++++++++++++++++++++++++
Date: Tue Apr 02 18:45:35 EDT 2013
User: group
Dark Spectrum Present: No
Reference Spectrum Present: No
Number of Sampled Component Spectra: 1
Spectrometers: USB2E7196
Integration Time (usec): 580000 (USB2E7196)
Spectra Averaged: 2 (USB2E7196)
Boxcar Smoothing: 10 (USB2E7196)
Correct for Electrical Dark: No (USB2E7196)
Strobe/Lamp Enabled: No (USB2E7196)
Correct for Detector Non-linearity: No (USB2E7196)
Correct for Stray Light: No (USB2E7196)
Number of Pixels in Processed Spectrum: 2048
>>>>>Begin Processed Spectral Data<<<<<
339.09	0.00
339.48	192.00
339.86	194.50
340.24	198.00
340.63	198.00
341.01	229.50
341.39	197.50
341.78	206.00
342.16	209.50
342.54	205.50
342.93	196.17
343.31	205.88
343.69	206.31
344.07	207.07
344.46	207.86
344.84	208.36
345.22	207.19
345.60	207.76
345.99	207.83
346.37	207.90
346.75	207.93
347.13	208.10
347.52	208.26
347.90	208.98
348.28	208.98
348.66	209.26
349.05	208.88
349.43	209.19
349.81	209.71
350.19	209.74
350.57	209.79
350.96	210.17
351.34	210.62
351.72	210.90
352.10	210.95
352.48	210.74
352.87	210.74
353.25	210.81
353.63	210.81
354.01	210.79
354.39	210.74
354.77	210.95
355.15	211.50
355.54	211.31
355.92	210.90
356.30	210.90
356.68	212.38
357.06	212.74
357.44	212.45
357.82	212.57
358.20	213.74
358.58	213.60
358.97	213.83
359.35	214.00
359.73	214.55
360.11	214.45
360.49	214.45
360.87	214.43
361.25	214.98
361.63	215.50
362.01	216.00
362.39	215.93
362.77	215.93
363.15	215.71
363.53	215.90
363.91	216.05
364.29	216.26
364.67	214.29
365.05	214.43
365.43	214.76
365.81	215.12
366.19	215.10
366.57	216.24
366.95	216.19
367.33	215.86
367.71	215.76
368.09	216.07
368.47	216.10
368.85	216.24
369.23	216.48
369.61	215.79
369.99	216.29
370.37	216.67
370.75	217.55
371.13	217.33
371.51	217.00
371.89	217.14
372.27	217.26
372.65	217.50
373.03	217.43
373.41	217.31
373.78	216.98
374.16	215.95
374.54	215.12
374.92	214.76
375.30	214.93
375.68	214.40
376.06	214.62
376.44	214.60
376.82	214.88
377.19	214.90
377.57	215.05
377.95	214.36
378.33	214.12
378.71	213.10
379.09	213.24
379.47	213.57
379.84	213.14
380.22	212.81
380.60	212.57
380.98	212.24
381.36	212.36
381.73	212.19
382.11	212.57
382.49	212.71
382.87	212.55
383.25	212.45
383.62	214.90
384.00	214.50
384.38	214.64
384.76	214.71
385.13	215.43
385.51	215.38
385.89	215.26
386.27	215.57
386.64	216.07
387.02	215.86
387.40	215.64
387.78	215.88
388.15	216.05
388.53	215.83
388.91	216.05
389.29	215.81
389.66	216.05
390.04	215.81
390.42	216.10
390.79	216.31
391.17	216.40
391.55	214.24
391.92	214.19
392.30	214.50
392.68	214.29
393.05	214.05
393.43	214.00
393.81	213.93
394.18	213.40
394.56	213.26
394.94	213.81
395.31	213.67
395.69	214.43
396.06	214.81
396.44	215.17
396.82	215.05
397.19	216.26
397.57	215.83
397.95	216.21
398.32	215.69
398.70	215.83
399.07	216.10
399.45	216.02
399.82	216.07
400.20	215.90
400.58	215.93
400.95	215.00
401.33	215.52
401.70	217.12
402.08	217.14
402.45	217.40
402.83	217.71
403.20	218.00
403.58	217.67
403.95	218.02
404.33	218.45
404.71	218.60
405.08	219.43
405.46	219.86
405.83	220.17
406.21	220.50
406.58	220.93
406.96	221.21
407.33	221.81
407.70	222.57
408.08	224.60
408.45	225.36
408.83	226.40
409.20	226.90
409.58	226.60
409.95	228.10
410.33	228.83
410.70	229.43
411.08	230.60
411.45	231.52
411.82	232.29
412.20	233.81
412.57	236.33
412.95	236.00
413.32	237.79
413.69	239.10
414.07	240.67
414.44	242.57
414.82	244.55
415.19	247.07
415.56	249.43
415.94	250.50
416.31	253.26
416.68	255.93
417.06	259.33
417.43	262.52
417.81	265.71
418.18	269.24
418.55	272.90
418.93	276.86
419.30	281.17
419.67	285.74
420.04	290.10
420.42	293.98
420.79	301.40
421.16	307.12
421.54	313.88
421.91	320.14
422.28	326.38
422.66	332.90
423.03	340.64
423.40	347.24
423.77	354.55
424.15	361.45
424.52	369.62
424.89	378.02
425.26	385.74
425.64	393.14
426.01	401.48
426.38	410.38
426.75	419.76
427.13	429.10
427.50	438.50
427.87	448.50
428.24	458.55
428.61	466.21
428.99	477.29
429.36	487.64
429.73	498.64
430.10	509.76
430.47	521.57
430.85	532.33
431.22	544.45
431.59	558.88
431.96	572.00
432.33	584.98
432.70	598.31
433.08	614.43
433.45	629.83
433.82	645.17
434.19	661.50
434.56	678.19
434.93	693.50
435.30	709.31
435.68	726.55
436.05	743.98
436.42	761.36
436.79	776.43
437.16	793.76
437.53	811.36
437.90	828.79
438.27	846.05
438.64	863.71
439.01	881.17
439.38	894.86
439.75	909.48
440.13	926.33
440.50	942.45
440.87	955.21
441.24	968.43
441.61	982.69
441.98	993.76
442.35	1005.95
442.72	1018.64
443.09	1032.21
443.46	1039.69
443.83	1045.50
444.20	1050.55
444.57	1057.02
444.94	1060.26
445.31	1063.86
445.68	1070.05
446.05	1071.55
446.42	1070.12
446.79	1069.10
447.16	1067.45
447.53	1066.48
447.90	1060.81
448.27	1053.93
448.64	1045.14
449.01	1039.52
449.37	1028.55
449.74	1017.55
450.11	1006.12
450.48	991.74
450.85	976.48
451.22	963.90
451.59	951.40
451.96	939.60
452.33	924.17
452.70	909.83
453.07	892.83
453.43	873.00
453.80	856.95
454.17	841.36
454.54	825.69
454.91	809.76
455.28	793.31
455.65	778.33
456.02	767.26
456.38	754.64
456.75	738.67
457.12	725.57
457.49	712.90
457.86	698.60
458.23	689.17
458.59	676.83
458.96	665.36
459.33	654.55
459.70	644.02
460.07	635.86
460.43	626.17
460.80	617.90
461.17	610.81
461.54	602.52
461.91	595.21
462.27	587.36
462.64	580.33
463.01	573.57
463.38	567.14
463.74	556.48
464.11	549.81
464.48	544.43
464.85	538.00
465.21	533.88
465.58	529.12
465.95	522.07
466.32	517.45
466.68	511.88
467.05	507.21
467.42	502.57
467.78	497.07
468.15	491.98
468.52	488.24
468.88	482.62
469.25	477.74
469.62	474.26
469.98	469.88
470.35	466.17
470.72	462.43
471.08	457.81
471.45	454.71
471.82	452.21
472.18	448.69
472.55	446.31
472.92	442.55
473.28	439.79
473.65	436.98
474.02	433.95
474.38	432.55
474.75	430.21
475.11	427.43
475.48	425.98
475.85	424.55
476.21	423.00
476.58	422.19
476.94	421.31
477.31	419.93
477.67	418.86
478.04	417.86
478.41	417.12
478.77	418.50
479.14	417.33
479.50	416.50
479.87	415.93
480.23	415.81
480.60	415.60
480.96	415.31
481.33	416.21
481.69	416.26
482.06	416.19
482.42	417.00
482.79	417.60
483.15	417.81
483.52	418.81
483.88	418.81
484.25	419.33
484.61	419.86
484.98	420.29
485.34	422.24
485.71	423.60
486.07	424.83
486.44	424.19
486.80	426.02
487.17	427.57
487.53	430.21
487.90	432.45
488.26	435.00
488.62	437.48
488.99	439.17
489.35	442.12
489.72	444.48
490.08	446.67
490.44	449.26
490.81	452.74
491.17	455.74
491.54	459.60
491.90	463.02
492.26	466.88
492.63	470.71
492.99	474.10
493.36	478.17
493.72	482.38
494.08	486.64
494.45	491.48
494.81	496.57
495.17	500.60
495.54	505.50
495.90	510.12
496.26	514.74
496.63	520.57
496.99	525.67
497.35	531.10
497.72	536.98
498.08	542.71
498.44	548.31
498.80	554.62
499.17	560.60
499.53	566.83
499.89	573.48
500.26	580.43
500.62	586.79
500.98	593.64
501.34	600.90
501.71	608.38
502.07	615.29
502.43	622.19
502.79	629.29
503.16	636.10
503.52	643.38
503.88	650.36
504.24	657.98
504.60	665.48
504.97	673.64
505.33	681.33
505.69	690.33
506.05	698.12
506.41	705.86
506.78	713.43
507.14	720.69
507.50	728.76
507.86	736.38
508.22	744.88
508.59	751.95
508.95	759.24
509.31	767.88
509.67	775.67
510.03	783.14
510.39	790.88
510.75	799.26
511.12	807.02
511.48	815.52
511.84	823.00
512.20	830.67
512.56	838.24
512.92	845.88
513.28	853.24
513.64	860.31
514.00	867.69
514.37	875.00
514.73	883.36
515.09	891.10
515.45	897.88
515.81	904.33
516.17	911.93
516.53	918.55
516.89	924.60
517.25	931.29
517.61	938.31
517.97	944.95
518.33	951.31
518.69	957.48
519.05	963.95
519.41	969.64
519.77	977.12
520.13	982.52
520.49	987.74
520.85	993.05
521.21	1000.02
521.57	1005.83
521.93	1011.14
522.29	1015.98
522.65	1020.31
523.01	1025.76
523.37	1030.50
523.73	1035.52
524.09	1040.60
524.45	1045.02
524.81	1050.00
525.17	1055.10
525.53	1060.29
525.89	1064.43
526.25	1070.02
526.61	1073.90
526.97	1078.55
527.33	1082.38
527.68	1088.90
528.04	1093.93
528.40	1097.69
528.76	1101.26
529.12	1105.26
529.48	1110.10
529.84	1114.05
530.20	1118.62
530.56	1123.17
530.91	1127.95
531.27	1131.95
531.63	1136.64
531.99	1140.33
532.35	1144.12
532.71	1147.64
533.07	1151.50
533.42	1158.62
533.78	1162.48
534.14	1167.36
534.50	1171.52
534.86	1176.17
535.21	1178.07
535.57	1182.24
535.93	1185.88
536.29	1190.48
536.65	1194.64
537.00	1197.29
537.36	1200.69
537.72	1203.40
538.08	1206.69
538.44	1209.48
538.79	1212.83
539.15	1215.57
539.51	1219.07
539.87	1222.17
540.22	1225.38
540.58	1228.43
540.94	1229.07
541.29	1231.93
541.65	1233.69
542.01	1236.40
542.37	1237.71
542.72	1240.31
543.08	1241.90
543.44	1245.50
543.79	1246.36
544.15	1249.10
544.51	1252.79
544.87	1255.88
545.22	1259.60
545.58	1262.00
545.94	1264.81
546.29	1268.36
546.65	1270.48
547.01	1272.81
547.36	1275.17
547.72	1277.52
548.07	1280.21
548.43	1281.33
548.79	1283.29
549.14	1285.83
549.50	1288.38
549.86	1290.29
550.21	1293.17
550.57	1296.10
550.92	1297.50
551.28	1301.29
551.64	1303.88
551.99	1307.10
552.35	1310.26
552.70	1312.81
553.06	1315.62
553.41	1318.83
553.77	1322.48
554.13	1326.40
554.48	1331.26
554.84	1335.86
555.19	1339.52
555.55	1344.38
555.90	1348.95
556.26	1352.64
556.61	1355.67
556.97	1359.19
557.32	1363.55
557.68	1367.43
558.03	1371.43
558.39	1376.45
558.74	1380.31
559.10	1383.14
559.45	1386.93
559.81	1390.93
560.16	1394.57
560.52	1398.43
560.87	1402.98
561.23	1405.62
561.58	1411.52
561.94	1414.12
562.29	1417.52
562.64	1422.17
563.00	1425.55
563.35	1429.74
563.71	1434.71
564.06	1441.21
564.42	1446.14
564.77	1451.43
565.12	1457.29
565.48	1464.52
565.83	1469.67
566.19	1476.02
566.54	1482.50
566.89	1487.57
567.25	1493.67
567.60	1501.21
567.96	1509.62
568.31	1516.71
568.66	1523.36
569.02	1527.26
569.37	1533.14
569.72	1539.12
570.08	1544.38
570.43	1549.95
570.78	1555.86
571.14	1561.57
571.49	1566.00
571.84	1571.62
572.20	1576.43
572.55	1581.38
572.90	1584.12
573.26	1589.12
573.61	1592.48
573.96	1596.24
574.31	1600.29
574.67	1603.81
575.02	1606.12
575.37	1608.07
575.72	1610.48
576.08	1614.33
576.43	1618.12
576.78	1622.33
577.13	1625.71
577.49	1629.62
577.84	1633.79
578.19	1638.31
578.54	1641.57
578.90	1645.81
579.25	1649.14
579.60	1652.26
579.95	1654.52
580.30	1658.14
580.66	1662.00
581.01	1666.24
581.36	1670.71
581.71	1674.86
582.06	1680.17
582.42	1684.50
582.77	1687.00
583.12	1690.31
583.47	1693.12
583.82	1696.83
584.17	1700.86
584.53	1704.76
584.88	1708.26
585.23	1710.71
585.58	1713.07
585.93	1716.50
586.28	1719.21
586.63	1723.14
586.98	1726.62
587.34	1730.88
587.69	1733.81
588.04	1736.29
588.39	1739.19
588.74	1740.74
589.09	1742.88
589.44	1742.07
589.79	1744.64
590.14	1746.86
590.49	1748.40
590.84	1750.31
591.19	1752.31
591.54	1752.90
591.89	1753.71
592.25	1756.71
592.60	1758.07
592.95	1759.93
593.30	1761.21
593.65	1762.43
594.00	1761.76
594.35	1768.81
594.70	1768.69
595.05	1769.74
595.40	1770.93
595.75	1770.71
596.10	1772.57
596.45	1773.79
596.80	1776.05
597.15	1776.00
597.50	1777.31
597.85	1779.38
598.19	1779.71
598.54	1779.55
598.89	1780.31
599.24	1782.07
599.59	1780.95
599.94	1781.14
600.29	1781.12
600.64	1781.14
600.99	1781.83
601.34	1783.98
601.69	1778.14
602.04	1778.10
602.39	1777.90
602.74	1777.88
603.08	1778.00
603.43	1779.07
603.78	1778.60
604.13	1777.88
604.48	1777.71
604.83	1777.98
605.18	1777.81
605.53	1777.62
605.87	1777.48
606.22	1777.38
606.57	1775.45
606.92	1773.45
607.27	1772.14
607.62	1772.00
607.96	1771.71
608.31	1770.05
608.66	1768.07
609.01	1766.71
609.36	1766.07
609.70	1764.60
610.05	1761.88
610.40	1760.38
610.75	1756.71
611.10	1755.36
611.44	1753.05
611.79	1750.62
612.14	1747.40
612.49	1743.33
612.83	1740.90
613.18	1737.24
613.53	1734.33
613.88	1731.40
614.22	1728.60
614.57	1726.57
614.92	1721.43
615.27	1718.29
615.61	1715.52
615.96	1711.93
616.31	1708.36
616.65	1706.24
617.00	1703.55
617.35	1701.00
617.70	1697.95
618.04	1694.88
618.39	1690.52
618.74	1687.38
619.08	1683.52
619.43	1680.71
619.78	1678.43
620.12	1675.67
620.47	1672.98
620.82	1668.98
621.16	1664.69
621.51	1663.10
621.85	1658.67
622.20	1656.43
622.55	1651.62
622.89	1648.17
623.24	1645.36
623.59	1641.86
623.93	1637.26
624.28	1633.86
624.62	1631.50
624.97	1628.57
625.32	1624.57
625.66	1620.43
626.01	1616.57
626.35	1613.24
626.70	1609.19
627.04	1605.40
627.39	1600.67
627.73	1597.62
628.08	1594.79
628.43	1591.67
628.77	1586.67
629.12	1583.21
629.46	1579.60
629.81	1575.83
630.15	1570.57
630.50	1565.10
630.84	1561.24
631.19	1555.98
631.53	1551.62
631.88	1544.74
632.22	1538.19
632.57	1533.95
632.91	1529.86
633.26	1525.38
633.60	1519.79
633.95	1514.90
634.29	1509.62
634.64	1505.38
634.98	1499.45
635.32	1494.79
635.67	1491.14
636.01	1487.67
636.36	1482.24
636.70	1477.95
637.05	1472.81
637.39	1468.74
637.73	1465.33
638.08	1461.05
638.42	1456.38
638.77	1452.05
639.11	1448.05
639.45	1443.24
639.80	1438.45
640.14	1434.12
640.49	1429.17
640.83	1425.31
641.17	1421.33
641.52	1415.95
641.86	1410.57
642.20	1406.83
642.55	1400.90
642.89	1395.07
643.23	1388.24
643.58	1384.45
643.92	1377.36
644.26	1372.57
644.61	1367.31
644.95	1361.48
645.29	1354.86
645.64	1349.62
645.98	1342.69
646.32	1337.57
646.66	1332.36
647.01	1326.10
647.35	1320.31
647.69	1315.00
648.04	1309.57
648.38	1303.38
648.72	1297.31
649.06	1291.50
649.41	1284.98
649.75	1278.55
650.09	1271.69
650.43	1266.29
650.78	1259.31
651.12	1253.31
651.46	1246.69
651.80	1240.55
652.14	1234.45
652.49	1229.12
652.83	1222.38
653.17	1216.24
653.51	1209.48
653.85	1203.86
654.20	1197.90
654.54	1190.64
654.88	1183.69
655.22	1178.14
655.56	1171.43
655.90	1165.76
656.25	1159.60
656.59	1153.36
656.93	1147.86
657.27	1143.38
657.61	1137.12
657.95	1131.31
658.29	1125.86
658.64	1120.50
658.98	1113.79
659.32	1106.88
659.66	1100.71
660.00	1095.55
660.34	1089.00
660.68	1083.14
661.02	1076.60
661.36	1070.05
661.70	1064.79
662.05	1058.76
662.39	1051.93
662.73	1046.55
663.07	1041.74
663.41	1036.17
663.75	1029.95
664.09	1024.33
664.43	1017.90
664.77	1011.79
665.11	1006.02
665.45	999.79
665.79	993.86
666.13	988.38
666.47	982.67
666.81	976.55
667.15	970.76
667.49	965.95
667.83	960.38
668.17	954.69
668.51	950.05
668.85	944.10
669.19	940.31
669.53	934.10
669.87	928.10
670.21	921.81
670.55	915.57
670.89	911.88
671.23	906.19
671.57	900.76
671.91	895.38
672.25	889.69
672.58	885.38
672.92	880.24
673.26	875.05
673.60	870.31
673.94	865.71
674.28	860.62
674.62	856.05
674.96	850.88
675.30	846.31
675.64	840.98
675.97	836.48
676.31	830.33
676.65	825.57
676.99	821.45
677.33	816.29
677.67	811.71
678.01	805.74
678.34	801.07
678.68	796.31
679.02	791.43
679.36	786.05
679.70	780.48
680.04	775.21
680.37	770.12
680.71	765.14
681.05	760.55
681.39	755.79
681.73	750.38
682.06	745.95
682.40	740.69
682.74	736.05
683.08	731.90
683.42	726.64
683.75	721.74
684.09	716.10
684.43	711.45
684.77	706.93
685.10	701.88
685.44	696.95
685.78	691.83
686.12	687.57
686.45	683.14
686.79	678.33
687.13	674.67
687.46	670.00
687.80	666.24
688.14	661.29
688.48	656.86
688.81	652.71
689.15	648.19
689.49	643.62
689.82	638.90
690.16	633.74
690.50	629.36
690.83	625.00
691.17	620.67
691.51	615.93
691.84	611.52
692.18	607.48
692.52	603.02
692.85	599.67
693.19	595.69
693.52	591.71
693.86	587.19
694.20	582.10
694.53	578.52
694.87	573.86
695.21	569.67
695.54	565.79
695.88	561.43
696.21	556.79
696.55	553.10
696.88	549.48
697.22	545.62
697.56	542.31
697.89	538.71
698.23	535.38
698.56	531.76
698.90	528.40
699.23	524.21
699.57	521.07
699.90	516.88
700.24	513.00
700.58	509.43
700.91	506.83
701.25	505.14
701.58	502.10
701.92	499.17
702.25	496.26
702.59	492.69
702.92	489.45
703.26	486.60
703.59	483.81
703.93	482.45
704.26	479.52
704.60	476.57
704.93	473.21
705.26	469.74
705.60	467.19
705.93	463.67
706.27	461.52
706.60	458.62
706.94	456.86
707.27	454.00
707.61	451.48
707.94	448.43
708.27	443.74
708.61	440.40
708.94	437.52
709.28	434.86
709.61	431.88
709.94	429.31
710.28	426.71
710.61	423.67
710.95	418.93
711.28	417.76
711.61	415.21
711.95	413.19
712.28	410.98
712.61	408.29
712.95	406.86
713.28	405.12
713.61	402.43
713.95	399.14
714.28	396.83
714.61	394.48
714.95	392.17
715.28	390.21
715.61	388.07
715.95	385.86
716.28	383.24
716.61	381.45
716.95	379.21
717.28	377.24
717.61	375.00
717.94	373.10
718.28	369.62
718.61	367.60
718.94	365.64
719.27	363.36
719.61	361.86
719.94	359.76
720.27	356.88
720.60	355.05
720.94	353.17
721.27	351.71
721.60	350.29
721.93	348.52
722.27	347.64
722.60	346.38
722.93	344.45
723.26	343.12
723.59	341.19
723.93	339.93
724.26	338.24
724.59	337.12
724.92	335.76
725.25	334.86
725.59	333.10
725.92	331.88
726.25	330.52
726.58	329.07
726.91	327.38
727.24	326.40
727.57	324.95
727.91	323.33
728.24	321.79
728.57	320.21
728.90	319.50
729.23	317.38
729.56	317.05
729.89	315.69
730.22	314.38
730.55	313.14
730.89	311.71
731.22	310.33
731.55	309.19
731.88	308.40
732.21	306.98
732.54	305.98
732.87	304.76
733.20	304.02
733.53	302.83
733.86	301.83
734.19	300.24
734.52	299.62
734.85	300.33
735.18	299.14
735.51	298.81
735.84	297.79
736.17	297.50
736.50	295.43
736.83	296.95
737.16	296.14
737.49	295.45
737.82	294.38
738.15	293.88
738.48	292.93
738.81	291.64
739.14	290.40
739.47	289.48
739.80	288.36
740.13	287.62
740.46	286.62
740.79	285.64
741.12	285.00
741.45	283.95
741.78	281.83
742.11	281.64
742.44	280.31
742.77	279.69
743.10	278.43
743.43	277.33
743.75	274.48
744.08	276.26
744.41	275.38
744.74	274.83
745.07	273.50
745.40	273.14
745.73	273.48
746.06	273.21
746.39	272.86
746.71	272.17
747.04	271.24
747.37	270.38
747.70	269.98
748.03	269.57
748.36	269.21
748.68	268.64
749.01	267.50
749.34	266.88
749.67	266.26
750.00	265.95
750.33	266.98
750.65	266.74
750.98	263.60
751.31	263.00
751.64	262.48
751.97	263.45
752.29	262.62
752.62	261.00
752.95	260.10
753.28	259.24
753.60	258.74
753.93	258.55
754.26	258.02
754.59	256.90
754.91	256.17
755.24	255.40
755.57	254.60
755.90	254.17
756.22	253.33
756.55	252.21
756.88	251.31
757.20	249.38
757.53	248.10
757.86	247.74
758.19	247.36
758.51	246.86
758.84	245.12
759.17	244.48
759.49	244.19
759.82	244.64
760.15	244.33
760.47	243.90
760.80	243.10
761.13	243.31
761.45	242.88
761.78	242.36
762.11	241.90
762.43	241.52
762.76	240.93
763.08	240.93
763.41	241.14
763.74	240.93
764.06	240.81
764.39	240.86
764.71	240.48
765.04	239.98
765.37	239.33
765.69	238.95
766.02	238.64
766.34	237.88
766.67	236.98
767.00	236.90
767.32	237.55
767.65	238.26
767.97	237.62
768.30	237.45
768.62	237.24
768.95	236.69
769.27	236.50
769.60	236.55
769.92	235.88
770.25	234.79
770.57	234.33
770.90	233.88
771.22	233.19
771.55	233.07
771.87	232.62
772.20	232.43
772.52	233.98
772.85	236.12
773.17	236.17
773.50	235.67
773.82	235.26
774.15	234.21
774.47	232.90
774.80	232.64
775.12	232.48
775.45	232.31
775.77	232.31
776.09	232.19
776.42	231.76
776.74	232.50
777.07	232.45
777.39	232.31
777.72	232.07
778.04	232.33
778.36	231.67
778.69	231.90
779.01	231.83
779.33	230.05
779.66	227.76
779.98	227.50
780.31	227.40
780.63	228.21
780.95	228.14
781.28	227.93
781.60	227.50
781.92	227.33
782.25	227.10
782.57	226.88
782.89	226.62
783.22	226.43
783.54	225.76
783.86	225.67
784.19	225.48
784.51	225.98
784.83	225.26
