SpectraSuite Data File
++++++++++++++++++++++++++++++++++++
Date: Tue Apr 02 18:42:13 EDT 2013
User: group
Dark Spectrum Present: No
Reference Spectrum Present: No
Number of Sampled Component Spectra: 1
Spectrometers: USB2E7196
Integration Time (usec): 580000 (USB2E7196)
Spectra Averaged: 2 (USB2E7196)
Boxcar Smoothing: 10 (USB2E7196)
Correct for Electrical Dark: No (USB2E7196)
Strobe/Lamp Enabled: No (USB2E7196)
Correct for Detector Non-linearity: No (USB2E7196)
Correct for Stray Light: No (USB2E7196)
Number of Pixels in Processed Spectrum: 2048
>>>>>Begin Processed Spectral Data<<<<<
339.09	0.00
339.48	196.00
339.86	194.00
340.24	194.00
340.63	194.00
341.01	229.00
341.39	200.00
341.78	208.00
342.16	209.50
342.54	206.00
342.93	196.62
343.31	206.31
343.69	206.76
344.07	207.38
344.46	208.26
344.84	209.07
345.22	207.88
345.60	208.45
345.99	208.24
346.37	208.05
346.75	207.98
347.13	207.60
347.52	207.79
347.90	208.48
348.28	208.71
348.66	209.17
349.05	208.64
349.43	208.86
349.81	208.93
350.19	209.21
350.57	209.52
350.96	209.90
351.34	210.33
351.72	210.31
352.10	210.33
352.48	210.40
352.87	210.24
353.25	210.48
353.63	210.29
354.01	210.45
354.39	210.93
354.77	211.26
355.15	212.07
355.54	212.12
355.92	211.45
356.30	211.60
356.68	212.98
357.06	213.02
357.44	212.74
357.82	212.90
358.20	213.90
358.58	213.98
358.97	214.07
359.35	214.33
359.73	214.90
360.11	214.95
360.49	214.79
360.87	215.12
361.25	215.52
361.63	216.21
362.01	216.76
362.39	216.62
362.77	216.90
363.15	216.81
363.53	216.83
363.91	217.07
364.29	217.12
364.67	215.21
365.05	215.43
365.43	215.88
365.81	216.00
366.19	216.24
366.57	217.00
366.95	216.95
367.33	216.76
367.71	216.67
368.09	216.98
368.47	216.79
368.85	216.36
369.23	216.64
369.61	216.07
369.99	216.45
370.37	216.74
370.75	217.62
371.13	217.36
371.51	217.21
371.89	217.38
372.27	217.40
372.65	217.36
373.03	217.24
373.41	217.05
373.78	217.02
374.16	215.86
374.54	215.21
374.92	214.98
375.30	214.76
375.68	214.40
376.06	214.71
376.44	214.95
376.82	215.38
377.19	215.26
377.57	215.31
377.95	214.62
378.33	214.55
378.71	213.00
379.09	213.14
379.47	213.50
379.84	213.24
380.22	213.00
380.60	212.71
380.98	212.86
381.36	212.83
381.73	212.55
382.11	212.83
382.49	212.95
382.87	212.90
383.25	212.98
383.62	215.45
384.00	215.24
384.38	215.36
384.76	215.69
385.13	216.62
385.51	216.64
385.89	216.55
386.27	216.48
386.64	216.90
387.02	216.93
387.40	216.48
387.78	216.50
388.15	216.71
388.53	216.64
388.91	216.62
389.29	216.36
389.66	216.88
390.04	216.76
390.42	217.14
390.79	217.24
391.17	217.31
391.55	215.33
391.92	214.88
392.30	215.07
392.68	214.64
393.05	214.38
393.43	214.52
393.81	214.62
394.18	214.29
394.56	214.52
394.94	214.83
395.31	214.90
395.69	215.50
396.06	215.79
396.44	216.10
396.82	215.95
397.19	217.36
397.57	216.90
397.95	217.17
398.32	216.33
398.70	216.40
399.07	216.81
399.45	216.45
399.82	216.52
400.20	216.24
400.58	216.17
400.95	215.38
401.33	215.48
401.70	216.71
402.08	216.81
402.45	216.81
402.83	217.60
403.20	217.90
403.58	217.74
403.95	218.10
404.33	218.45
404.71	218.71
405.08	219.83
405.46	220.07
405.83	220.29
406.21	220.86
406.58	221.38
406.96	221.48
407.33	222.29
407.70	223.07
408.08	225.14
408.45	225.95
408.83	227.05
409.20	227.50
409.58	227.36
409.95	228.69
410.33	229.71
410.70	229.74
411.08	230.95
411.45	232.07
411.82	232.90
412.20	234.62
412.57	237.02
412.95	236.50
413.32	238.31
413.69	239.88
414.07	241.52
414.44	243.33
414.82	245.26
415.19	247.57
415.56	249.76
415.94	251.00
416.31	254.00
416.68	256.76
417.06	260.12
417.43	263.88
417.81	267.19
418.18	270.81
418.55	274.81
418.93	278.45
419.30	282.95
419.67	287.60
420.04	292.10
420.42	296.29
420.79	303.40
421.16	309.07
421.54	316.00
421.91	322.12
422.28	328.60
422.66	335.69
423.03	343.19
423.40	350.55
423.77	357.60
424.15	364.40
424.52	371.95
424.89	380.76
425.26	388.36
425.64	396.43
426.01	404.76
426.38	413.71
426.75	423.71
427.13	432.52
427.50	441.67
427.87	451.86
428.24	461.86
428.61	470.76
428.99	482.33
429.36	492.81
429.73	503.98
430.10	515.43
430.47	527.55
430.85	538.74
431.22	551.21
431.59	566.10
431.96	579.57
432.33	593.81
432.70	607.60
433.08	623.69
433.45	638.79
433.82	654.50
434.19	671.33
434.56	688.19
434.93	704.62
435.30	721.52
435.68	739.31
436.05	756.90
436.42	774.12
436.79	790.12
437.16	807.52
437.53	825.52
437.90	843.88
438.27	861.95
438.64	879.79
439.01	897.60
439.38	911.81
439.75	926.88
440.13	943.81
440.50	959.43
440.87	973.02
441.24	986.76
441.61	1001.12
441.98	1012.45
442.35	1024.74
442.72	1038.14
443.09	1051.07
443.46	1058.48
443.83	1064.05
444.20	1069.12
444.57	1075.00
444.94	1078.55
445.31	1082.76
445.68	1088.19
446.05	1089.24
446.42	1089.21
446.79	1087.86
447.16	1086.12
447.53	1085.21
447.90	1078.95
448.27	1072.38
448.64	1063.31
449.01	1056.52
449.37	1045.55
449.74	1034.36
450.11	1022.88
450.48	1007.57
450.85	991.60
451.22	979.40
451.59	967.10
451.96	955.10
452.33	939.98
452.70	925.76
453.07	907.86
453.43	888.40
453.80	871.29
454.17	854.38
454.54	838.74
454.91	822.14
455.28	805.62
455.65	790.14
456.02	778.62
456.38	765.40
456.75	750.00
457.12	736.26
457.49	723.24
457.86	708.62
458.23	698.64
458.59	686.83
458.96	674.33
459.33	663.40
459.70	652.79
460.07	643.69
460.43	633.90
460.80	625.50
461.17	617.57
461.54	609.71
461.91	601.50
462.27	592.83
462.64	585.43
463.01	577.86
463.38	571.64
463.74	560.79
464.11	554.07
464.48	548.48
464.85	542.52
465.21	537.93
465.58	533.07
465.95	525.74
466.32	521.00
466.68	515.52
467.05	510.55
467.42	505.05
467.78	499.62
468.15	494.40
468.52	491.07
468.88	485.48
469.25	480.29
469.62	477.14
469.98	473.17
470.35	469.71
470.72	466.00
471.08	461.57
471.45	459.26
471.82	457.02
472.18	453.12
472.55	450.74
472.92	447.19
473.28	443.95
473.65	441.45
474.02	438.55
474.38	436.50
474.75	434.71
475.11	432.19
475.48	430.55
475.85	428.83
476.21	426.71
476.58	425.33
476.94	424.36
477.31	422.83
477.67	421.40
478.04	420.67
478.41	419.90
478.77	420.98
479.14	419.36
479.50	418.31
479.87	418.07
480.23	417.40
480.60	417.02
480.96	416.79
481.33	417.62
481.69	417.95
482.06	418.33
482.42	418.45
482.79	419.36
483.15	419.60
483.52	420.43
483.88	420.45
484.25	420.98
484.61	421.52
484.98	422.45
485.34	424.50
485.71	425.98
486.07	427.40
486.44	426.88
486.80	428.43
487.17	429.98
487.53	432.33
487.90	434.50
488.26	437.40
488.62	440.07
488.99	441.71
489.35	444.29
489.72	446.81
490.08	449.55
490.44	452.10
490.81	455.55
491.17	458.67
491.54	462.62
491.90	466.79
492.26	470.62
492.63	474.10
492.99	477.10
493.36	481.21
493.72	485.74
494.08	490.29
494.45	495.45
494.81	500.36
495.17	504.86
495.54	510.00
495.90	514.95
496.26	520.19
496.63	525.90
496.99	531.38
497.35	536.95
497.72	543.05
498.08	548.88
498.44	554.57
498.80	561.21
499.17	567.64
499.53	573.55
499.89	580.67
500.26	587.50
500.62	594.69
500.98	602.14
501.34	608.93
501.71	616.19
502.07	622.93
502.43	629.98
502.79	636.95
503.16	643.79
503.52	650.86
503.88	658.02
504.24	665.52
504.60	672.93
504.97	681.48
505.33	689.76
505.69	698.50
506.05	706.50
506.41	713.83
506.78	721.31
507.14	728.67
507.50	736.60
507.86	744.40
508.22	752.02
508.59	758.50
508.95	766.50
509.31	775.43
509.67	783.48
510.03	791.02
510.39	799.52
510.75	807.62
511.12	815.00
511.48	823.31
511.84	830.55
512.20	838.05
512.56	845.14
512.92	852.45
513.28	859.93
513.64	867.48
514.00	874.98
514.37	882.69
514.73	891.02
515.09	898.36
515.45	905.81
515.81	913.24
516.17	920.31
516.53	926.95
516.89	932.98
517.25	939.86
517.61	947.52
517.97	953.67
518.33	960.29
518.69	967.50
519.05	973.98
519.41	981.40
519.77	988.98
520.13	994.93
520.49	1000.71
520.85	1006.29
521.21	1013.26
521.57	1019.17
521.93	1025.00
522.29	1030.07
522.65	1035.10
523.01	1040.67
523.37	1046.00
523.73	1051.90
524.09	1057.02
524.45	1061.40
524.81	1066.12
525.17	1070.31
525.53	1075.29
525.89	1080.00
526.25	1084.90
526.61	1089.12
526.97	1093.43
527.33	1096.69
527.68	1103.00
528.04	1107.71
528.40	1111.60
528.76	1114.71
529.12	1119.33
529.48	1123.88
529.84	1128.43
530.20	1133.67
530.56	1138.26
530.91	1142.31
531.27	1146.69
531.63	1151.33
531.99	1155.55
532.35	1160.55
532.71	1164.60
533.07	1169.64
533.42	1175.86
533.78	1180.02
534.14	1184.31
534.50	1188.31
534.86	1193.33
535.21	1195.81
535.57	1199.90
535.93	1204.17
536.29	1209.31
536.65	1213.19
537.00	1216.45
537.36	1220.14
537.72	1223.38
538.08	1226.81
538.44	1230.50
538.79	1233.74
539.15	1236.33
539.51	1240.45
539.87	1243.12
540.22	1247.36
540.58	1250.24
540.94	1252.48
541.29	1255.07
541.65	1257.50
542.01	1260.83
542.37	1263.86
542.72	1266.26
543.08	1269.00
543.44	1271.71
543.79	1273.36
544.15	1276.74
544.51	1280.74
544.87	1284.19
545.22	1287.71
545.58	1290.64
545.94	1293.67
546.29	1296.67
546.65	1300.17
547.01	1302.88
547.36	1306.29
547.72	1308.38
548.07	1310.95
548.43	1312.88
548.79	1315.55
549.14	1318.69
549.50	1321.83
549.86	1324.31
550.21	1327.00
550.57	1330.43
550.92	1333.50
551.28	1336.55
551.64	1338.48
551.99	1340.81
552.35	1343.55
552.70	1345.57
553.06	1349.31
553.41	1352.60
553.77	1357.29
554.13	1361.02
554.48	1365.62
554.84	1369.88
555.19	1374.40
555.55	1379.55
555.90	1384.02
556.26	1388.02
556.61	1392.05
556.97	1395.43
557.32	1399.31
557.68	1403.98
558.03	1407.19
558.39	1411.26
558.74	1416.17
559.10	1420.67
559.45	1425.17
559.81	1428.83
560.16	1433.21
560.52	1436.57
560.87	1441.64
561.23	1445.48
561.58	1451.60
561.94	1454.48
562.29	1458.07
562.64	1462.95
563.00	1466.64
563.35	1471.45
563.71	1477.40
564.06	1482.60
564.42	1487.24
564.77	1492.67
565.12	1498.83
565.48	1506.69
565.83	1513.07
566.19	1518.50
566.54	1523.88
566.89	1528.81
567.25	1536.29
567.60	1544.12
567.96	1553.00
568.31	1559.14
568.66	1565.21
569.02	1569.36
569.37	1575.07
569.72	1581.40
570.08	1585.67
570.43	1591.69
570.78	1596.40
571.14	1600.98
571.49	1606.71
571.84	1613.07
572.20	1617.76
572.55	1622.33
572.90	1624.31
573.26	1628.86
573.61	1632.64
573.96	1638.64
574.31	1642.50
574.67	1645.74
575.02	1648.02
575.37	1648.95
575.72	1651.26
576.08	1654.79
576.43	1658.40
576.78	1662.69
577.13	1665.62
577.49	1670.79
577.84	1673.67
578.19	1676.83
578.54	1681.10
578.90	1684.62
579.25	1686.93
579.60	1690.07
579.95	1692.48
580.30	1696.33
580.66	1699.60
581.01	1703.76
581.36	1705.26
581.71	1709.21
582.06	1713.07
582.42	1716.60
582.77	1719.38
583.12	1722.24
583.47	1725.52
583.82	1728.26
584.17	1730.81
584.53	1734.90
584.88	1736.45
585.23	1739.55
585.58	1742.33
585.93	1744.05
586.28	1746.24
586.63	1749.55
586.98	1752.88
587.34	1755.79
587.69	1757.43
588.04	1758.67
588.39	1760.55
588.74	1761.19
589.09	1762.86
589.44	1762.86
589.79	1763.79
590.14	1766.64
590.49	1768.14
590.84	1768.76
591.19	1769.33
591.54	1770.17
591.89	1769.45
592.25	1772.62
592.60	1772.40
592.95	1773.74
593.30	1774.71
593.65	1774.88
594.00	1774.07
594.35	1779.33
594.70	1779.19
595.05	1779.43
595.40	1780.10
595.75	1779.83
596.10	1782.14
596.45	1782.12
596.80	1783.19
597.15	1784.21
597.50	1783.36
597.85	1785.05
598.19	1784.79
598.54	1785.98
598.89	1786.29
599.24	1787.26
599.59	1785.36
599.94	1785.95
600.29	1785.62
600.64	1785.07
600.99	1784.71
601.34	1786.05
601.69	1780.19
602.04	1779.57
602.39	1779.60
602.74	1779.31
603.08	1778.14
603.43	1777.69
603.78	1776.88
604.13	1776.69
604.48	1774.88
604.83	1774.62
605.18	1773.79
605.53	1772.81
605.87	1770.50
606.22	1769.05
606.57	1766.90
606.92	1765.50
607.27	1764.36
607.62	1762.93
607.96	1762.10
608.31	1761.38
608.66	1758.60
609.01	1757.36
609.36	1756.74
609.70	1754.26
610.05	1751.38
610.40	1750.50
610.75	1747.02
611.10	1745.26
611.44	1742.26
611.79	1739.19
612.14	1736.17
612.49	1731.62
612.83	1728.79
613.18	1726.00
613.53	1723.14
613.88	1719.55
614.22	1716.12
614.57	1711.43
614.92	1707.60
615.27	1703.36
615.61	1698.33
615.96	1694.57
616.31	1690.14
616.65	1686.69
617.00	1684.07
617.35	1680.79
617.70	1676.86
618.04	1673.40
618.39	1667.88
618.74	1662.83
619.08	1659.17
619.43	1654.48
619.78	1651.33
620.12	1647.19
620.47	1643.67
620.82	1638.95
621.16	1635.31
621.51	1631.86
621.85	1627.81
622.20	1623.55
622.55	1618.00
622.89	1614.50
623.24	1610.81
623.59	1606.74
623.93	1601.43
624.28	1596.55
624.62	1594.10
624.97	1591.17
625.32	1586.79
625.66	1583.33
626.01	1579.55
626.35	1575.95
626.70	1572.29
627.04	1568.57
627.39	1563.81
627.73	1560.02
628.08	1556.55
628.43	1552.17
628.77	1546.81
629.12	1543.07
629.46	1538.64
629.81	1535.69
630.15	1530.48
630.50	1525.19
630.84	1519.50
631.19	1515.02
631.53	1509.05
631.88	1501.76
632.22	1494.02
632.57	1489.19
632.91	1483.64
633.26	1479.02
633.60	1473.24
633.95	1467.45
634.29	1460.98
634.64	1456.26
634.98	1450.79
635.32	1446.00
635.67	1441.19
636.01	1437.10
636.36	1430.83
636.70	1426.48
637.05	1420.93
637.39	1416.10
637.73	1411.33
638.08	1407.83
638.42	1402.88
638.77	1398.90
639.11	1393.79
639.45	1388.90
639.80	1383.40
640.14	1378.60
640.49	1372.52
640.83	1366.40
641.17	1361.88
641.52	1356.81
641.86	1351.21
642.20	1345.71
642.55	1338.29
642.89	1331.69
643.23	1325.33
643.58	1320.26
643.92	1313.10
644.26	1306.52
644.61	1300.64
644.95	1294.14
645.29	1287.02
645.64	1280.83
645.98	1273.86
646.32	1267.95
646.66	1260.98
647.01	1253.81
647.35	1247.86
647.69	1241.50
648.04	1236.52
648.38	1229.19
648.72	1222.48
649.06	1215.76
649.41	1208.55
649.75	1202.31
650.09	1195.55
650.43	1187.38
650.78	1180.19
651.12	1173.76
651.46	1166.86
651.80	1160.05
652.14	1153.60
652.49	1147.24
652.83	1139.57
653.17	1133.45
653.51	1126.29
653.85	1120.07
654.20	1114.07
654.54	1106.74
654.88	1100.19
655.22	1093.52
655.56	1086.90
655.90	1080.26
656.25	1073.81
656.59	1067.40
656.93	1061.83
657.27	1056.79
657.61	1051.40
657.95	1045.83
658.29	1039.95
658.64	1035.05
658.98	1028.33
659.32	1021.36
659.66	1014.86
660.00	1009.43
660.34	1002.74
660.68	997.07
661.02	990.86
661.36	984.69
661.70	979.00
662.05	973.00
662.39	966.98
662.73	962.26
663.07	957.38
663.41	951.64
663.75	945.86
664.09	940.38
664.43	933.88
664.77	927.93
665.11	921.10
665.45	915.36
665.79	909.21
666.13	903.38
666.47	897.76
666.81	892.12
667.15	884.90
667.49	880.05
667.83	874.79
668.17	870.19
668.51	864.40
668.85	859.64
669.19	855.29
669.53	849.19
669.87	842.52
670.21	836.02
670.55	830.10
670.89	825.45
671.23	819.76
671.57	814.14
671.91	808.52
672.25	804.00
672.58	798.83
672.92	793.67
673.26	788.26
673.60	783.31
673.94	778.40
674.28	774.40
674.62	769.29
674.96	764.12
675.30	759.07
675.64	754.40
675.97	748.76
676.31	743.24
676.65	738.19
676.99	734.74
677.33	729.88
677.67	725.55
678.01	719.81
678.34	714.60
678.68	710.64
679.02	706.10
679.36	701.40
679.70	696.17
680.04	690.71
680.37	687.00
680.71	682.48
681.05	678.02
681.39	673.48
681.73	668.67
682.06	663.95
682.40	659.00
682.74	655.05
683.08	651.10
683.42	646.14
683.75	642.24
684.09	636.50
684.43	632.29
684.77	627.74
685.10	623.48
685.44	619.07
685.78	614.38
686.12	609.98
686.45	605.83
686.79	601.52
687.13	598.36
687.46	593.62
687.80	590.00
688.14	585.76
688.48	581.88
688.81	578.05
689.15	574.95
689.49	571.05
689.82	566.76
690.16	562.00
690.50	558.12
690.83	554.10
691.17	550.19
691.51	546.38
691.84	542.79
692.18	538.95
692.52	535.36
692.85	531.69
693.19	528.88
693.52	525.02
693.86	521.45
694.20	517.52
694.53	514.21
694.87	510.52
695.21	506.45
695.54	502.69
695.88	498.83
696.21	494.33
696.55	490.86
696.88	487.57
697.22	484.64
697.56	481.67
697.89	478.17
698.23	475.02
698.56	471.76
698.90	468.76
699.23	465.26
699.57	462.00
699.90	458.50
700.24	455.12
700.58	452.40
700.91	449.90
701.25	448.19
701.58	445.86
701.92	443.24
702.25	440.76
702.59	438.00
702.92	435.45
703.26	432.67
703.59	429.93
703.93	429.14
704.26	426.55
704.60	423.83
704.93	420.95
705.26	418.60
705.60	416.40
705.93	413.50
706.27	412.10
706.60	410.21
706.94	408.95
707.27	406.12
707.61	403.69
707.94	400.71
708.27	397.05
708.61	394.12
708.94	391.88
709.28	389.67
709.61	387.10
709.94	384.90
710.28	383.26
710.61	381.07
710.95	376.86
711.28	376.43
711.61	374.38
711.95	373.26
712.28	371.10
712.61	368.55
712.95	367.88
713.28	366.21
713.61	363.83
713.95	361.36
714.28	359.67
714.61	357.79
714.95	356.12
715.28	353.93
715.61	352.05
715.95	350.19
716.28	348.21
716.61	347.14
716.95	345.40
717.28	343.24
717.61	341.60
717.94	340.17
718.28	336.79
718.61	335.07
718.94	332.64
719.27	330.83
719.61	329.50
719.94	327.02
720.27	324.45
720.60	323.21
720.94	321.33
721.27	320.07
721.60	318.76
721.93	317.55
722.27	317.07
722.60	315.98
722.93	314.52
723.26	313.31
723.59	311.76
723.93	310.69
724.26	309.95
724.59	308.67
724.92	307.69
725.25	307.14
725.59	305.95
725.92	304.93
726.25	303.88
726.58	303.05
726.91	301.81
727.24	301.05
727.57	300.00
727.91	299.17
728.24	298.48
728.57	297.10
728.90	296.48
729.23	294.90
729.56	294.76
729.89	293.52
730.22	292.64
730.55	291.74
730.89	290.86
731.22	289.69
731.55	288.98
731.88	288.07
732.21	286.79
732.54	286.07
732.87	285.48
733.20	284.90
733.53	284.02
733.86	283.71
734.19	282.90
734.52	282.14
734.85	282.71
735.18	281.33
735.51	281.50
735.84	280.83
736.17	280.60
736.50	279.07
736.83	280.90
737.16	280.36
737.49	279.74
737.82	278.81
738.15	278.48
738.48	277.62
738.81	276.71
739.14	275.74
739.47	274.83
739.80	274.07
740.13	273.67
740.46	272.60
740.79	271.40
741.12	270.57
741.45	269.76
741.78	267.93
742.11	268.19
742.44	267.17
742.77	266.81
743.10	265.76
743.43	265.07
743.75	262.38
744.08	264.29
744.41	263.38
744.74	262.57
745.07	261.21
745.40	261.21
745.73	261.76
746.06	261.45
746.39	261.07
746.71	260.50
747.04	259.45
747.37	258.88
747.70	258.67
748.03	258.38
748.36	258.31
748.68	257.93
749.01	256.60
749.34	255.74
749.67	255.00
750.00	254.93
750.33	256.17
750.65	255.79
750.98	252.48
751.31	252.19
751.64	251.76
751.97	252.76
752.29	252.02
752.62	250.45
752.95	249.74
753.28	249.26
753.60	248.69
753.93	248.95
754.26	248.79
754.59	248.02
754.91	247.52
755.24	246.79
755.57	246.05
755.90	245.69
756.22	245.33
756.55	244.50
756.88	244.00
757.20	242.00
757.53	240.86
757.86	240.88
758.19	240.62
758.51	240.67
758.84	239.19
759.17	238.67
759.49	238.52
759.82	239.21
760.15	238.83
760.47	238.57
760.80	237.69
761.13	238.10
761.45	237.86
761.78	237.33
762.11	237.10
762.43	236.79
762.76	236.38
763.08	236.57
763.41	236.52
763.74	235.95
764.06	235.76
764.39	235.98
764.71	235.69
765.04	235.26
765.37	234.83
765.69	234.50
766.02	234.19
766.34	233.67
766.67	232.64
767.00	232.86
767.32	233.74
767.65	234.60
767.97	233.76
768.30	233.21
768.62	233.02
768.95	232.83
769.27	232.79
769.60	233.07
769.92	232.31
770.25	231.93
770.57	231.55
770.90	231.12
771.22	230.69
771.55	230.38
771.87	230.17
772.20	229.98
772.52	231.62
772.85	234.05
773.17	233.95
773.50	233.93
773.82	233.69
774.15	232.26
774.47	231.02
774.80	230.83
775.12	230.90
775.45	230.74
775.77	230.64
776.09	230.62
776.42	230.67
776.74	231.24
777.07	230.88
777.39	231.07
777.72	230.98
778.04	230.98
778.36	230.43
778.69	230.33
779.01	230.38
779.33	228.55
779.66	226.05
779.98	225.86
780.31	225.69
780.63	225.98
780.95	226.52
781.28	226.48
781.60	226.02
781.92	225.93
782.25	226.02
782.57	225.83
782.89	225.29
783.22	224.62
783.54	223.98
783.86	224.29
784.19	223.69
784.51	224.33
784.83	223.83
785.16	223.79
