SpectraSuite Data File
++++++++++++++++++++++++++++++++++++
Date: Tue Apr 02 18:38:01 EDT 2013
User: group
Dark Spectrum Present: No
Reference Spectrum Present: No
Number of Sampled Component Spectra: 1
Spectrometers: USB2E7196
Integration Time (usec): 580000 (USB2E7196)
Spectra Averaged: 2 (USB2E7196)
Boxcar Smoothing: 10 (USB2E7196)
Correct for Electrical Dark: No (USB2E7196)
Strobe/Lamp Enabled: No (USB2E7196)
Correct for Detector Non-linearity: No (USB2E7196)
Correct for Stray Light: No (USB2E7196)
Number of Pixels in Processed Spectrum: 2048
>>>>>Begin Processed Spectral Data<<<<<
339.09	0.00
339.48	192.50
339.86	189.50
340.24	192.00
340.63	198.00
341.01	231.50
341.39	197.50
341.78	204.50
342.16	208.50
342.54	207.50
342.93	196.67
343.31	206.57
343.69	207.29
344.07	208.14
344.46	209.14
344.84	209.81
345.22	208.64
345.60	209.21
345.99	209.50
346.37	209.67
346.75	209.57
347.13	209.57
347.52	209.81
347.90	210.38
348.28	210.31
348.66	210.81
349.05	210.17
349.43	210.36
349.81	210.71
350.19	210.64
350.57	210.93
350.96	211.10
351.34	211.38
351.72	211.55
352.10	211.79
352.48	211.55
352.87	211.36
353.25	211.50
353.63	211.26
354.01	211.33
354.39	211.50
354.77	211.64
355.15	212.12
355.54	211.98
355.92	211.60
356.30	211.76
356.68	213.07
357.06	213.45
357.44	213.43
357.82	213.43
358.20	214.48
358.58	214.55
358.97	214.69
359.35	215.00
359.73	215.40
360.11	215.33
360.49	215.57
360.87	215.83
361.25	216.07
361.63	217.17
362.01	217.14
362.39	216.95
362.77	217.24
363.15	217.12
363.53	217.31
363.91	217.36
364.29	217.50
364.67	215.45
365.05	215.50
365.43	215.60
365.81	215.52
366.19	215.71
366.57	216.29
366.95	216.40
367.33	215.98
367.71	215.76
368.09	216.29
368.47	216.21
368.85	216.14
369.23	216.69
369.61	215.79
369.99	216.55
370.37	216.93
370.75	217.86
371.13	217.60
371.51	217.26
371.89	217.60
372.27	217.50
372.65	218.07
373.03	218.00
373.41	217.81
373.78	218.02
374.16	217.02
374.54	216.62
374.92	216.43
375.30	216.60
375.68	216.26
376.06	216.10
376.44	216.10
376.82	216.21
377.19	216.07
377.57	216.10
377.95	215.12
378.33	214.79
378.71	213.45
379.09	213.67
379.47	214.00
379.84	213.81
380.22	213.71
380.60	213.31
380.98	213.29
381.36	213.50
381.73	213.02
382.11	213.33
382.49	213.33
382.87	213.00
383.25	213.02
383.62	215.57
384.00	215.12
384.38	215.14
384.76	215.48
385.13	216.19
385.51	216.19
385.89	216.48
386.27	216.64
386.64	217.12
387.02	217.02
387.40	216.88
387.78	217.02
388.15	217.10
388.53	216.95
388.91	216.93
389.29	216.69
389.66	216.95
390.04	216.69
390.42	216.98
390.79	217.19
391.17	217.02
391.55	214.71
391.92	214.88
392.30	215.26
392.68	214.83
393.05	214.55
393.43	214.79
393.81	214.81
394.18	214.38
394.56	214.48
394.94	214.83
395.31	214.71
395.69	215.14
396.06	215.60
396.44	215.95
396.82	215.90
397.19	217.00
397.57	217.05
397.95	217.29
398.32	216.71
398.70	217.10
399.07	217.71
399.45	217.60
399.82	217.62
400.20	217.21
400.58	217.21
400.95	216.36
401.33	216.74
401.70	218.21
402.08	218.48
402.45	218.60
402.83	219.10
403.20	219.24
403.58	219.21
403.95	219.38
404.33	219.62
404.71	219.83
405.08	221.07
405.46	221.40
405.83	221.76
406.21	222.31
406.58	222.67
406.96	222.79
407.33	223.79
407.70	224.57
408.08	226.81
408.45	227.98
408.83	229.48
409.20	229.95
409.58	229.62
409.95	230.88
410.33	231.98
410.70	232.45
411.08	234.07
411.45	235.24
411.82	236.55
412.20	238.50
412.57	241.12
412.95	240.88
413.32	242.95
413.69	244.67
414.07	246.62
414.44	248.76
414.82	251.21
415.19	253.83
415.56	256.67
415.94	258.40
416.31	261.50
416.68	264.60
417.06	268.40
417.43	272.38
417.81	276.36
418.18	280.76
418.55	285.12
418.93	289.79
419.30	294.93
419.67	300.29
420.04	305.26
420.42	310.48
420.79	318.43
421.16	325.24
421.54	333.26
421.91	340.50
422.28	347.50
422.66	355.45
423.03	364.21
423.40	372.05
423.77	380.31
424.15	388.69
424.52	397.81
424.89	407.98
425.26	417.02
425.64	425.83
426.01	435.57
426.38	445.98
426.75	456.90
427.13	467.62
427.50	478.50
427.87	490.17
428.24	501.86
428.61	512.38
428.99	525.07
429.36	537.57
429.73	550.64
430.10	564.21
430.47	577.67
430.85	590.69
431.22	605.83
431.59	623.67
431.96	638.76
432.33	655.10
432.70	670.64
433.08	689.90
433.45	708.60
433.82	726.48
434.19	747.17
434.56	767.26
434.93	785.95
435.30	805.50
435.68	826.79
436.05	847.57
436.42	868.24
436.79	887.02
437.16	908.19
437.53	929.90
437.90	951.50
438.27	972.69
438.64	994.79
439.01	1015.98
439.38	1032.33
439.75	1050.38
440.13	1071.33
440.50	1091.05
440.87	1107.50
441.24	1123.95
441.61	1142.26
441.98	1155.55
442.35	1170.40
442.72	1186.67
443.09	1202.33
443.46	1211.62
443.83	1217.76
444.20	1223.52
444.57	1231.71
444.94	1235.05
445.31	1239.48
445.68	1245.69
446.05	1248.43
446.42	1246.81
446.79	1244.76
447.16	1243.43
447.53	1242.83
447.90	1235.60
448.27	1228.24
448.64	1217.24
449.01	1210.00
449.37	1196.36
449.74	1183.29
450.11	1169.74
450.48	1152.17
450.85	1133.98
451.22	1119.48
451.59	1105.86
451.96	1091.79
452.33	1072.67
452.70	1056.69
453.07	1036.55
453.43	1014.17
453.80	993.52
454.17	974.74
454.54	956.21
454.91	936.48
455.28	917.02
455.65	899.00
456.02	884.14
456.38	869.26
456.75	850.60
457.12	834.93
457.49	819.40
457.86	802.26
458.23	789.98
458.59	775.67
458.96	760.83
459.33	747.83
459.70	735.38
460.07	725.93
460.43	714.00
460.80	703.67
461.17	694.95
461.54	685.55
461.91	675.86
462.27	666.48
462.64	657.88
463.01	648.79
463.38	640.50
463.74	628.76
464.11	620.98
464.48	614.10
464.85	606.86
465.21	601.14
465.58	595.48
465.95	587.48
466.32	581.81
466.68	575.81
467.05	569.95
467.42	564.60
467.78	557.93
468.15	552.02
468.52	547.45
468.88	540.36
469.25	534.86
469.62	531.14
469.98	526.00
470.35	522.02
470.72	518.05
471.08	513.17
471.45	509.95
471.82	506.14
472.18	502.00
472.55	498.71
472.92	495.00
473.28	490.95
473.65	488.21
474.02	484.93
474.38	482.98
474.75	480.81
475.11	477.62
475.48	475.81
475.85	474.14
476.21	472.10
476.58	470.90
476.94	469.62
477.31	467.74
477.67	466.50
478.04	465.21
478.41	464.29
478.77	465.57
479.14	464.10
479.50	463.81
479.87	463.05
480.23	462.95
480.60	462.71
480.96	463.31
481.33	464.02
481.69	464.50
482.06	464.52
482.42	465.17
482.79	466.07
483.15	466.60
483.52	467.93
483.88	468.76
484.25	469.95
484.61	471.45
484.98	472.62
485.34	475.17
485.71	477.43
486.07	479.40
486.44	479.26
486.80	481.48
487.17	483.50
487.53	486.64
487.90	489.71
488.26	493.55
488.62	496.95
488.99	499.60
489.35	502.76
489.72	506.21
490.08	509.64
490.44	513.07
490.81	517.62
491.17	520.79
491.54	525.26
491.90	529.95
492.26	534.36
492.63	539.43
492.99	543.64
493.36	549.10
493.72	554.55
494.08	560.52
494.45	567.52
494.81	574.17
495.17	580.36
495.54	586.95
495.90	593.17
496.26	599.81
496.63	607.19
496.99	614.21
497.35	621.36
497.72	628.93
498.08	636.71
498.44	644.17
498.80	652.98
499.17	661.19
499.53	669.19
499.89	678.60
500.26	687.64
500.62	696.69
500.98	706.05
501.34	715.57
501.71	724.86
502.07	733.21
502.43	742.00
502.79	751.24
503.16	760.14
503.52	769.17
503.88	777.90
504.24	787.55
504.60	797.98
504.97	808.50
505.33	818.48
505.69	829.50
506.05	839.69
506.41	849.76
506.78	860.14
507.14	870.50
507.50	880.19
507.86	890.83
508.22	901.98
508.59	910.86
508.95	920.71
509.31	932.14
509.67	943.05
510.03	953.48
510.39	963.45
510.75	973.86
511.12	984.24
511.48	994.79
511.84	1005.02
512.20	1014.64
512.56	1024.88
512.92	1035.19
513.28	1044.74
513.64	1054.95
514.00	1064.10
514.37	1073.48
514.73	1083.10
515.09	1092.24
515.45	1101.17
515.81	1110.12
516.17	1119.45
516.53	1128.64
516.89	1135.90
517.25	1144.60
517.61	1152.60
517.97	1160.67
518.33	1168.81
518.69	1177.29
519.05	1185.12
519.41	1192.67
519.77	1201.38
520.13	1208.12
520.49	1215.05
520.85	1222.02
521.21	1229.67
521.57	1237.10
521.93	1243.64
522.29	1250.74
522.65	1257.88
523.01	1264.17
523.37	1269.67
523.73	1276.19
524.09	1281.48
524.45	1287.69
524.81	1292.55
525.17	1298.95
525.53	1305.26
525.89	1310.52
526.25	1315.76
526.61	1320.21
526.97	1324.45
527.33	1328.74
527.68	1335.81
528.04	1340.86
528.40	1344.57
528.76	1348.52
529.12	1353.10
529.48	1357.86
529.84	1361.43
530.20	1365.02
530.56	1368.67
530.91	1373.07
531.27	1377.24
531.63	1381.21
531.99	1384.48
532.35	1387.38
532.71	1390.00
533.07	1393.26
533.42	1399.05
533.78	1402.10
534.14	1406.64
534.50	1410.07
534.86	1413.64
535.21	1414.19
535.57	1417.36
535.93	1419.98
536.29	1423.55
536.65	1426.62
537.00	1428.83
537.36	1431.52
537.72	1434.05
538.08	1436.69
538.44	1438.33
538.79	1440.07
539.15	1441.79
539.51	1444.12
539.87	1446.74
540.22	1448.86
540.58	1450.43
540.94	1450.43
541.29	1451.74
541.65	1452.24
542.01	1453.98
542.37	1454.33
542.72	1454.74
543.08	1454.21
543.44	1455.45
543.79	1454.12
544.15	1453.98
544.51	1454.02
544.87	1454.62
545.22	1454.62
545.58	1453.60
545.94	1452.60
546.29	1452.10
546.65	1451.17
547.01	1449.88
547.36	1449.43
547.72	1448.50
548.07	1447.40
548.43	1445.64
548.79	1443.76
549.14	1442.12
549.50	1440.21
549.86	1438.19
550.21	1438.19
550.57	1437.79
550.92	1435.55
551.28	1435.05
551.64	1433.76
551.99	1432.40
552.35	1429.86
552.70	1427.67
553.06	1427.29
553.41	1426.55
553.77	1425.93
554.13	1425.24
554.48	1425.07
554.84	1423.64
555.19	1422.64
555.55	1422.43
555.90	1421.36
556.26	1419.95
556.61	1418.43
556.97	1417.50
557.32	1415.95
557.68	1412.60
558.03	1411.50
558.39	1410.76
558.74	1408.43
559.10	1406.33
559.45	1405.55
559.81	1404.26
560.16	1402.57
560.52	1400.31
560.87	1399.10
561.23	1397.02
561.58	1397.38
561.94	1394.02
562.29	1392.00
562.64	1390.83
563.00	1387.71
563.35	1385.50
563.71	1384.64
564.06	1383.45
564.42	1381.76
564.77	1380.88
565.12	1381.33
565.48	1380.76
565.83	1380.38
566.19	1379.83
566.54	1378.55
566.89	1376.14
567.25	1375.50
567.60	1376.48
567.96	1377.24
568.31	1376.76
568.66	1375.74
569.02	1372.24
569.37	1371.26
569.72	1369.93
570.08	1367.05
570.43	1365.93
570.78	1364.69
571.14	1362.79
571.49	1360.88
571.84	1358.90
572.20	1356.83
572.55	1353.71
572.90	1349.93
573.26	1346.43
573.61	1343.40
573.96	1341.31
574.31	1337.98
574.67	1334.57
575.02	1329.57
575.37	1325.69
575.72	1321.14
576.08	1316.98
576.43	1313.81
576.78	1309.88
577.13	1306.43
577.49	1303.24
577.84	1300.21
578.19	1295.50
578.54	1292.12
578.90	1289.07
579.25	1285.55
579.60	1281.45
579.95	1276.88
580.30	1272.48
580.66	1269.62
581.01	1265.45
581.36	1260.67
581.71	1257.48
582.06	1254.86
582.42	1252.17
582.77	1246.64
583.12	1242.90
583.47	1239.07
583.82	1235.00
584.17	1231.55
584.53	1228.62
584.88	1224.50
585.23	1220.95
585.58	1217.60
585.93	1213.14
586.28	1208.95
586.63	1204.69
586.98	1200.95
587.34	1198.81
587.69	1194.52
588.04	1189.40
588.39	1185.29
588.74	1180.57
589.09	1176.26
589.44	1169.31
589.79	1164.71
590.14	1161.21
590.49	1156.48
590.84	1152.24
591.19	1147.26
591.54	1143.19
591.89	1137.38
592.25	1134.98
592.60	1129.29
592.95	1124.60
593.30	1119.76
593.65	1113.93
594.00	1108.21
594.35	1109.33
594.70	1103.43
595.05	1100.05
595.40	1095.69
595.75	1091.19
596.10	1087.81
596.45	1084.00
596.80	1080.00
597.15	1075.07
597.50	1070.07
597.85	1066.76
598.19	1062.43
598.54	1058.57
598.89	1053.69
599.24	1050.10
599.59	1044.67
599.94	1040.21
600.29	1036.05
600.64	1032.12
600.99	1029.33
601.34	1026.60
601.69	1015.88
602.04	1011.62
602.39	1006.60
602.74	1001.93
603.08	997.19
603.43	993.26
603.78	988.50
604.13	984.98
604.48	980.00
604.83	976.29
605.18	971.19
605.53	966.29
605.87	961.55
606.22	957.48
606.57	952.64
606.92	947.38
607.27	943.31
607.62	939.36
607.96	935.19
608.31	930.76
608.66	925.74
609.01	921.62
609.36	917.57
609.70	912.86
610.05	908.62
610.40	904.95
610.75	899.95
611.10	895.79
611.44	890.83
611.79	886.98
612.14	882.43
612.49	877.33
612.83	873.50
613.18	868.93
613.53	864.67
613.88	859.79
614.22	854.76
614.57	849.67
614.92	844.95
615.27	840.45
615.61	835.33
615.96	830.62
616.31	826.43
616.65	823.00
617.00	819.38
617.35	815.38
617.70	810.93
618.04	806.55
618.39	801.76
618.74	797.71
619.08	792.93
619.43	788.07
619.78	784.60
620.12	780.10
620.47	776.69
620.82	772.12
621.16	768.00
621.51	766.10
621.85	762.29
622.20	758.36
622.55	753.55
622.89	749.95
623.24	746.69
623.59	742.36
623.93	737.71
624.28	733.83
624.62	731.67
624.97	729.17
625.32	725.57
625.66	722.43
626.01	718.62
626.35	715.60
626.70	712.62
627.04	709.31
627.39	705.62
627.73	702.83
628.08	699.76
628.43	696.21
628.77	690.95
629.12	687.86
629.46	684.12
629.81	681.71
630.15	678.02
630.50	674.38
630.84	671.69
631.19	668.21
631.53	664.90
631.88	659.24
632.22	654.29
632.57	651.52
632.91	647.69
633.26	644.79
633.60	640.93
633.95	637.17
634.29	633.48
634.64	630.24
634.98	625.88
635.32	623.21
635.67	620.67
636.01	618.02
636.36	614.48
636.70	611.62
637.05	608.10
637.39	605.31
637.73	602.45
638.08	599.14
638.42	596.52
638.77	593.43
639.11	590.93
639.45	588.02
639.80	584.45
640.14	581.86
640.49	578.83
640.83	575.69
641.17	572.79
641.52	569.76
641.86	566.71
642.20	564.40
642.55	560.50
642.89	557.74
643.23	554.93
643.58	552.86
643.92	549.29
644.26	546.17
644.61	543.31
644.95	540.21
645.29	536.71
645.64	533.86
645.98	530.71
646.32	527.52
646.66	524.33
647.01	520.98
647.35	517.93
647.69	514.90
648.04	512.50
648.38	509.88
648.72	507.14
649.06	504.76
649.41	501.50
649.75	498.83
650.09	496.05
650.43	493.17
650.78	489.83
651.12	487.79
651.46	485.14
651.80	482.31
652.14	479.55
652.49	478.05
652.83	475.02
653.17	472.60
653.51	470.40
653.85	468.88
654.20	466.69
654.54	464.07
654.88	461.57
655.22	460.07
655.56	457.55
655.90	454.76
656.25	452.21
656.59	450.33
656.93	448.36
657.27	446.26
657.61	443.52
657.95	441.67
658.29	439.14
658.64	437.83
658.98	435.62
659.32	433.52
659.66	431.38
660.00	429.62
660.34	427.79
660.68	425.50
661.02	423.02
661.36	420.81
661.70	419.05
662.05	417.40
662.39	415.07
662.73	413.95
663.07	413.55
663.41	411.98
663.75	409.62
664.09	407.86
664.43	405.71
664.77	404.19
665.11	401.93
665.45	400.64
665.79	398.67
666.13	396.88
666.47	394.95
666.81	393.19
667.15	390.95
667.49	389.14
667.83	388.45
668.17	386.95
668.51	385.67
668.85	384.33
669.19	383.81
669.53	381.60
669.87	379.71
670.21	377.21
670.55	375.81
670.89	375.45
671.23	373.79
671.57	372.17
671.91	370.88
672.25	369.88
672.58	369.19
672.92	367.69
673.26	366.29
673.60	365.60
673.94	364.12
674.28	363.29
674.62	362.48
674.96	360.64
675.30	359.38
675.64	358.24
675.97	357.00
676.31	354.98
676.65	354.14
676.99	353.45
677.33	352.43
677.67	351.12
678.01	349.00
678.34	347.76
678.68	347.29
679.02	346.12
679.36	344.50
679.70	342.71
680.04	341.31
680.37	340.43
680.71	339.05
681.05	337.88
681.39	336.69
681.73	335.02
682.06	333.62
682.40	332.29
682.74	331.40
683.08	331.05
683.42	329.83
683.75	328.83
684.09	327.02
684.43	325.79
684.77	324.52
685.10	323.62
685.44	322.69
685.78	321.52
686.12	320.48
686.45	319.64
686.79	318.21
687.13	317.52
687.46	316.55
687.80	315.76
688.14	314.95
688.48	313.95
688.81	313.07
689.15	312.76
689.49	311.67
689.82	310.12
690.16	308.05
690.50	306.86
690.83	305.38
691.17	304.24
691.51	303.14
691.84	302.52
692.18	301.38
692.52	300.33
692.85	299.62
693.19	299.33
693.52	298.36
693.86	297.40
694.20	296.52
694.53	295.55
694.87	294.43
695.21	293.19
695.54	292.29
695.88	291.12
696.21	289.57
696.55	289.31
696.88	288.95
697.22	288.14
697.56	287.67
697.89	287.00
698.23	286.71
698.56	286.00
698.90	285.17
699.23	284.36
699.57	283.50
699.90	282.19
700.24	281.07
700.58	280.55
700.91	280.29
701.25	281.10
701.58	281.29
701.92	280.83
702.25	280.43
702.59	279.52
702.92	278.95
703.26	278.57
703.59	277.79
703.93	278.55
704.26	278.26
704.60	277.62
704.93	277.19
705.26	276.10
705.60	275.98
705.93	275.00
706.27	275.02
706.60	275.21
706.94	275.31
707.27	274.36
707.61	273.67
707.94	272.81
708.27	270.64
708.61	269.14
708.94	268.57
709.28	267.95
709.61	267.33
709.94	267.02
710.28	266.55
710.61	265.79
710.95	263.64
711.28	264.33
711.61	264.00
711.95	264.02
712.28	263.52
712.61	262.71
712.95	263.36
713.28	263.71
713.61	262.62
713.95	261.67
714.28	261.40
714.61	260.74
714.95	260.38
715.28	259.55
715.61	259.00
715.95	258.67
716.28	257.98
716.61	258.26
716.95	257.40
717.28	256.86
717.61	256.57
717.94	256.05
718.28	254.12
718.61	253.57
718.94	252.45
719.27	252.17
719.61	252.14
719.94	251.02
720.27	249.31
720.60	248.83
720.94	248.36
721.27	248.17
721.60	248.26
721.93	247.88
722.27	248.36
722.60	248.24
722.93	247.62
723.26	247.43
723.59	246.26
723.93	246.29
724.26	246.36
724.59	245.76
724.92	245.57
725.25	246.00
725.59	245.45
725.92	245.60
726.25	245.14
726.58	244.52
726.91	244.29
727.24	244.38
727.57	244.07
727.91	243.45
728.24	243.14
728.57	242.57
728.90	242.40
729.23	241.33
729.56	242.19
729.89	242.02
730.22	241.71
730.55	241.83
730.89	241.71
731.22	241.21
731.55	241.05
731.88	240.93
732.21	240.19
732.54	239.86
732.87	239.40
733.20	239.33
733.53	239.21
733.86	239.02
734.19	238.36
734.52	238.52
734.85	239.90
735.18	239.55
735.51	240.24
735.84	240.07
736.17	240.55
736.50	239.05
736.83	241.07
737.16	240.95
737.49	240.74
737.82	240.12
738.15	239.95
738.48	239.74
738.81	239.14
739.14	238.69
739.47	238.38
739.80	238.14
740.13	238.36
740.46	237.69
740.79	237.07
741.12	237.17
741.45	236.83
741.78	235.52
742.11	235.93
742.44	234.98
742.77	235.07
743.10	234.64
743.43	234.24
743.75	231.95
744.08	234.50
744.41	234.12
744.74	233.95
745.07	233.55
745.40	233.71
745.73	234.69
746.06	234.52
746.39	234.81
746.71	234.57
747.04	233.83
747.37	233.71
747.70	234.31
748.03	234.14
748.36	234.12
748.68	233.86
749.01	232.71
749.34	232.45
749.67	232.05
750.00	232.02
750.33	233.64
750.65	233.76
750.98	230.79
751.31	230.81
751.64	230.90
751.97	231.88
752.29	231.33
752.62	230.31
752.95	230.19
753.28	229.60
753.60	229.40
753.93	230.00
754.26	230.17
754.59	229.24
754.91	228.64
755.24	228.29
755.57	228.05
755.90	228.12
756.22	228.12
756.55	227.76
756.88	227.33
757.20	225.71
757.53	224.79
757.86	224.60
758.19	224.60
758.51	224.17
758.84	222.81
759.17	222.90
759.49	222.98
759.82	223.76
760.15	223.83
760.47	223.83
760.80	223.10
761.13	223.14
761.45	222.81
761.78	222.90
762.11	223.10
762.43	222.76
762.76	222.64
763.08	222.69
763.41	222.57
763.74	222.62
764.06	222.62
764.39	222.90
764.71	223.00
765.04	222.50
765.37	222.36
765.69	222.36
766.02	222.10
766.34	221.79
766.67	220.95
767.00	221.26
767.32	222.21
767.65	223.26
767.97	223.19
768.30	223.33
768.62	223.10
768.95	222.45
769.27	222.60
769.60	222.88
769.92	222.48
770.25	222.29
770.57	221.88
770.90	221.88
771.22	221.43
771.55	221.48
771.87	221.71
772.20	221.74
772.52	223.36
772.85	225.90
773.17	225.93
773.50	225.57
773.82	225.45
774.15	224.38
774.47	223.05
774.80	222.69
775.12	222.52
775.45	222.76
775.77	222.98
776.09	223.21
776.42	223.00
776.74	223.76
777.07	223.62
777.39	223.60
777.72	223.36
778.04	223.43
778.36	223.24
778.69	223.17
779.01	223.21
779.33	221.36
779.66	218.86
779.98	218.40
780.31	218.74
780.63	219.40
780.95	219.69
781.28	219.67
781.60	219.67
781.92	219.83
782.25	219.60
782.57	219.45
782.89	219.12
783.22	218.98
783.54	218.14
783.86	218.29
784.19	218.31
784.51	218.86
784.83	218.67
785.16	218.74
785.48	218.48
785.80	218.52
786.12	218.93
786.45	218.76
786.77	218.81
787.09	218.50
787.42	217.74
787.74	217.64
788.06	217.81
