SpectraSuite Data File
++++++++++++++++++++++++++++++++++++
Date: Tue Apr 02 18:43:05 EDT 2013
User: group
Dark Spectrum Present: No
Reference Spectrum Present: No
Number of Sampled Component Spectra: 1
Spectrometers: USB2E7196
Integration Time (usec): 580000 (USB2E7196)
Spectra Averaged: 2 (USB2E7196)
Boxcar Smoothing: 10 (USB2E7196)
Correct for Electrical Dark: No (USB2E7196)
Strobe/Lamp Enabled: No (USB2E7196)
Correct for Detector Non-linearity: No (USB2E7196)
Correct for Stray Light: No (USB2E7196)
Number of Pixels in Processed Spectrum: 2048
>>>>>Begin Processed Spectral Data<<<<<
339.09	0.00
339.48	191.50
339.86	200.50
340.24	194.00
340.63	197.00
341.01	232.50
341.39	199.00
341.78	204.50
342.16	212.00
342.54	204.00
342.93	197.50
343.31	207.31
343.69	207.88
344.07	208.02
344.46	208.76
344.84	209.31
345.22	208.14
345.60	208.74
345.99	208.95
346.37	208.81
346.75	208.90
347.13	208.88
347.52	208.86
347.90	209.57
348.28	209.40
348.66	209.86
349.05	209.12
349.43	209.43
349.81	209.55
350.19	209.45
350.57	209.26
350.96	209.62
351.34	209.86
351.72	210.02
352.10	210.29
352.48	210.14
352.87	210.14
353.25	210.14
353.63	209.79
354.01	209.79
354.39	209.98
354.77	210.07
355.15	210.55
355.54	210.50
355.92	209.60
356.30	209.60
356.68	210.67
357.06	210.83
357.44	210.21
357.82	210.17
358.20	211.12
358.58	211.45
358.97	211.57
359.35	211.76
359.73	212.31
360.11	212.14
360.49	212.24
360.87	212.31
361.25	212.79
361.63	213.48
362.01	213.83
362.39	213.71
362.77	214.12
363.15	213.90
363.53	213.81
363.91	214.33
364.29	214.43
364.67	212.74
365.05	213.14
365.43	213.43
365.81	213.71
366.19	214.10
366.57	214.93
366.95	214.79
367.33	214.40
367.71	214.45
368.09	215.17
368.47	215.38
368.85	215.36
369.23	215.86
369.61	215.36
369.99	215.90
370.37	216.24
370.75	216.98
371.13	216.67
371.51	216.69
371.89	216.74
372.27	217.02
372.65	217.31
373.03	217.00
373.41	217.17
373.78	217.38
374.16	216.21
374.54	215.52
374.92	215.38
375.30	215.69
375.68	215.17
376.06	215.00
376.44	214.76
376.82	214.90
377.19	214.55
377.57	214.52
377.95	213.74
378.33	213.31
378.71	212.05
379.09	212.48
379.47	212.71
379.84	212.55
380.22	212.50
380.60	212.10
380.98	212.21
381.36	212.24
381.73	211.71
382.11	212.29
382.49	212.36
382.87	212.19
383.25	212.24
383.62	214.81
384.00	214.50
384.38	214.69
384.76	215.07
385.13	216.00
385.51	215.98
385.89	215.86
386.27	216.00
386.64	216.50
387.02	216.21
387.40	215.88
387.78	216.17
388.15	216.12
388.53	216.14
388.91	216.10
389.29	215.79
389.66	216.10
390.04	215.67
390.42	216.10
390.79	216.29
391.17	216.12
391.55	213.67
391.92	213.67
392.30	213.67
392.68	213.36
393.05	212.98
393.43	213.21
393.81	213.14
394.18	213.10
394.56	212.95
394.94	213.33
395.31	213.17
395.69	213.60
396.06	213.81
396.44	214.02
396.82	213.79
397.19	215.02
397.57	214.88
397.95	215.33
398.32	214.76
398.70	214.81
399.07	215.19
399.45	215.21
399.82	215.24
400.20	215.10
400.58	214.95
400.95	214.19
401.33	214.60
401.70	216.33
402.08	216.45
402.45	216.57
402.83	217.07
403.20	217.50
403.58	217.45
403.95	218.05
404.33	218.36
404.71	218.81
405.08	220.12
405.46	220.33
405.83	220.74
406.21	221.26
406.58	221.81
406.96	221.98
407.33	222.76
407.70	223.69
408.08	226.00
408.45	226.88
408.83	227.93
409.20	228.38
409.58	227.69
409.95	228.95
410.33	229.90
410.70	230.36
411.08	231.79
411.45	232.74
411.82	233.52
412.20	234.95
412.57	237.36
412.95	236.83
413.32	238.67
413.69	239.81
414.07	241.45
414.44	243.21
414.82	245.50
415.19	247.83
415.56	249.93
415.94	251.07
416.31	254.24
416.68	257.07
417.06	260.17
417.43	263.86
417.81	267.12
418.18	270.88
418.55	274.38
418.93	278.02
419.30	282.14
419.67	286.33
420.04	290.74
420.42	294.98
420.79	302.07
421.16	307.64
421.54	314.69
421.91	320.57
422.28	326.64
422.66	333.19
423.03	340.74
423.40	347.86
423.77	355.00
424.15	361.95
424.52	369.33
424.89	378.21
425.26	386.02
425.64	393.71
426.01	401.88
426.38	410.64
426.75	420.48
427.13	429.93
427.50	439.83
427.87	450.02
428.24	459.88
428.61	468.12
428.99	479.33
429.36	490.05
429.73	501.57
430.10	513.14
430.47	524.86
430.85	535.93
431.22	548.29
431.59	563.19
431.96	575.90
432.33	590.48
432.70	603.57
433.08	619.40
433.45	634.74
433.82	650.07
434.19	667.07
434.56	683.43
434.93	698.45
435.30	714.26
435.68	731.67
436.05	749.33
436.42	765.88
436.79	782.00
437.16	799.31
437.53	817.17
437.90	834.83
438.27	852.86
438.64	870.60
439.01	887.74
439.38	901.90
439.75	916.69
440.13	933.95
440.50	949.90
440.87	962.67
441.24	976.26
441.61	990.76
441.98	1001.98
442.35	1014.07
442.72	1027.95
443.09	1040.88
443.46	1048.90
443.83	1054.17
444.20	1059.95
444.57	1065.81
444.94	1069.21
445.31	1072.29
445.68	1077.88
446.05	1078.93
446.42	1077.79
446.79	1077.02
447.16	1074.62
447.53	1073.60
447.90	1066.74
448.27	1060.50
448.64	1052.05
449.01	1045.69
449.37	1035.12
449.74	1024.07
450.11	1013.21
450.48	998.36
450.85	982.88
451.22	970.07
451.59	957.95
451.96	945.95
452.33	930.57
452.70	916.33
453.07	899.71
453.43	880.14
453.80	863.93
454.17	847.95
454.54	831.98
454.91	816.14
455.28	800.21
455.65	785.26
456.02	773.57
456.38	760.64
456.75	745.40
457.12	731.76
457.49	718.67
457.86	703.81
458.23	694.12
458.59	682.62
458.96	670.48
459.33	659.88
459.70	649.21
460.07	640.52
460.43	630.50
460.80	621.86
461.17	614.93
461.54	606.12
461.91	598.33
462.27	590.02
462.64	583.12
463.01	575.62
463.38	569.10
463.74	558.60
464.11	552.17
464.48	546.40
464.85	540.26
465.21	536.33
465.58	532.12
465.95	524.88
466.32	519.76
466.68	514.55
467.05	509.40
467.42	504.83
467.78	499.48
468.15	494.43
468.52	490.45
468.88	484.79
469.25	480.74
469.62	477.48
469.98	473.57
470.35	469.62
470.72	466.19
471.08	461.29
471.45	458.21
471.82	455.86
472.18	451.71
472.55	448.88
472.92	444.93
473.28	441.19
473.65	438.74
474.02	435.95
474.38	433.83
474.75	431.67
475.11	429.05
475.48	427.21
475.85	425.38
476.21	423.76
476.58	422.29
476.94	420.71
477.31	418.69
477.67	417.14
478.04	415.81
478.41	415.00
478.77	416.69
479.14	415.55
479.50	414.57
479.87	414.50
480.23	414.45
480.60	414.17
480.96	414.38
481.33	414.93
481.69	414.86
482.06	415.14
482.42	415.64
482.79	416.26
483.15	416.83
483.52	417.64
483.88	417.90
484.25	418.62
484.61	419.17
484.98	420.17
485.34	421.95
485.71	423.83
486.07	424.74
486.44	423.81
486.80	425.76
487.17	426.95
487.53	429.38
487.90	431.60
488.26	434.48
488.62	437.29
488.99	438.76
489.35	441.26
489.72	443.76
490.08	446.31
490.44	448.64
490.81	451.79
491.17	454.71
491.54	458.29
491.90	462.21
492.26	466.29
492.63	470.52
492.99	474.40
493.36	478.50
493.72	483.33
494.08	488.05
494.45	492.52
494.81	497.83
495.17	502.12
495.54	507.02
495.90	511.26
496.26	516.55
496.63	522.33
496.99	528.33
497.35	533.88
497.72	540.02
498.08	545.83
498.44	552.26
498.80	559.21
499.17	565.52
499.53	571.81
499.89	578.69
500.26	585.43
500.62	591.88
500.98	598.69
501.34	605.60
501.71	613.00
502.07	620.14
502.43	626.90
502.79	634.02
503.16	641.29
503.52	649.07
503.88	655.98
504.24	663.60
504.60	671.02
504.97	679.05
505.33	686.24
505.69	695.02
506.05	702.45
506.41	710.07
506.78	717.50
507.14	725.33
507.50	733.29
507.86	740.98
508.22	748.98
508.59	756.21
508.95	763.81
509.31	772.29
509.67	780.31
510.03	788.05
510.39	795.93
510.75	803.64
511.12	811.26
511.48	818.67
511.84	826.24
512.20	833.81
512.56	841.43
512.92	849.02
513.28	856.33
513.64	863.93
514.00	871.02
514.37	878.31
514.73	885.40
515.09	892.93
515.45	899.43
515.81	906.60
516.17	913.67
516.53	919.95
516.89	925.52
517.25	932.21
517.61	939.36
517.97	945.43
518.33	951.64
518.69	958.19
519.05	964.71
519.41	970.67
519.77	977.95
520.13	984.17
520.49	990.48
520.85	995.74
521.21	1002.21
521.57	1008.26
521.93	1013.57
522.29	1019.02
522.65	1023.62
523.01	1029.76
523.37	1034.45
523.73	1040.00
524.09	1045.50
524.45	1050.40
524.81	1054.57
525.17	1059.36
525.53	1064.60
525.89	1069.43
526.25	1074.31
526.61	1078.38
526.97	1082.57
527.33	1086.57
527.68	1092.64
528.04	1096.67
528.40	1101.10
528.76	1104.21
529.12	1108.05
529.48	1113.93
529.84	1118.69
530.20	1123.00
530.56	1127.07
530.91	1132.02
531.27	1136.38
531.63	1140.45
531.99	1144.19
532.35	1148.62
532.71	1152.48
533.07	1156.90
533.42	1163.71
533.78	1167.64
534.14	1172.50
534.50	1176.95
534.86	1181.38
535.21	1183.10
535.57	1187.60
535.93	1191.76
536.29	1196.95
536.65	1200.90
537.00	1203.21
537.36	1206.69
537.72	1210.52
538.08	1214.33
538.44	1216.86
538.79	1219.93
539.15	1223.38
539.51	1228.07
539.87	1231.76
540.22	1235.21
540.58	1238.24
540.94	1239.21
541.29	1242.12
541.65	1244.33
542.01	1248.24
542.37	1250.26
542.72	1252.81
543.08	1254.57
543.44	1258.00
543.79	1259.81
544.15	1263.52
544.51	1267.57
544.87	1270.74
545.22	1273.43
545.58	1276.31
545.94	1279.98
546.29	1282.98
546.65	1285.71
547.01	1288.02
547.36	1290.74
547.72	1293.12
548.07	1295.71
548.43	1298.31
548.79	1300.69
549.14	1303.62
549.50	1306.69
549.86	1309.10
550.21	1311.88
550.57	1315.86
550.92	1317.93
551.28	1321.10
551.64	1323.10
551.99	1325.07
552.35	1327.12
552.70	1329.50
553.06	1332.50
553.41	1335.00
553.77	1339.67
554.13	1343.88
554.48	1347.95
554.84	1352.52
555.19	1356.48
555.55	1362.19
555.90	1365.45
556.26	1369.62
556.61	1374.07
556.97	1376.10
557.32	1380.55
557.68	1384.93
558.03	1388.76
558.39	1392.74
558.74	1396.52
559.10	1400.95
559.45	1405.98
559.81	1410.57
560.16	1415.36
560.52	1419.60
560.87	1425.00
561.23	1427.55
561.58	1433.05
561.94	1436.83
562.29	1440.26
562.64	1445.40
563.00	1448.90
563.35	1454.45
563.71	1459.12
564.06	1463.76
564.42	1469.83
564.77	1475.10
565.12	1481.26
565.48	1488.95
565.83	1494.40
566.19	1500.50
566.54	1506.14
566.89	1510.90
567.25	1517.21
567.60	1524.45
567.96	1532.40
568.31	1538.24
568.66	1544.81
569.02	1548.83
569.37	1554.48
569.72	1560.67
570.08	1565.52
570.43	1570.71
570.78	1575.90
571.14	1582.24
571.49	1587.57
571.84	1592.57
572.20	1597.93
572.55	1603.21
572.90	1605.36
573.26	1610.17
573.61	1614.69
573.96	1619.57
574.31	1624.52
574.67	1628.19
575.02	1631.05
575.37	1632.93
575.72	1636.40
576.08	1640.69
576.43	1644.45
576.78	1648.71
577.13	1652.05
577.49	1655.57
577.84	1659.60
578.19	1662.90
578.54	1667.14
578.90	1671.60
579.25	1675.17
579.60	1677.52
579.95	1679.50
580.30	1683.67
580.66	1687.05
581.01	1691.29
581.36	1693.62
581.71	1696.62
582.06	1701.26
582.42	1705.60
582.77	1708.48
583.12	1711.29
583.47	1713.93
583.82	1716.74
584.17	1718.69
584.53	1722.50
584.88	1725.79
585.23	1728.62
585.58	1730.93
585.93	1731.86
586.28	1734.55
586.63	1737.19
586.98	1741.02
587.34	1745.57
587.69	1747.14
588.04	1750.26
588.39	1751.02
588.74	1752.57
589.09	1755.31
589.44	1755.48
589.79	1757.05
590.14	1758.71
590.49	1760.26
590.84	1761.14
591.19	1763.05
591.54	1765.48
591.89	1765.90
592.25	1769.07
592.60	1769.33
592.95	1771.02
593.30	1773.36
593.65	1773.33
594.00	1772.95
594.35	1778.62
594.70	1777.74
595.05	1779.38
595.40	1779.79
595.75	1780.62
596.10	1782.71
596.45	1782.98
596.80	1784.26
597.15	1784.24
597.50	1785.12
597.85	1786.95
598.19	1787.93
598.54	1788.45
598.89	1788.38
599.24	1788.71
599.59	1787.74
599.94	1788.48
600.29	1789.38
600.64	1788.38
600.99	1788.40
601.34	1789.88
601.69	1784.05
602.04	1783.71
602.39	1782.95
602.74	1783.10
603.08	1782.50
603.43	1782.62
603.78	1781.57
604.13	1781.31
604.48	1780.90
604.83	1780.79
605.18	1779.90
605.53	1779.10
605.87	1777.95
606.22	1776.24
606.57	1775.31
606.92	1773.05
607.27	1771.57
607.62	1770.21
607.96	1770.26
608.31	1769.43
608.66	1767.74
609.01	1766.36
609.36	1765.57
609.70	1763.71
610.05	1760.79
610.40	1760.17
610.75	1757.38
611.10	1757.17
611.44	1754.71
611.79	1752.12
612.14	1749.69
612.49	1747.05
612.83	1744.33
613.18	1741.24
613.53	1738.83
613.88	1735.05
614.22	1732.21
614.57	1728.71
614.92	1724.79
615.27	1721.33
615.61	1717.29
615.96	1714.29
616.31	1711.24
616.65	1708.64
617.00	1705.43
617.35	1702.40
617.70	1698.36
618.04	1694.29
618.39	1688.76
618.74	1684.76
619.08	1680.86
619.43	1677.02
619.78	1673.24
620.12	1669.19
620.47	1666.00
620.82	1662.10
621.16	1657.79
621.51	1654.43
621.85	1650.69
622.20	1646.69
622.55	1641.86
622.89	1638.05
623.24	1634.07
623.59	1629.48
623.93	1624.79
624.28	1620.90
624.62	1618.43
624.97	1614.86
625.32	1610.43
625.66	1606.33
626.01	1602.26
626.35	1599.12
626.70	1594.67
627.04	1591.05
627.39	1587.74
627.73	1584.67
628.08	1580.55
628.43	1577.33
628.77	1572.71
629.12	1569.31
629.46	1565.83
629.81	1561.62
630.15	1557.00
630.50	1552.52
630.84	1547.43
631.19	1541.76
631.53	1535.95
631.88	1528.48
632.22	1521.81
632.57	1518.21
632.91	1513.31
633.26	1507.69
633.60	1501.57
633.95	1495.86
634.29	1489.81
634.64	1484.69
634.98	1478.05
635.32	1473.93
635.67	1470.29
636.01	1465.76
636.36	1459.62
636.70	1455.14
637.05	1450.00
637.39	1444.76
637.73	1438.98
638.08	1436.19
638.42	1431.45
638.77	1427.90
639.11	1423.81
639.45	1419.48
639.80	1412.45
640.14	1407.38
640.49	1402.71
640.83	1397.45
641.17	1392.62
641.52	1387.21
641.86	1381.62
642.20	1377.52
642.55	1371.29
642.89	1364.40
643.23	1358.79
643.58	1354.12
643.92	1346.60
644.26	1340.71
644.61	1335.64
644.95	1329.88
645.29	1322.12
645.64	1316.69
645.98	1310.14
646.32	1304.71
646.66	1298.26
647.01	1293.10
647.35	1287.24
647.69	1281.07
648.04	1275.19
648.38	1269.60
648.72	1263.21
649.06	1257.62
649.41	1250.29
649.75	1243.79
650.09	1237.67
650.43	1230.88
650.78	1223.69
651.12	1217.14
651.46	1210.64
651.80	1204.02
652.14	1197.95
652.49	1192.00
652.83	1185.24
653.17	1178.26
653.51	1170.93
653.85	1164.81
654.20	1158.24
654.54	1150.98
654.88	1143.98
655.22	1138.12
655.56	1131.45
655.90	1124.86
656.25	1117.86
656.59	1111.43
656.93	1105.05
657.27	1098.95
657.61	1093.00
657.95	1086.71
658.29	1080.71
658.64	1074.86
658.98	1068.14
659.32	1060.90
659.66	1055.07
660.00	1048.60
660.34	1042.17
660.68	1036.17
661.02	1029.76
661.36	1023.64
661.70	1018.10
662.05	1012.60
662.39	1006.00
662.73	999.90
663.07	995.19
663.41	988.64
663.75	982.52
664.09	977.02
664.43	970.79
664.77	964.48
665.11	958.29
665.45	953.05
665.79	946.86
666.13	940.38
666.47	934.83
666.81	929.02
667.15	922.76
667.49	918.45
667.83	913.69
668.17	907.98
668.51	902.21
668.85	896.29
669.19	891.21
669.53	884.60
669.87	878.26
670.21	871.57
670.55	865.62
670.89	860.69
671.23	854.67
671.57	849.19
671.91	843.57
672.25	838.38
672.58	833.10
672.92	827.69
673.26	822.95
673.60	817.74
673.94	812.05
674.28	807.40
674.62	801.38
674.96	795.62
675.30	790.50
675.64	785.52
675.97	780.90
676.31	775.02
676.65	770.74
676.99	766.81
677.33	761.67
677.67	757.31
678.01	752.05
678.34	747.31
678.68	743.19
679.02	738.24
679.36	733.36
679.70	727.79
680.04	722.74
680.37	718.05
680.71	713.24
681.05	708.64
681.39	703.93
681.73	698.50
682.06	693.50
682.40	688.83
682.74	684.67
683.08	680.50
683.42	675.83
683.75	671.24
684.09	665.67
684.43	661.33
684.77	656.79
685.10	652.83
685.44	648.36
685.78	642.88
686.12	638.55
686.45	633.62
686.79	629.55
687.13	625.98
687.46	621.81
687.80	618.57
688.14	614.14
688.48	610.10
688.81	606.64
689.15	603.45
689.49	599.24
689.82	594.90
690.16	589.76
690.50	585.88
690.83	581.76
691.17	577.40
691.51	573.31
691.84	569.33
692.18	564.43
692.52	560.57
692.85	557.21
693.19	554.26
693.52	551.02
693.86	546.60
694.20	542.36
694.53	538.60
694.87	534.26
695.21	530.21
695.54	526.24
695.88	522.40
696.21	517.38
696.55	513.43
696.88	509.67
697.22	506.45
697.56	503.38
697.89	499.64
698.23	496.93
698.56	493.17
698.90	489.79
699.23	486.52
699.57	483.33
699.90	479.55
700.24	475.67
700.58	472.07
700.91	469.69
701.25	468.02
701.58	465.76
701.92	462.98
702.25	460.05
702.59	457.21
702.92	454.17
703.26	451.76
703.59	449.21
703.93	447.90
704.26	445.17
704.60	441.98
704.93	439.00
705.26	435.88
705.60	433.93
705.93	430.60
706.27	428.48
706.60	426.43
706.94	424.88
707.27	421.88
707.61	419.62
707.94	416.76
708.27	412.48
708.61	408.74
708.94	406.21
709.28	404.17
709.61	401.55
709.94	399.48
710.28	396.83
710.61	394.52
710.95	390.43
711.28	389.60
711.61	387.45
711.95	385.90
712.28	383.43
712.61	380.81
712.95	380.38
713.28	379.26
713.61	376.40
713.95	373.52
714.28	371.79
714.61	369.67
714.95	367.55
715.28	365.76
715.61	364.10
715.95	362.31
716.28	360.05
716.61	358.55
716.95	356.43
717.28	354.86
717.61	353.38
717.94	351.86
718.28	348.52
718.61	346.86
718.94	345.00
719.27	343.57
719.61	341.90
719.94	339.29
720.27	336.26
720.60	334.60
720.94	333.12
721.27	331.50
721.60	330.29
721.93	328.69
722.27	327.71
722.60	326.29
722.93	324.50
723.26	323.21
723.59	321.40
723.93	320.12
724.26	318.83
724.59	317.40
724.92	316.26
725.25	315.60
725.59	314.29
725.92	313.14
726.25	312.26
726.58	311.38
726.91	310.43
727.24	309.69
727.57	308.98
727.91	307.36
728.24	306.60
728.57	305.29
728.90	304.81
729.23	303.00
729.56	303.07
729.89	302.07
730.22	301.00
730.55	299.88
730.89	298.86
731.22	297.52
731.55	296.24
731.88	295.52
732.21	294.21
732.54	293.17
732.87	292.07
733.20	291.12
733.53	290.19
733.86	289.29
734.19	288.10
734.52	287.07
734.85	287.71
735.18	286.64
735.51	286.45
735.84	285.67
736.17	285.69
736.50	283.64
736.83	285.17
737.16	284.67
737.49	284.12
737.82	283.17
738.15	282.81
738.48	281.90
738.81	280.86
739.14	280.14
739.47	279.26
739.80	278.69
740.13	277.79
740.46	276.71
740.79	275.76
741.12	275.19
741.45	274.14
741.78	272.52
742.11	272.26
742.44	271.21
742.77	270.74
743.10	269.60
743.43	269.02
743.75	266.12
744.08	267.62
744.41	266.64
744.74	266.05
745.07	264.90
745.40	264.67
745.73	264.64
746.06	264.19
746.39	263.71
746.71	262.79
747.04	262.02
747.37	261.33
747.70	260.95
748.03	260.38
748.36	260.29
748.68	259.52
749.01	258.33
749.34	257.81
749.67	257.31
750.00	257.05
750.33	258.00
750.65	257.69
750.98	254.88
751.31	254.86
751.64	254.33
751.97	255.29
752.29	254.71
752.62	253.52
752.95	252.64
753.28	252.05
753.60	251.43
753.93	251.64
754.26	251.26
754.59	250.60
754.91	249.93
755.24	249.29
755.57	248.93
755.90	248.26
756.22	247.71
756.55	246.67
756.88	245.79
757.20	244.05
757.53	243.14
757.86	242.79
758.19	242.14
758.51	241.64
758.84	240.07
759.17	239.64
759.49	239.45
759.82	240.14
760.15	239.79
760.47	239.62
760.80	238.60
761.13	238.90
761.45	238.14
761.78	238.14
762.11	237.83
762.43	237.36
762.76	237.05
763.08	237.00
763.41	237.36
763.74	237.14
764.06	236.76
764.39	236.76
764.71	236.38
765.04	236.07
765.37	235.62
765.69	235.19
766.02	234.88
766.34	234.19
766.67	233.31
767.00	233.62
767.32	234.29
767.65	235.26
767.97	234.31
768.30	234.24
768.62	233.79
768.95	233.31
769.27	233.02
769.60	233.26
769.92	232.62
770.25	231.64
770.57	231.24
770.90	230.93
771.22	230.24
771.55	229.95
771.87	229.83
772.20	229.81
772.52	231.33
772.85	233.50
773.17	233.57
773.50	233.10
773.82	232.48
774.15	231.36
774.47	230.07
774.80	230.17
775.12	230.10
775.45	230.05
775.77	230.10
776.09	230.07
776.42	229.69
776.74	230.14
777.07	229.83
777.39	229.93
777.72	229.81
778.04	230.05
778.36	229.52
778.69	229.43
779.01	229.48
779.33	227.48
779.66	225.33
779.98	225.07
780.31	225.12
780.63	225.79
780.95	226.02
781.28	225.86
781.60	225.43
781.92	225.33
782.25	224.62
782.57	224.12
782.89	223.81
783.22	223.60
783.54	223.10
783.86	223.19
784.19	222.79
784.51	223.19
784.83	222.69
785.16	222.95
