SpectraSuite Data File
++++++++++++++++++++++++++++++++++++
Date: Tue Apr 02 18:43:29 EDT 2013
User: group
Dark Spectrum Present: No
Reference Spectrum Present: No
Number of Sampled Component Spectra: 1
Spectrometers: USB2E7196
Integration Time (usec): 580000 (USB2E7196)
Spectra Averaged: 2 (USB2E7196)
Boxcar Smoothing: 10 (USB2E7196)
Correct for Electrical Dark: No (USB2E7196)
Strobe/Lamp Enabled: No (USB2E7196)
Correct for Detector Non-linearity: No (USB2E7196)
Correct for Stray Light: No (USB2E7196)
Number of Pixels in Processed Spectrum: 2048
>>>>>Begin Processed Spectral Data<<<<<
339.09	0.00
339.48	192.50
339.86	193.00
340.24	195.50
340.63	198.00
341.01	234.00
341.39	200.00
341.78	202.00
342.16	209.50
342.54	205.50
342.93	197.40
343.31	207.14
343.69	207.74
344.07	208.43
344.46	209.19
344.84	209.69
345.22	208.43
345.60	209.07
345.99	209.55
346.37	209.71
346.75	209.93
347.13	210.21
347.52	210.62
347.90	211.33
348.28	211.48
348.66	212.07
349.05	211.43
349.43	211.71
349.81	211.67
350.19	211.55
350.57	211.86
350.96	212.24
351.34	212.60
351.72	212.71
352.10	212.62
352.48	212.38
352.87	212.36
353.25	212.24
353.63	211.98
354.01	211.93
354.39	211.95
354.77	212.00
355.15	212.43
355.54	212.14
355.92	211.40
356.30	211.24
356.68	212.60
357.06	212.81
357.44	212.31
357.82	212.67
358.20	213.67
358.58	213.52
358.97	213.69
359.35	214.17
359.73	214.69
360.11	214.86
360.49	215.21
360.87	215.43
361.25	215.79
361.63	216.52
362.01	216.64
362.39	216.55
362.77	216.71
363.15	216.57
363.53	216.67
363.91	217.12
364.29	217.17
364.67	215.19
365.05	215.36
365.43	215.64
365.81	215.50
366.19	215.45
366.57	216.12
366.95	215.86
367.33	215.38
367.71	215.29
368.09	216.02
368.47	215.88
368.85	215.86
369.23	216.40
369.61	215.74
369.99	216.14
370.37	216.45
370.75	217.50
371.13	216.88
371.51	216.57
371.89	216.67
372.27	216.79
372.65	217.05
373.03	216.95
373.41	216.71
373.78	216.81
374.16	215.90
374.54	215.38
374.92	215.17
375.30	214.93
375.68	214.57
376.06	214.33
376.44	214.36
376.82	214.31
377.19	214.12
377.57	213.93
377.95	213.33
378.33	213.17
378.71	211.76
379.09	212.40
379.47	212.83
379.84	212.60
380.22	212.45
380.60	212.10
380.98	212.05
381.36	212.38
381.73	211.88
382.11	212.38
382.49	212.33
382.87	212.07
383.25	212.48
383.62	214.98
384.00	214.71
384.38	214.79
384.76	215.21
385.13	216.02
385.51	216.19
385.89	216.02
386.27	216.00
386.64	216.26
387.02	215.88
387.40	215.55
387.78	215.64
388.15	215.88
388.53	215.69
388.91	215.64
389.29	215.38
389.66	215.74
390.04	215.55
390.42	216.00
390.79	216.29
391.17	216.07
391.55	213.62
391.92	213.60
392.30	213.79
392.68	213.36
393.05	213.43
393.43	213.55
393.81	214.02
394.18	213.76
394.56	214.00
394.94	214.48
395.31	214.57
395.69	215.36
396.06	215.45
396.44	215.86
396.82	215.76
397.19	216.81
397.57	216.57
397.95	216.86
398.32	216.38
398.70	216.64
399.07	216.98
399.45	217.02
399.82	216.88
400.20	216.64
400.58	216.67
400.95	215.50
401.33	215.98
401.70	217.55
402.08	217.74
402.45	217.64
402.83	218.33
403.20	218.50
403.58	218.24
403.95	218.81
404.33	219.38
404.71	219.90
405.08	221.31
405.46	221.57
405.83	221.90
406.21	222.24
406.58	222.74
406.96	223.02
407.33	223.67
407.70	224.52
408.08	226.69
408.45	227.45
408.83	228.48
409.20	228.88
409.58	228.36
409.95	229.60
410.33	230.64
410.70	230.74
411.08	231.71
411.45	232.79
411.82	233.60
412.20	234.88
412.57	237.29
412.95	236.60
413.32	238.36
413.69	239.81
414.07	241.43
414.44	243.02
414.82	245.26
415.19	247.64
415.56	249.79
415.94	251.07
416.31	254.24
416.68	256.88
417.06	260.14
417.43	263.24
417.81	266.71
418.18	270.38
418.55	274.14
418.93	278.26
419.30	282.29
419.67	286.69
420.04	290.93
420.42	294.62
420.79	301.86
421.16	307.40
421.54	314.45
421.91	320.62
422.28	326.79
422.66	333.31
423.03	341.07
423.40	348.12
423.77	355.45
424.15	362.57
424.52	370.33
424.89	378.64
425.26	386.45
425.64	394.24
426.01	402.67
426.38	411.38
426.75	420.81
427.13	430.00
427.50	439.67
427.87	449.71
428.24	460.17
428.61	468.57
428.99	479.95
429.36	490.43
429.73	501.93
430.10	513.21
430.47	524.90
430.85	535.67
431.22	548.19
431.59	562.88
431.96	575.57
432.33	590.33
432.70	603.88
433.08	619.50
433.45	634.14
433.82	649.24
434.19	666.00
434.56	683.29
434.93	699.12
435.30	714.74
435.68	732.21
436.05	748.50
436.42	765.07
436.79	780.19
437.16	797.50
437.53	815.45
437.90	833.12
438.27	850.90
438.64	868.64
439.01	885.50
439.38	899.26
439.75	913.74
440.13	929.40
440.50	945.05
440.87	957.74
441.24	971.64
441.61	986.02
441.98	997.50
442.35	1008.98
442.72	1021.98
443.09	1035.33
443.46	1042.40
443.83	1048.74
444.20	1053.74
444.57	1059.81
444.94	1062.60
445.31	1065.74
445.68	1071.69
446.05	1073.45
446.42	1072.21
446.79	1071.17
447.16	1068.95
447.53	1068.55
447.90	1062.81
448.27	1056.67
448.64	1048.36
449.01	1041.57
449.37	1030.83
449.74	1019.64
450.11	1008.81
450.48	993.88
450.85	978.24
451.22	966.81
451.59	954.67
451.96	943.52
452.33	929.07
452.70	915.05
453.07	898.33
453.43	879.26
453.80	862.40
454.17	846.86
454.54	831.19
454.91	815.55
455.28	798.83
455.65	784.14
456.02	772.74
456.38	760.43
456.75	745.02
457.12	731.79
457.49	718.95
457.86	704.67
458.23	695.07
458.59	683.69
458.96	670.90
459.33	660.36
459.70	649.52
460.07	641.00
460.43	631.60
460.80	622.93
461.17	615.36
461.54	607.14
461.91	599.60
462.27	591.74
462.64	583.95
463.01	576.64
463.38	569.76
463.74	559.17
464.11	552.52
464.48	547.45
464.85	541.00
465.21	536.43
465.58	531.38
465.95	524.62
466.32	519.24
466.68	514.33
467.05	509.21
467.42	504.45
467.78	498.52
468.15	493.29
468.52	489.60
468.88	484.00
469.25	479.43
469.62	475.76
469.98	471.83
470.35	468.45
470.72	465.26
471.08	460.67
471.45	457.88
471.82	455.48
472.18	451.29
472.55	448.79
472.92	445.33
473.28	441.90
473.65	438.74
474.02	436.17
474.38	434.21
474.75	432.31
475.11	429.45
475.48	428.14
475.85	426.17
476.21	424.24
476.58	422.69
476.94	421.38
477.31	419.64
477.67	418.38
478.04	417.50
478.41	416.33
478.77	417.79
479.14	416.60
479.50	415.64
479.87	415.64
480.23	415.48
480.60	414.90
480.96	414.76
481.33	415.55
481.69	416.00
482.06	416.31
482.42	416.81
482.79	417.45
483.15	417.79
483.52	418.98
483.88	419.31
484.25	419.83
484.61	420.48
484.98	421.38
485.34	423.17
485.71	424.69
486.07	426.12
486.44	425.26
486.80	426.45
487.17	427.76
487.53	430.17
487.90	432.43
488.26	435.62
488.62	438.79
488.99	440.83
489.35	443.17
489.72	445.62
490.08	447.57
490.44	450.64
490.81	453.95
491.17	457.17
491.54	460.71
491.90	464.50
492.26	468.43
492.63	472.29
492.99	475.55
493.36	479.95
493.72	484.52
494.08	489.29
494.45	494.38
494.81	499.52
495.17	503.83
495.54	508.71
495.90	512.81
496.26	517.45
496.63	523.48
496.99	528.55
497.35	534.38
497.72	540.83
498.08	546.60
498.44	552.38
498.80	558.71
499.17	564.31
499.53	570.52
499.89	577.40
500.26	584.40
500.62	591.00
500.98	598.19
501.34	605.45
501.71	613.26
502.07	620.26
502.43	627.38
502.79	634.60
503.16	641.43
503.52	648.69
503.88	655.93
504.24	662.69
504.60	670.24
504.97	677.74
505.33	685.21
505.69	693.79
506.05	702.07
506.41	709.52
506.78	717.50
507.14	725.69
507.50	732.93
507.86	740.07
508.22	748.19
508.59	754.98
508.95	762.07
509.31	770.29
509.67	777.93
510.03	785.52
510.39	793.33
510.75	800.90
511.12	808.71
511.48	816.36
511.84	824.12
512.20	831.93
512.56	839.57
512.92	846.55
513.28	853.62
513.64	860.98
514.00	868.69
514.37	876.36
514.73	883.62
515.09	891.12
515.45	897.93
515.81	904.67
516.17	912.07
516.53	919.14
516.89	924.36
517.25	931.31
517.61	938.14
517.97	944.10
518.33	950.88
518.69	957.57
519.05	964.69
519.41	971.12
519.77	978.88
520.13	984.36
520.49	990.33
520.85	996.24
521.21	1003.19
521.57	1008.33
521.93	1013.07
522.29	1018.90
522.65	1024.14
523.01	1030.57
523.37	1035.90
523.73	1040.81
524.09	1046.00
524.45	1050.98
524.81	1055.40
525.17	1060.24
525.53	1065.17
525.89	1070.31
526.25	1075.05
526.61	1078.52
526.97	1082.74
527.33	1086.17
527.68	1092.00
528.04	1096.88
528.40	1100.98
528.76	1103.52
529.12	1107.90
529.48	1113.17
529.84	1116.33
530.20	1120.93
530.56	1124.69
530.91	1129.50
531.27	1133.90
531.63	1138.21
531.99	1142.43
532.35	1146.38
532.71	1150.26
533.07	1154.69
533.42	1159.98
533.78	1164.02
534.14	1168.76
534.50	1172.26
534.86	1176.62
535.21	1179.43
535.57	1183.64
535.93	1187.57
536.29	1192.90
536.65	1197.12
537.00	1200.33
537.36	1204.19
537.72	1206.71
538.08	1210.19
538.44	1212.57
538.79	1215.74
539.15	1218.48
539.51	1222.69
539.87	1226.50
540.22	1230.21
540.58	1233.83
540.94	1235.90
541.29	1238.93
541.65	1241.00
542.01	1244.69
542.37	1246.83
542.72	1249.64
543.08	1252.21
543.44	1255.19
543.79	1256.40
544.15	1259.52
544.51	1263.93
544.87	1267.31
545.22	1270.88
545.58	1274.86
545.94	1277.24
546.29	1280.07
546.65	1283.21
547.01	1285.57
547.36	1288.21
547.72	1289.79
548.07	1292.00
548.43	1294.26
548.79	1296.45
549.14	1298.69
549.50	1301.60
549.86	1304.36
550.21	1306.90
550.57	1309.19
550.92	1311.74
551.28	1315.12
551.64	1317.24
551.99	1319.07
552.35	1321.86
552.70	1324.93
553.06	1327.07
553.41	1330.55
553.77	1335.45
554.13	1338.33
554.48	1342.50
554.84	1346.88
555.19	1351.14
555.55	1356.36
555.90	1359.40
556.26	1363.52
556.61	1368.43
556.97	1371.69
557.32	1375.00
557.68	1378.95
558.03	1383.14
558.39	1386.95
558.74	1391.12
559.10	1395.88
559.45	1400.19
559.81	1404.50
560.16	1408.64
560.52	1411.90
560.87	1416.40
561.23	1419.17
561.58	1425.00
561.94	1427.57
562.29	1430.45
562.64	1434.67
563.00	1438.43
563.35	1443.69
563.71	1448.95
564.06	1452.95
564.42	1458.52
564.77	1464.81
565.12	1471.02
565.48	1478.17
565.83	1484.36
566.19	1489.88
566.54	1494.62
566.89	1499.64
567.25	1505.36
567.60	1512.50
567.96	1520.62
568.31	1527.36
568.66	1534.10
569.02	1538.50
569.37	1544.74
569.72	1551.24
570.08	1557.74
570.43	1562.33
570.78	1568.38
571.14	1573.74
571.49	1579.95
571.84	1584.79
572.20	1589.48
572.55	1593.83
572.90	1596.93
573.26	1601.21
573.61	1605.33
573.96	1610.36
574.31	1615.02
574.67	1619.24
575.02	1622.26
575.37	1624.50
575.72	1628.02
576.08	1631.69
576.43	1635.29
576.78	1639.00
577.13	1642.74
577.49	1646.05
577.84	1650.57
578.19	1654.10
578.54	1657.95
578.90	1662.52
579.25	1666.14
579.60	1670.00
579.95	1674.14
580.30	1677.83
580.66	1681.43
581.01	1684.24
581.36	1686.50
581.71	1689.45
582.06	1693.76
582.42	1697.95
582.77	1701.48
583.12	1704.50
583.47	1707.55
583.82	1711.02
584.17	1713.62
584.53	1717.31
584.88	1720.62
585.23	1723.88
585.58	1725.26
585.93	1727.31
586.28	1729.50
586.63	1732.60
586.98	1734.86
587.34	1737.62
587.69	1740.29
588.04	1743.21
588.39	1746.36
588.74	1749.07
589.09	1751.67
589.44	1752.07
589.79	1753.40
590.14	1755.69
590.49	1757.74
590.84	1759.21
591.19	1760.55
591.54	1763.05
591.89	1763.83
592.25	1766.81
592.60	1768.10
592.95	1770.36
593.30	1772.26
593.65	1773.52
594.00	1773.19
594.35	1779.98
594.70	1779.95
595.05	1780.93
595.40	1780.83
595.75	1781.07
596.10	1782.21
596.45	1782.98
596.80	1784.67
597.15	1784.29
597.50	1784.00
597.85	1785.07
598.19	1785.00
598.54	1786.19
598.89	1786.40
599.24	1786.98
599.59	1785.86
599.94	1785.57
600.29	1785.79
600.64	1785.29
600.99	1784.64
601.34	1786.31
601.69	1781.33
602.04	1780.48
602.39	1779.69
602.74	1779.88
603.08	1780.07
603.43	1780.21
603.78	1780.29
604.13	1779.17
604.48	1778.64
604.83	1779.00
605.18	1778.19
605.53	1777.52
605.87	1776.26
606.22	1775.14
606.57	1774.40
606.92	1772.64
607.27	1771.48
607.62	1771.14
607.96	1769.88
608.31	1769.36
608.66	1767.43
609.01	1764.33
609.36	1764.62
609.70	1762.88
610.05	1760.19
610.40	1758.38
610.75	1755.74
611.10	1754.05
611.44	1751.64
611.79	1749.74
612.14	1746.45
612.49	1742.02
612.83	1739.62
613.18	1736.43
613.53	1733.71
613.88	1730.17
614.22	1727.19
614.57	1723.31
614.92	1718.86
615.27	1715.79
615.61	1711.07
615.96	1707.67
616.31	1704.88
616.65	1701.14
617.00	1698.90
617.35	1696.21
617.70	1692.74
618.04	1688.88
618.39	1684.48
618.74	1681.00
619.08	1676.45
619.43	1673.45
619.78	1671.95
620.12	1668.26
620.47	1664.88
620.82	1660.38
621.16	1655.79
621.51	1653.02
621.85	1648.67
622.20	1645.07
622.55	1639.95
622.89	1636.52
623.24	1633.26
623.59	1628.93
623.93	1624.71
624.28	1619.83
624.62	1617.64
624.97	1614.05
625.32	1610.88
625.66	1606.90
626.01	1602.88
626.35	1600.52
626.70	1596.26
627.04	1592.00
627.39	1587.29
627.73	1584.17
628.08	1581.55
628.43	1577.79
628.77	1573.40
629.12	1571.14
629.46	1566.55
629.81	1563.67
630.15	1558.69
630.50	1553.45
630.84	1548.71
631.19	1542.93
631.53	1538.19
631.88	1530.67
632.22	1524.90
632.57	1520.02
632.91	1514.12
633.26	1509.79
633.60	1504.19
633.95	1498.69
634.29	1493.05
634.64	1489.12
634.98	1483.45
635.32	1478.74
635.67	1474.74
636.01	1469.55
636.36	1464.24
636.70	1459.98
637.05	1454.88
637.39	1450.45
637.73	1446.45
638.08	1442.83
638.42	1438.12
638.77	1434.10
639.11	1429.86
639.45	1424.86
639.80	1418.81
640.14	1414.07
640.49	1408.60
640.83	1402.26
641.17	1397.19
641.52	1392.19
641.86	1386.55
642.20	1381.93
642.55	1374.86
642.89	1369.19
643.23	1362.62
643.58	1357.43
643.92	1351.40
644.26	1345.83
644.61	1340.60
644.95	1334.12
645.29	1327.48
645.64	1323.12
645.98	1316.24
646.32	1310.95
646.66	1304.62
647.01	1299.29
647.35	1293.40
647.69	1287.55
648.04	1282.40
648.38	1276.50
648.72	1270.14
649.06	1263.40
649.41	1256.79
649.75	1251.02
650.09	1244.71
650.43	1238.31
650.78	1230.10
651.12	1224.02
651.46	1217.45
651.80	1211.43
652.14	1204.62
652.49	1198.67
652.83	1191.24
653.17	1185.02
653.51	1177.07
653.85	1170.55
654.20	1164.10
654.54	1157.05
654.88	1150.02
655.22	1143.98
655.56	1137.40
655.90	1130.98
656.25	1124.90
656.59	1117.76
656.93	1111.55
657.27	1105.76
657.61	1099.36
657.95	1094.17
658.29	1087.33
658.64	1081.38
658.98	1074.14
659.32	1067.36
659.66	1060.43
660.00	1054.38
660.34	1047.76
660.68	1042.17
661.02	1036.17
661.36	1029.52
661.70	1024.19
662.05	1018.64
662.39	1013.21
662.73	1007.76
663.07	1002.43
663.41	996.45
663.75	990.83
664.09	985.02
664.43	978.14
664.77	972.62
665.11	965.76
665.45	959.86
665.79	953.86
666.13	948.26
666.47	942.33
666.81	936.50
667.15	930.12
667.49	925.14
667.83	920.12
668.17	914.83
668.51	909.36
668.85	903.88
669.19	897.90
669.53	890.76
669.87	884.64
670.21	878.29
670.55	872.19
670.89	867.50
671.23	862.24
671.57	856.79
671.91	851.17
672.25	846.52
672.58	842.33
672.92	836.38
673.26	831.21
673.60	826.48
673.94	821.45
674.28	817.00
674.62	811.50
674.96	806.29
675.30	801.24
675.64	796.55
675.97	791.12
676.31	785.74
676.65	781.26
676.99	777.50
677.33	772.24
677.67	767.88
678.01	761.81
678.34	756.43
678.68	752.07
679.02	747.40
679.36	742.24
679.70	736.33
680.04	731.60
680.37	726.21
680.71	721.36
681.05	717.21
681.39	712.02
681.73	707.14
682.06	702.38
682.40	697.60
682.74	693.02
683.08	689.17
683.42	684.86
683.75	680.10
684.09	674.57
684.43	670.45
684.77	665.50
685.10	661.40
685.44	657.05
685.78	652.45
686.12	647.95
686.45	643.40
686.79	638.98
687.13	635.02
687.46	630.86
687.80	627.29
688.14	623.12
688.48	619.14
688.81	615.17
689.15	611.31
689.49	607.31
689.82	602.86
690.16	597.69
690.50	593.71
690.83	589.86
691.17	585.36
691.51	580.98
691.84	577.45
692.18	573.21
692.52	569.57
692.85	565.62
693.19	562.67
693.52	558.81
693.86	554.93
694.20	550.69
694.53	547.02
694.87	542.76
695.21	538.07
695.54	534.38
695.88	530.10
696.21	525.55
696.55	521.69
696.88	518.10
697.22	514.79
697.56	511.52
697.89	507.64
698.23	504.69
698.56	501.36
698.90	498.21
699.23	494.50
699.57	491.10
699.90	487.98
700.24	483.98
700.58	480.55
700.91	477.76
701.25	476.48
701.58	473.98
701.92	471.48
702.25	468.62
702.59	465.10
702.92	462.31
703.26	459.76
703.59	457.07
703.93	455.67
704.26	452.79
704.60	449.86
704.93	446.69
705.26	443.67
705.60	440.81
705.93	437.31
706.27	435.33
706.60	432.88
706.94	430.71
707.27	428.02
707.61	425.74
707.94	422.88
708.27	418.57
708.61	415.33
708.94	412.55
709.28	409.69
709.61	407.24
709.94	404.62
710.28	402.24
710.61	399.79
710.95	395.60
711.28	394.98
711.61	392.43
711.95	390.93
712.28	388.50
712.61	386.62
712.95	385.74
713.28	384.43
713.61	381.93
713.95	379.24
714.28	377.29
714.61	375.33
714.95	373.24
715.28	371.19
715.61	369.26
715.95	367.40
716.28	365.81
716.61	364.50
716.95	362.55
717.28	360.31
717.61	358.43
717.94	356.79
718.28	353.48
718.61	351.86
718.94	349.86
719.27	348.05
719.61	346.26
719.94	343.81
720.27	341.26
720.60	339.60
720.94	337.81
721.27	335.83
721.60	334.33
721.93	332.93
722.27	331.98
722.60	330.62
722.93	328.57
723.26	327.52
723.59	325.69
723.93	324.76
724.26	323.60
724.59	322.14
724.92	321.07
725.25	320.24
725.59	318.90
725.92	317.93
726.25	316.83
726.58	315.76
726.91	314.48
727.24	313.24
727.57	312.14
727.91	310.86
728.24	310.29
728.57	309.05
728.90	308.26
729.23	306.86
729.56	306.81
729.89	306.17
730.22	304.74
730.55	303.55
730.89	302.40
731.22	301.07
731.55	299.90
731.88	299.05
732.21	297.71
732.54	296.31
732.87	295.05
733.20	294.07
733.53	293.12
733.86	292.55
734.19	291.29
734.52	290.71
734.85	291.26
735.18	290.10
735.51	289.74
735.84	288.71
736.17	288.21
736.50	286.36
736.83	287.64
737.16	286.67
737.49	286.24
737.82	285.26
738.15	285.02
738.48	284.43
738.81	283.26
739.14	282.36
739.47	281.79
739.80	281.00
740.13	280.52
740.46	279.38
740.79	278.05
741.12	277.57
741.45	276.57
741.78	274.52
742.11	274.17
742.44	273.43
742.77	273.00
743.10	272.10
743.43	271.14
743.75	268.40
744.08	270.24
744.41	269.17
744.74	268.62
745.07	267.50
745.40	267.12
745.73	267.29
746.06	266.55
746.39	266.00
746.71	265.21
747.04	264.43
747.37	263.88
747.70	263.86
748.03	263.38
748.36	263.10
748.68	262.79
749.01	261.74
749.34	260.76
749.67	260.33
750.00	260.17
750.33	261.36
750.65	261.07
750.98	258.17
751.31	257.83
751.64	257.50
751.97	258.24
752.29	257.69
752.62	256.33
752.95	255.95
753.28	255.21
753.60	254.64
753.93	254.67
754.26	254.52
754.59	253.24
754.91	252.57
755.24	252.00
755.57	251.31
755.90	250.69
756.22	250.45
756.55	249.50
756.88	248.29
757.20	246.33
757.53	245.36
757.86	245.05
758.19	244.52
758.51	244.07
758.84	242.43
759.17	241.86
759.49	241.60
759.82	242.14
760.15	242.05
760.47	241.88
760.80	240.98
761.13	240.64
761.45	240.40
761.78	239.81
762.11	239.29
762.43	238.81
762.76	238.69
763.08	238.33
763.41	238.33
763.74	238.26
764.06	238.21
764.39	237.81
764.71	237.26
765.04	236.95
765.37	236.26
765.69	236.02
766.02	235.48
766.34	235.26
766.67	234.33
767.00	234.40
767.32	235.26
767.65	236.21
767.97	235.88
768.30	235.71
768.62	235.79
768.95	235.26
769.27	234.95
769.60	234.79
769.92	234.19
770.25	233.71
770.57	233.19
770.90	232.76
771.22	232.36
771.55	232.29
771.87	232.21
772.20	232.17
772.52	233.93
772.85	236.38
773.17	236.14
773.50	235.64
773.82	235.14
774.15	233.88
774.47	232.50
774.80	232.02
775.12	231.83
775.45	231.45
775.77	231.57
776.09	231.43
776.42	231.40
776.74	231.98
777.07	231.69
777.39	231.69
777.72	231.36
778.04	231.62
778.36	231.50
778.69	231.24
779.01	231.19
779.33	229.10
779.66	226.52
779.98	226.19
780.31	226.31
780.63	227.02
780.95	227.43
781.28	227.17
781.60	227.02
781.92	226.98
782.25	226.95
782.57	226.52
782.89	226.50
783.22	226.17
783.54	225.52
783.86	225.64
784.19	225.26
784.51	225.81
784.83	225.36
785.16	225.07
