SpectraSuite Data File
++++++++++++++++++++++++++++++++++++
Date: Tue Apr 02 18:39:42 EDT 2013
User: group
Dark Spectrum Present: No
Reference Spectrum Present: No
Number of Sampled Component Spectra: 1
Spectrometers: USB2E7196
Integration Time (usec): 580000 (USB2E7196)
Spectra Averaged: 2 (USB2E7196)
Boxcar Smoothing: 10 (USB2E7196)
Correct for Electrical Dark: No (USB2E7196)
Strobe/Lamp Enabled: No (USB2E7196)
Correct for Detector Non-linearity: No (USB2E7196)
Correct for Stray Light: No (USB2E7196)
Number of Pixels in Processed Spectrum: 2048
>>>>>Begin Processed Spectral Data<<<<<
339.09	0.00
339.48	194.00
339.86	198.50
340.24	194.00
340.63	199.50
341.01	228.50
341.39	201.50
341.78	208.50
342.16	213.50
342.54	207.50
342.93	198.00
343.31	207.86
343.69	208.45
344.07	208.83
344.46	209.71
344.84	210.36
345.22	209.33
345.60	209.76
345.99	209.93
346.37	209.52
346.75	209.43
347.13	209.57
347.52	209.40
347.90	209.86
348.28	209.93
348.66	210.38
349.05	209.76
349.43	210.07
349.81	210.33
350.19	210.55
350.57	210.60
350.96	210.86
351.34	211.05
351.72	211.07
352.10	211.29
352.48	211.14
352.87	210.81
353.25	210.86
353.63	210.64
354.01	210.45
354.39	211.00
354.77	211.31
355.15	211.81
355.54	211.64
355.92	211.10
356.30	211.26
356.68	212.48
357.06	212.64
357.44	212.19
357.82	212.33
358.20	213.31
358.58	213.43
358.97	213.29
359.35	213.81
359.73	214.26
360.11	214.24
360.49	214.17
360.87	214.50
361.25	214.69
361.63	215.48
362.01	215.86
362.39	215.50
362.77	215.52
363.15	215.36
363.53	215.64
363.91	215.90
364.29	215.88
364.67	214.10
365.05	214.31
365.43	214.64
365.81	214.67
366.19	214.83
366.57	215.67
366.95	215.76
367.33	215.33
367.71	215.12
368.09	215.67
368.47	216.10
368.85	216.02
369.23	216.67
369.61	215.90
369.99	216.43
370.37	216.69
370.75	217.76
371.13	217.19
371.51	216.98
371.89	217.14
372.27	217.48
372.65	217.71
373.03	217.71
373.41	217.81
373.78	217.98
374.16	217.00
374.54	216.40
374.92	216.45
375.30	216.43
375.68	216.26
376.06	216.19
376.44	216.00
376.82	216.10
377.19	215.88
377.57	215.95
377.95	215.26
378.33	215.31
378.71	214.07
379.09	214.60
379.47	214.95
379.84	214.86
380.22	214.48
380.60	213.95
380.98	213.98
381.36	213.86
381.73	213.38
382.11	213.71
382.49	213.71
382.87	213.26
383.25	213.05
383.62	215.50
384.00	215.00
384.38	214.93
384.76	215.24
385.13	215.93
385.51	216.07
385.89	215.86
386.27	215.90
386.64	216.10
387.02	216.05
387.40	215.71
387.78	215.62
388.15	215.57
388.53	215.57
388.91	215.55
389.29	215.38
389.66	215.83
390.04	215.62
390.42	215.71
390.79	216.19
391.17	216.45
391.55	214.12
391.92	214.07
392.30	214.26
392.68	213.90
393.05	213.88
393.43	214.00
393.81	214.17
394.18	213.57
394.56	213.76
394.94	214.05
395.31	214.05
395.69	214.83
396.06	215.40
396.44	215.62
396.82	215.60
397.19	216.38
397.57	215.98
397.95	216.31
398.32	216.02
398.70	216.29
399.07	216.52
399.45	216.57
399.82	216.71
400.20	216.67
400.58	216.67
400.95	215.55
401.33	215.95
401.70	217.52
402.08	217.83
402.45	217.76
402.83	218.26
403.20	218.57
403.58	218.36
403.95	218.64
404.33	219.19
404.71	219.50
405.08	220.95
405.46	221.57
405.83	221.81
406.21	222.19
406.58	222.55
406.96	223.02
407.33	223.86
407.70	224.76
408.08	226.76
408.45	227.69
408.83	229.26
409.20	229.45
409.58	229.17
409.95	230.38
410.33	231.55
410.70	232.07
411.08	233.38
411.45	234.69
411.82	235.43
412.20	237.24
412.57	239.64
412.95	239.33
413.32	241.10
413.69	242.67
414.07	244.50
414.44	246.38
414.82	248.52
415.19	250.98
415.56	253.10
415.94	254.60
416.31	257.52
416.68	260.36
417.06	264.19
417.43	267.86
417.81	271.64
418.18	275.62
418.55	279.36
418.93	283.64
419.30	287.95
419.67	293.31
420.04	297.79
420.42	302.50
420.79	310.45
421.16	316.38
421.54	323.40
421.91	330.14
422.28	337.02
422.66	344.24
423.03	352.71
423.40	360.24
423.77	368.29
424.15	376.60
424.52	384.76
424.89	394.67
425.26	403.14
425.64	411.45
426.01	420.50
426.38	430.57
426.75	441.12
427.13	451.57
427.50	461.55
427.87	472.93
428.24	483.88
428.61	492.83
428.99	505.74
429.36	517.33
429.73	529.79
430.10	541.90
430.47	554.64
430.85	566.19
431.22	580.07
431.59	595.98
431.96	609.79
432.33	625.02
432.70	639.29
433.08	656.64
433.45	674.07
433.82	690.52
434.19	708.83
434.56	727.33
434.93	744.07
435.30	761.64
435.68	780.24
436.05	799.07
436.42	817.48
436.79	834.40
437.16	853.36
437.53	872.12
437.90	891.86
438.27	910.98
438.64	931.43
439.01	949.98
439.38	965.48
439.75	981.79
440.13	1000.74
440.50	1017.57
440.87	1031.48
441.24	1045.45
441.61	1062.26
441.98	1074.36
442.35	1087.00
442.72	1101.26
443.09	1115.69
443.46	1124.81
443.83	1130.50
444.20	1136.38
444.57	1142.48
444.94	1146.10
445.31	1150.86
445.68	1156.52
446.05	1158.52
446.42	1157.02
446.79	1156.88
447.16	1154.57
447.53	1153.10
447.90	1145.74
448.27	1138.98
448.64	1129.81
449.01	1123.05
449.37	1110.29
449.74	1098.60
450.11	1085.88
450.48	1070.26
450.85	1052.81
451.22	1038.55
451.59	1025.50
451.96	1012.79
452.33	995.98
452.70	981.05
453.07	961.67
453.43	940.50
453.80	921.86
454.17	903.90
454.54	885.57
454.91	867.60
455.28	849.57
455.65	833.31
456.02	820.81
456.38	807.36
456.75	790.29
457.12	775.57
457.49	761.19
457.86	746.07
458.23	734.83
458.59	722.12
458.96	708.98
459.33	696.83
459.70	684.90
460.07	675.93
460.43	664.93
460.80	655.90
461.17	647.95
461.54	639.24
461.91	630.74
462.27	622.17
462.64	614.33
463.01	606.52
463.38	599.57
463.74	588.02
464.11	580.55
464.48	574.29
464.85	567.64
465.21	562.71
465.58	557.19
465.95	550.12
466.32	545.26
466.68	539.38
467.05	534.05
467.42	528.17
467.78	522.31
468.15	516.93
468.52	512.76
468.88	507.07
469.25	502.14
469.62	498.21
469.98	493.79
470.35	490.12
470.72	486.07
471.08	480.88
471.45	477.76
471.82	474.36
472.18	470.50
472.55	468.02
472.92	464.00
473.28	460.57
473.65	457.45
474.02	454.05
474.38	452.14
474.75	450.14
475.11	448.05
475.48	446.31
475.85	444.52
476.21	442.60
476.58	441.29
476.94	439.98
477.31	438.71
477.67	437.67
478.04	436.52
478.41	435.76
478.77	437.07
479.14	435.48
479.50	434.95
479.87	434.50
480.23	433.83
480.60	433.45
480.96	433.33
481.33	434.24
481.69	434.57
482.06	434.60
482.42	435.14
482.79	435.86
483.15	435.98
483.52	436.95
483.88	437.12
484.25	437.79
484.61	438.67
484.98	439.12
485.34	440.76
485.71	442.62
486.07	444.17
486.44	443.86
486.80	445.74
487.17	447.50
487.53	450.17
487.90	452.71
488.26	456.05
488.62	459.71
488.99	461.50
489.35	464.02
489.72	466.98
490.08	469.83
490.44	472.67
490.81	476.24
491.17	479.79
491.54	483.90
491.90	487.88
492.26	491.79
492.63	496.05
492.99	499.90
493.36	504.14
493.72	509.05
494.08	513.95
494.45	519.62
494.81	525.24
495.17	530.62
495.54	536.24
495.90	541.57
496.26	546.36
496.63	552.67
496.99	559.07
497.35	565.40
497.72	571.83
498.08	578.17
498.44	585.29
498.80	592.33
499.17	598.93
499.53	605.76
499.89	613.48
500.26	621.21
500.62	629.12
500.98	637.43
501.34	645.17
501.71	653.60
502.07	661.62
502.43	669.45
502.79	677.14
503.16	685.38
503.52	693.21
503.88	701.21
504.24	709.69
504.60	718.24
504.97	727.00
505.33	735.12
505.69	744.60
506.05	753.67
506.41	761.95
506.78	770.93
507.14	779.26
507.50	788.50
507.86	797.62
508.22	806.81
508.59	814.48
508.95	823.62
509.31	833.36
509.67	842.26
510.03	850.98
510.39	859.81
510.75	868.76
511.12	877.88
511.48	887.48
511.84	895.55
512.20	904.02
512.56	912.88
512.92	922.07
513.28	931.40
513.64	939.38
514.00	948.17
514.37	957.05
514.73	966.62
515.09	974.50
515.45	982.98
515.81	990.57
516.17	999.60
516.53	1007.17
516.89	1014.05
517.25	1022.02
517.61	1030.98
517.97	1039.02
518.33	1046.24
518.69	1054.10
519.05	1061.88
519.41	1070.31
519.77	1079.71
520.13	1086.26
520.49	1093.19
520.85	1099.79
521.21	1107.79
521.57	1115.45
521.93	1121.88
522.29	1129.00
522.65	1135.90
523.01	1142.93
523.37	1149.74
523.73	1156.79
524.09	1163.40
524.45	1169.90
524.81	1176.45
525.17	1182.48
525.53	1188.88
525.89	1195.24
526.25	1202.10
526.61	1207.40
526.97	1212.81
527.33	1218.05
527.68	1226.24
528.04	1232.64
528.40	1238.05
528.76	1243.69
529.12	1249.02
529.48	1256.14
529.84	1261.38
530.20	1267.76
530.56	1273.14
530.91	1279.02
531.27	1284.50
531.63	1290.93
531.99	1295.90
532.35	1301.12
532.71	1305.48
533.07	1311.43
533.42	1319.29
533.78	1323.74
534.14	1330.38
534.50	1335.36
534.86	1341.10
535.21	1345.48
535.57	1351.79
535.93	1357.67
536.29	1363.52
536.65	1369.12
537.00	1373.29
537.36	1378.24
537.72	1382.76
538.08	1387.76
538.44	1392.26
538.79	1397.40
539.15	1401.43
539.51	1406.93
539.87	1411.52
540.22	1417.02
540.58	1421.55
540.94	1424.31
541.29	1428.69
541.65	1431.38
542.01	1436.60
542.37	1440.14
542.72	1443.60
543.08	1446.69
543.44	1451.05
543.79	1453.40
544.15	1457.74
544.51	1462.19
544.87	1466.29
545.22	1471.00
545.58	1475.14
545.94	1478.86
546.29	1481.86
546.65	1486.45
547.01	1489.33
547.36	1493.36
547.72	1496.93
548.07	1500.57
548.43	1503.90
548.79	1506.81
549.14	1511.43
549.50	1515.90
549.86	1519.55
550.21	1523.86
550.57	1527.71
550.92	1530.33
551.28	1535.71
551.64	1539.60
551.99	1543.12
552.35	1546.67
552.70	1549.95
553.06	1553.81
553.41	1557.83
553.77	1563.67
554.13	1567.57
554.48	1572.88
554.84	1578.17
555.19	1582.33
555.55	1587.67
555.90	1591.50
556.26	1596.86
556.61	1600.55
556.97	1604.12
557.32	1607.88
557.68	1611.29
558.03	1615.50
558.39	1618.86
558.74	1621.43
559.10	1625.60
559.45	1630.21
559.81	1634.67
560.16	1638.48
560.52	1642.98
560.87	1648.07
561.23	1651.21
561.58	1657.02
561.94	1660.81
562.29	1664.33
562.64	1669.07
563.00	1671.83
563.35	1676.52
563.71	1681.12
564.06	1686.10
564.42	1690.64
564.77	1696.33
565.12	1701.81
565.48	1708.00
565.83	1714.71
566.19	1721.05
566.54	1725.60
566.89	1730.17
567.25	1736.52
567.60	1742.60
567.96	1748.71
568.31	1753.60
568.66	1757.55
569.02	1760.07
569.37	1763.79
569.72	1767.36
570.08	1770.33
570.43	1774.10
570.78	1777.95
571.14	1782.05
571.49	1785.64
571.84	1788.90
572.20	1791.64
572.55	1794.74
572.90	1796.19
573.26	1798.98
573.61	1801.90
573.96	1804.36
574.31	1806.81
574.67	1807.07
575.02	1808.02
575.37	1808.48
575.72	1810.26
576.08	1812.00
576.43	1813.48
576.78	1815.64
577.13	1817.69
577.49	1820.02
577.84	1822.76
578.19	1824.29
578.54	1825.52
578.90	1826.57
579.25	1827.95
579.60	1828.76
579.95	1828.60
580.30	1829.81
580.66	1831.17
581.01	1830.67
581.36	1830.60
581.71	1830.69
582.06	1832.90
582.42	1833.71
582.77	1833.07
583.12	1832.55
583.47	1833.48
583.82	1834.21
584.17	1833.74
584.53	1833.98
584.88	1833.88
585.23	1833.24
585.58	1833.05
585.93	1831.76
586.28	1832.14
586.63	1831.14
586.98	1831.02
587.34	1832.10
587.69	1830.76
588.04	1828.69
588.39	1827.64
588.74	1826.07
589.09	1825.52
589.44	1822.26
589.79	1820.62
590.14	1820.02
590.49	1818.05
590.84	1815.86
591.19	1814.26
591.54	1813.21
591.89	1810.88
592.25	1811.31
592.60	1808.79
592.95	1806.50
593.30	1805.40
593.65	1802.38
594.00	1799.19
594.35	1801.74
594.70	1798.14
595.05	1796.14
595.40	1794.07
595.75	1791.67
596.10	1790.29
596.45	1787.83
596.80	1786.62
597.15	1785.10
597.50	1782.64
597.85	1782.36
598.19	1779.71
598.54	1776.60
598.89	1773.33
599.24	1771.36
599.59	1766.64
599.94	1763.81
600.29	1761.64
600.64	1758.83
600.99	1756.36
601.34	1755.12
601.69	1747.14
602.04	1744.21
602.39	1741.14
602.74	1738.02
603.08	1735.64
603.43	1734.45
603.78	1730.71
604.13	1727.67
604.48	1723.98
604.83	1720.71
605.18	1716.40
605.53	1713.38
605.87	1709.95
606.22	1706.86
606.57	1703.21
606.92	1699.40
607.27	1696.67
607.62	1691.98
607.96	1688.45
608.31	1685.45
608.66	1681.55
609.01	1677.33
609.36	1673.76
609.70	1669.50
610.05	1665.45
610.40	1661.31
610.75	1655.31
611.10	1651.64
611.44	1646.26
611.79	1640.67
612.14	1636.55
612.49	1631.00
612.83	1625.81
613.18	1621.36
613.53	1615.98
613.88	1609.76
614.22	1603.95
614.57	1597.48
614.92	1592.95
615.27	1587.52
615.61	1580.74
615.96	1574.62
616.31	1568.90
616.65	1563.74
617.00	1559.07
617.35	1553.26
617.70	1547.24
618.04	1540.74
618.39	1534.60
618.74	1528.26
619.08	1523.05
619.43	1517.14
619.78	1511.79
620.12	1507.12
620.47	1500.38
620.82	1494.31
621.16	1487.26
621.51	1483.21
621.85	1478.12
622.20	1471.74
622.55	1464.48
622.89	1458.86
623.24	1453.24
623.59	1447.19
623.93	1440.86
624.28	1435.21
624.62	1432.38
624.97	1427.76
625.32	1422.69
625.66	1417.02
626.01	1412.29
626.35	1407.50
626.70	1401.26
627.04	1396.31
627.39	1389.07
627.73	1384.76
628.08	1380.45
628.43	1376.05
628.77	1368.93
629.12	1363.36
629.46	1358.05
629.81	1352.79
630.15	1346.83
630.50	1339.90
630.84	1334.00
631.19	1328.12
631.53	1321.00
631.88	1310.33
632.22	1302.12
632.57	1295.90
632.91	1289.57
633.26	1284.02
633.60	1276.29
633.95	1269.43
634.29	1261.93
634.64	1256.57
634.98	1249.40
635.32	1243.00
635.67	1236.74
636.01	1230.60
636.36	1223.52
636.70	1217.55
637.05	1211.55
637.39	1205.81
637.73	1200.69
638.08	1195.52
638.42	1189.17
638.77	1183.26
639.11	1178.95
639.45	1173.79
639.80	1166.57
640.14	1160.83
640.49	1153.52
640.83	1147.21
641.17	1141.00
641.52	1134.24
641.86	1127.38
642.20	1121.60
642.55	1114.50
642.89	1108.83
643.23	1101.83
643.58	1096.05
643.92	1089.02
644.26	1082.38
644.61	1075.93
644.95	1069.45
645.29	1061.40
645.64	1055.29
645.98	1048.57
646.32	1041.69
646.66	1034.50
647.01	1028.43
647.35	1021.64
647.69	1015.31
648.04	1009.45
648.38	1003.64
648.72	997.55
649.06	991.21
649.41	984.26
649.75	977.93
650.09	971.19
650.43	964.88
650.78	957.48
651.12	951.14
651.46	945.00
651.80	938.36
652.14	932.14
652.49	927.12
652.83	920.88
653.17	914.83
653.51	908.33
653.85	902.52
654.20	896.45
654.54	890.05
654.88	883.07
655.22	877.69
655.56	871.17
655.90	865.36
656.25	859.57
656.59	853.26
656.93	847.88
657.27	842.62
657.61	836.21
657.95	831.33
658.29	825.79
658.64	820.10
658.98	813.81
659.32	807.64
659.66	801.62
660.00	795.86
660.34	790.21
660.68	784.60
661.02	778.48
661.36	772.90
661.70	767.69
662.05	763.38
662.39	757.88
662.73	753.81
663.07	749.71
663.41	744.00
663.75	738.90
664.09	733.55
664.43	727.48
664.77	722.95
665.11	717.57
665.45	712.48
665.79	707.55
666.13	702.33
666.47	697.55
666.81	692.69
667.15	687.17
667.49	682.90
667.83	679.00
668.17	674.40
668.51	669.43
668.85	664.57
669.19	660.26
669.53	654.52
669.87	648.52
670.21	642.69
670.55	638.38
670.89	635.10
671.23	630.31
671.57	626.00
671.91	622.12
672.25	617.67
672.58	613.93
672.92	609.60
673.26	605.86
673.60	601.98
673.94	597.69
674.28	594.26
674.62	590.12
674.96	585.81
675.30	582.48
675.64	578.67
675.97	575.24
676.31	570.81
676.65	567.24
676.99	564.55
677.33	560.86
677.67	557.19
678.01	552.52
678.34	549.24
678.68	546.00
679.02	541.57
679.36	538.45
679.70	534.24
680.04	529.88
680.37	526.74
680.71	522.95
681.05	519.76
681.39	516.36
681.73	512.57
682.06	509.26
682.40	505.26
682.74	502.74
683.08	499.76
683.42	496.19
683.75	493.50
684.09	489.64
684.43	486.52
684.77	483.19
685.10	479.83
685.44	476.26
685.78	472.81
686.12	470.14
686.45	466.55
686.79	463.33
687.13	461.38
687.46	458.31
687.80	455.86
688.14	452.64
688.48	450.10
688.81	447.43
689.15	445.60
689.49	443.02
689.82	439.90
690.16	436.24
690.50	433.74
690.83	430.26
691.17	426.90
691.51	424.55
691.84	422.36
692.18	419.90
692.52	417.67
692.85	415.43
693.19	413.76
693.52	411.55
693.86	408.74
694.20	405.67
694.53	403.14
694.87	400.26
695.21	397.86
695.54	395.07
695.88	392.14
696.21	388.60
696.55	386.21
696.88	384.05
697.22	381.86
697.56	379.62
697.89	377.50
698.23	375.93
698.56	373.60
698.90	371.62
699.23	369.79
699.57	367.60
699.90	365.17
700.24	362.69
700.58	360.67
700.91	359.19
701.25	359.26
701.58	358.07
701.92	356.76
702.25	355.17
702.59	353.05
702.92	351.52
703.26	349.95
703.59	348.21
703.93	347.98
704.26	346.62
704.60	345.24
704.93	343.86
705.26	342.12
705.60	340.88
705.93	338.79
706.27	337.76
706.60	336.88
706.94	336.67
707.27	334.79
707.61	333.52
707.94	332.07
708.27	328.76
708.61	326.64
708.94	325.07
709.28	323.57
709.61	322.48
709.94	321.71
710.28	320.31
710.61	319.45
710.95	316.26
711.28	316.43
711.61	314.95
711.95	314.45
712.28	312.86
712.61	311.24
712.95	311.14
713.28	310.60
713.61	308.60
713.95	306.71
714.28	305.76
714.61	304.52
714.95	303.31
715.28	302.33
715.61	301.43
715.95	300.45
716.28	299.12
716.61	298.26
716.95	296.83
717.28	295.62
717.61	294.33
717.94	293.29
718.28	290.74
718.61	289.83
718.94	288.02
719.27	287.45
719.61	286.69
719.94	284.76
720.27	282.64
720.60	281.64
720.94	280.55
721.27	280.00
721.60	279.50
721.93	278.69
722.27	278.38
722.60	277.76
722.93	276.88
723.26	276.38
723.59	275.14
723.93	274.45
724.26	274.21
724.59	273.60
724.92	273.24
725.25	272.90
725.59	272.12
725.92	271.55
726.25	270.79
726.58	270.19
726.91	269.93
727.24	269.69
727.57	269.24
727.91	268.43
728.24	267.62
728.57	266.62
728.90	266.24
729.23	265.07
729.56	265.29
729.89	264.55
730.22	263.74
730.55	263.14
730.89	262.64
731.22	261.74
731.55	261.02
731.88	260.48
732.21	259.55
732.54	258.88
732.87	258.52
733.20	258.12
733.53	257.55
733.86	257.19
734.19	256.07
734.52	256.00
734.85	257.12
735.18	256.43
735.51	256.50
735.84	256.40
736.17	256.60
736.50	255.10
736.83	257.14
737.16	256.88
737.49	256.67
737.82	256.19
738.15	256.10
738.48	255.69
738.81	255.12
739.14	254.57
739.47	254.05
739.80	253.55
740.13	253.26
740.46	252.57
740.79	252.00
741.12	251.83
741.45	251.21
741.78	249.69
742.11	250.10
742.44	249.12
742.77	248.69
743.10	247.71
743.43	247.29
743.75	245.00
744.08	247.17
744.41	246.90
744.74	246.45
745.07	245.50
745.40	245.31
745.73	246.07
746.06	245.95
746.39	245.93
746.71	245.31
747.04	244.74
747.37	244.55
747.70	244.48
748.03	244.17
748.36	244.07
748.68	243.57
749.01	242.38
749.34	242.24
749.67	242.02
750.00	242.29
750.33	243.62
750.65	243.17
750.98	240.43
751.31	239.90
751.64	239.55
751.97	240.79
752.29	240.36
752.62	238.76
752.95	238.33
753.28	237.76
753.60	237.55
753.93	237.67
754.26	237.24
754.59	236.29
754.91	235.98
755.24	235.48
755.57	235.21
755.90	235.00
756.22	234.55
756.55	233.74
756.88	232.79
757.20	231.12
757.53	230.36
757.86	230.05
758.19	230.00
758.51	229.90
758.84	228.36
759.17	228.26
759.49	228.62
759.82	229.69
760.15	229.74
760.47	229.38
760.80	228.86
761.13	229.29
761.45	228.83
761.78	228.67
762.11	228.48
762.43	228.33
762.76	228.02
763.08	228.21
763.41	228.07
763.74	228.17
764.06	228.00
764.39	227.98
764.71	227.93
765.04	227.38
765.37	226.98
765.69	226.93
766.02	226.74
766.34	226.02
766.67	224.90
767.00	225.12
767.32	226.52
767.65	227.57
767.97	226.95
768.30	227.45
768.62	227.31
768.95	226.83
769.27	226.55
769.60	226.74
769.92	226.17
770.25	225.81
770.57	225.17
770.90	224.95
771.22	224.60
771.55	224.48
771.87	224.55
772.20	224.43
772.52	225.95
772.85	228.24
773.17	228.36
773.50	227.93
773.82	227.29
774.15	226.00
774.47	224.64
774.80	224.64
775.12	224.36
775.45	224.10
775.77	224.55
776.09	224.40
776.42	224.52
776.74	225.19
777.07	225.24
777.39	225.19
777.72	224.81
778.04	225.21
778.36	225.02
778.69	225.00
779.01	225.12
779.33	223.19
779.66	220.81
779.98	220.71
780.31	220.74
780.63	221.55
780.95	221.64
781.28	221.50
781.60	221.21
781.92	221.21
782.25	221.43
782.57	221.10
782.89	220.90
783.22	220.64
783.54	220.02
783.86	220.17
784.19	220.26
784.51	221.00
784.83	220.50
785.16	220.48
785.48	220.48
