SpectraSuite Data File
++++++++++++++++++++++++++++++++++++
Date: Tue Apr 02 18:43:54 EDT 2013
User: group
Dark Spectrum Present: No
Reference Spectrum Present: No
Number of Sampled Component Spectra: 1
Spectrometers: USB2E7196
Integration Time (usec): 580000 (USB2E7196)
Spectra Averaged: 2 (USB2E7196)
Boxcar Smoothing: 10 (USB2E7196)
Correct for Electrical Dark: No (USB2E7196)
Strobe/Lamp Enabled: No (USB2E7196)
Correct for Detector Non-linearity: No (USB2E7196)
Correct for Stray Light: No (USB2E7196)
Number of Pixels in Processed Spectrum: 2048
>>>>>Begin Processed Spectral Data<<<<<
339.09	0.00
339.48	191.00
339.86	192.50
340.24	195.50
340.63	197.50
341.01	234.50
341.39	203.50
341.78	206.50
342.16	210.00
342.54	202.00
342.93	197.33
343.31	207.02
343.69	207.69
344.07	208.17
344.46	208.79
344.84	209.19
345.22	207.95
345.60	208.21
345.99	208.33
346.37	208.19
346.75	208.60
347.13	208.45
347.52	208.57
347.90	209.07
348.28	209.24
348.66	209.81
349.05	209.14
349.43	209.52
349.81	209.62
350.19	209.60
350.57	209.60
350.96	209.88
351.34	210.17
351.72	210.19
352.10	210.43
352.48	210.40
352.87	210.64
353.25	210.62
353.63	210.43
354.01	210.52
354.39	210.93
354.77	210.71
355.15	211.55
355.54	211.48
355.92	211.07
356.30	211.07
356.68	212.21
357.06	212.43
357.44	211.88
357.82	211.83
358.20	213.00
358.58	212.95
358.97	213.00
359.35	213.48
359.73	213.98
360.11	214.02
360.49	214.14
360.87	213.76
361.25	214.07
361.63	214.86
362.01	214.79
362.39	214.26
362.77	214.64
363.15	214.29
363.53	214.40
363.91	214.45
364.29	214.36
364.67	212.38
365.05	212.33
365.43	212.86
365.81	213.33
366.19	213.19
366.57	214.10
366.95	214.00
367.33	213.52
367.71	213.31
368.09	213.62
368.47	213.71
368.85	213.83
369.23	214.57
369.61	214.00
369.99	214.79
370.37	215.43
370.75	216.55
371.13	216.31
371.51	216.02
371.89	216.24
372.27	216.43
372.65	216.50
373.03	216.31
373.41	216.07
373.78	215.98
374.16	215.21
374.54	214.52
374.92	214.17
375.30	214.19
375.68	214.10
376.06	214.19
376.44	214.12
376.82	214.45
377.19	213.95
377.57	213.86
377.95	213.07
378.33	212.79
378.71	211.33
379.09	211.74
379.47	211.81
379.84	211.50
380.22	211.26
380.60	211.14
380.98	211.19
381.36	211.17
381.73	210.74
382.11	210.90
382.49	211.12
382.87	211.29
383.25	211.43
383.62	213.86
384.00	213.40
384.38	213.40
384.76	213.83
385.13	214.52
385.51	214.74
385.89	214.57
386.27	214.74
386.64	215.24
387.02	214.88
387.40	214.90
387.78	214.93
388.15	215.14
388.53	215.05
388.91	215.14
389.29	215.14
389.66	215.69
390.04	215.52
390.42	215.79
390.79	215.93
391.17	215.79
391.55	213.52
391.92	213.60
392.30	213.83
392.68	213.24
393.05	213.05
393.43	213.19
393.81	213.26
394.18	212.95
394.56	212.88
394.94	213.40
395.31	213.24
395.69	214.14
396.06	214.52
396.44	214.69
396.82	214.62
397.19	215.76
397.57	215.57
397.95	215.79
398.32	215.14
398.70	215.31
399.07	215.88
399.45	215.74
399.82	215.95
400.20	215.86
400.58	215.88
400.95	215.12
401.33	215.29
401.70	217.07
402.08	217.26
402.45	217.19
402.83	217.62
403.20	218.02
403.58	217.79
403.95	218.29
404.33	218.95
404.71	219.48
405.08	220.40
405.46	220.90
405.83	221.62
406.21	222.24
406.58	222.45
406.96	222.55
407.33	223.31
407.70	223.95
408.08	225.98
408.45	226.76
408.83	227.86
409.20	228.14
409.58	227.55
409.95	228.57
410.33	229.76
410.70	230.12
411.08	231.17
411.45	232.40
411.82	233.17
412.20	234.67
412.57	236.90
412.95	236.76
413.32	238.55
413.69	239.57
414.07	241.29
414.44	243.36
414.82	245.60
415.19	247.90
415.56	249.98
415.94	251.10
416.31	253.83
416.68	256.45
417.06	259.88
417.43	263.26
417.81	266.67
418.18	269.98
418.55	273.81
418.93	277.79
419.30	281.88
419.67	286.21
420.04	290.40
420.42	294.48
420.79	301.26
421.16	306.48
421.54	313.55
421.91	319.69
422.28	325.62
422.66	332.38
423.03	340.10
423.40	346.88
423.77	353.95
424.15	361.26
424.52	369.10
424.89	377.76
425.26	385.31
425.64	392.81
426.01	401.29
426.38	410.00
426.75	419.62
427.13	428.55
427.50	437.55
427.87	447.21
428.24	457.12
428.61	466.10
428.99	477.31
429.36	487.60
429.73	498.69
430.10	510.50
430.47	521.81
430.85	532.57
431.22	545.14
431.59	560.02
431.96	573.05
432.33	587.05
432.70	600.79
433.08	616.98
433.45	632.50
433.82	647.90
434.19	664.69
434.56	681.33
434.93	696.79
435.30	712.60
435.68	730.31
436.05	747.88
436.42	764.02
436.79	779.83
437.16	797.05
437.53	814.74
437.90	832.48
438.27	850.71
438.64	868.60
439.01	886.10
439.38	900.36
439.75	914.55
440.13	930.67
440.50	946.14
440.87	959.76
441.24	972.86
441.61	987.24
441.98	997.93
442.35	1010.00
442.72	1023.50
443.09	1037.98
443.46	1046.31
443.83	1051.71
444.20	1057.52
444.57	1063.60
444.94	1066.86
445.31	1070.88
445.68	1076.07
446.05	1076.67
446.42	1075.21
446.79	1074.40
447.16	1071.79
447.53	1071.21
447.90	1065.48
448.27	1058.93
448.64	1049.52
449.01	1043.86
449.37	1033.02
449.74	1022.64
450.11	1010.83
450.48	996.00
450.85	979.93
451.22	966.93
451.59	955.38
451.96	943.38
452.33	927.62
452.70	913.12
453.07	895.50
453.43	875.98
453.80	860.02
454.17	844.38
454.54	827.88
454.91	812.00
455.28	795.74
455.65	780.86
456.02	769.98
456.38	757.45
456.75	741.64
457.12	728.33
457.49	715.21
457.86	701.57
458.23	691.67
458.59	679.93
458.96	668.00
459.33	657.05
459.70	646.33
460.07	638.74
460.43	629.45
460.80	621.07
461.17	614.24
461.54	605.95
461.91	598.31
462.27	590.62
462.64	583.60
463.01	576.05
463.38	569.83
463.74	558.62
464.11	551.67
464.48	545.76
464.85	539.21
465.21	534.71
465.58	529.43
465.95	522.57
466.32	517.45
466.68	512.17
467.05	507.00
467.42	502.33
467.78	496.24
468.15	491.40
468.52	487.55
468.88	481.69
469.25	477.26
469.62	473.76
469.98	469.81
470.35	466.38
470.72	463.17
471.08	458.38
471.45	455.64
471.82	453.29
472.18	449.86
472.55	447.52
472.92	443.88
473.28	440.79
473.65	438.24
474.02	435.55
474.38	433.71
474.75	431.60
475.11	429.05
475.48	427.69
475.85	425.76
476.21	423.76
476.58	422.83
476.94	421.21
477.31	419.76
477.67	418.38
478.04	417.26
478.41	416.62
478.77	418.02
479.14	417.02
479.50	416.31
479.87	415.86
480.23	415.50
480.60	415.36
480.96	415.12
481.33	415.83
481.69	416.29
482.06	416.31
482.42	416.64
482.79	417.02
483.15	417.36
483.52	418.31
483.88	419.26
484.25	419.43
484.61	420.33
484.98	421.12
485.34	423.02
485.71	424.74
486.07	425.79
486.44	425.45
486.80	426.83
487.17	428.52
487.53	431.00
487.90	433.45
488.26	436.48
488.62	439.81
488.99	441.50
489.35	443.88
489.72	446.29
490.08	448.69
490.44	451.33
490.81	454.74
491.17	458.02
491.54	461.14
491.90	465.55
492.26	468.83
492.63	472.40
492.99	475.98
493.36	479.55
493.72	484.05
494.08	488.17
494.45	492.74
494.81	497.29
495.17	501.88
495.54	506.57
495.90	511.14
496.26	515.67
496.63	521.33
496.99	526.45
497.35	531.90
497.72	537.95
498.08	543.71
498.44	549.76
498.80	555.88
499.17	562.21
499.53	567.98
499.89	575.24
500.26	582.62
500.62	588.81
500.98	596.43
501.34	603.33
501.71	610.95
502.07	617.83
502.43	624.95
502.79	631.93
503.16	638.88
503.52	645.76
503.88	652.90
504.24	660.31
504.60	667.95
504.97	676.12
505.33	683.43
505.69	692.43
506.05	699.71
506.41	707.38
506.78	715.02
507.14	722.57
507.50	730.31
507.86	737.55
508.22	745.86
508.59	753.21
508.95	760.74
509.31	769.21
509.67	777.07
510.03	784.90
510.39	792.83
510.75	800.79
511.12	809.02
511.48	816.95
511.84	824.79
512.20	832.45
512.56	839.57
512.92	847.17
513.28	854.00
513.64	861.02
514.00	868.55
514.37	875.81
514.73	883.07
515.09	890.55
515.45	897.43
515.81	904.71
516.17	911.79
516.53	918.26
516.89	923.50
517.25	930.98
517.61	937.83
517.97	944.36
518.33	951.00
518.69	957.00
519.05	964.05
519.41	969.98
519.77	977.05
520.13	983.12
520.49	989.48
520.85	995.50
521.21	1002.31
521.57	1008.10
521.93	1013.36
522.29	1018.74
522.65	1022.93
523.01	1028.74
523.37	1033.14
523.73	1038.02
524.09	1043.60
524.45	1049.21
524.81	1053.88
525.17	1058.69
525.53	1063.45
525.89	1067.90
526.25	1072.62
526.61	1076.05
526.97	1080.29
527.33	1084.17
527.68	1090.36
528.04	1094.43
528.40	1099.02
528.76	1102.88
529.12	1107.00
529.48	1111.71
529.84	1116.02
530.20	1120.90
530.56	1124.62
530.91	1128.95
531.27	1133.19
531.63	1137.31
531.99	1140.69
532.35	1144.31
532.71	1148.33
533.07	1152.64
533.42	1159.40
533.78	1163.50
534.14	1167.83
534.50	1172.14
534.86	1176.29
535.21	1177.93
535.57	1182.26
535.93	1185.07
536.29	1190.05
536.65	1193.83
537.00	1197.86
537.36	1201.64
537.72	1205.05
538.08	1208.43
538.44	1211.79
538.79	1215.52
539.15	1218.79
539.51	1222.40
539.87	1225.38
540.22	1228.76
540.58	1231.57
540.94	1231.95
541.29	1234.95
541.65	1236.88
542.01	1240.29
542.37	1242.90
542.72	1245.38
543.08	1247.40
543.44	1250.57
543.79	1251.55
544.15	1254.07
544.51	1256.93
544.87	1259.93
545.22	1262.90
545.58	1266.38
545.94	1268.26
546.29	1271.36
546.65	1273.81
547.01	1277.33
547.36	1279.93
547.72	1282.21
548.07	1285.64
548.43	1288.21
548.79	1290.76
549.14	1293.76
549.50	1296.33
549.86	1298.74
550.21	1301.98
550.57	1305.50
550.92	1307.36
551.28	1310.48
551.64	1313.90
551.99	1316.74
552.35	1319.17
552.70	1322.69
553.06	1325.71
553.41	1329.19
553.77	1333.02
554.13	1336.40
554.48	1339.60
554.84	1344.67
555.19	1348.52
555.55	1353.14
555.90	1357.14
556.26	1361.10
556.61	1365.05
556.97	1368.24
557.32	1371.98
557.68	1375.83
558.03	1379.74
558.39	1384.17
558.74	1388.50
559.10	1391.55
559.45	1395.86
559.81	1399.83
560.16	1403.57
560.52	1407.55
560.87	1413.64
561.23	1416.07
561.58	1422.36
561.94	1426.05
562.29	1429.95
562.64	1433.93
563.00	1437.31
563.35	1442.29
563.71	1447.64
564.06	1453.24
564.42	1458.21
564.77	1464.19
565.12	1470.83
565.48	1477.76
565.83	1484.24
566.19	1489.33
566.54	1495.24
566.89	1500.38
567.25	1507.14
567.60	1513.64
567.96	1521.62
568.31	1527.43
568.66	1534.64
569.02	1539.14
569.37	1544.86
569.72	1550.88
570.08	1556.55
570.43	1561.36
570.78	1566.10
571.14	1571.12
571.49	1576.33
571.84	1581.83
572.20	1586.21
572.55	1590.60
572.90	1593.81
573.26	1598.86
573.61	1604.57
573.96	1609.62
574.31	1614.29
574.67	1618.64
575.02	1621.64
575.37	1624.14
575.72	1627.02
576.08	1630.74
576.43	1634.29
576.78	1638.17
577.13	1641.19
577.49	1645.31
577.84	1649.43
578.19	1653.57
578.54	1656.90
578.90	1661.12
579.25	1664.81
579.60	1667.33
579.95	1670.26
580.30	1673.60
580.66	1676.79
581.01	1679.17
581.36	1682.26
581.71	1685.31
582.06	1689.17
582.42	1693.21
582.77	1695.83
583.12	1699.67
583.47	1702.71
583.82	1705.40
584.17	1709.14
584.53	1712.86
584.88	1715.26
585.23	1719.43
585.58	1722.12
585.93	1724.57
586.28	1726.64
586.63	1729.57
586.98	1732.24
587.34	1735.88
587.69	1738.10
588.04	1739.26
588.39	1742.29
588.74	1743.50
589.09	1745.45
589.44	1745.55
589.79	1747.17
590.14	1748.71
590.49	1749.36
590.84	1750.76
591.19	1752.93
591.54	1754.10
591.89	1754.52
592.25	1757.69
592.60	1757.31
592.95	1758.69
593.30	1760.90
593.65	1761.62
594.00	1761.12
594.35	1768.93
594.70	1768.33
595.05	1769.21
595.40	1770.02
595.75	1770.29
596.10	1772.07
596.45	1773.79
596.80	1775.93
597.15	1776.52
597.50	1777.79
597.85	1779.52
598.19	1779.52
598.54	1779.26
598.89	1778.76
599.24	1780.21
599.59	1779.31
599.94	1779.86
600.29	1780.24
600.64	1779.71
600.99	1779.69
601.34	1781.05
601.69	1775.00
602.04	1775.67
602.39	1775.95
602.74	1776.26
603.08	1775.52
603.43	1774.93
603.78	1773.74
604.13	1773.12
604.48	1772.17
604.83	1771.33
605.18	1770.88
605.53	1769.74
605.87	1769.29
606.22	1768.69
606.57	1767.00
606.92	1766.60
607.27	1766.10
607.62	1765.21
607.96	1764.93
608.31	1764.36
608.66	1762.93
609.01	1761.74
609.36	1760.12
609.70	1757.57
610.05	1755.19
610.40	1753.76
610.75	1752.45
611.10	1751.31
611.44	1748.55
611.79	1746.67
612.14	1744.86
612.49	1741.24
612.83	1738.79
613.18	1735.95
613.53	1733.31
613.88	1730.31
614.22	1726.52
614.57	1722.45
614.92	1718.52
615.27	1713.93
615.61	1709.43
615.96	1705.29
616.31	1702.33
616.65	1699.88
617.00	1698.19
617.35	1695.64
617.70	1692.60
618.04	1688.57
618.39	1684.26
618.74	1681.24
619.08	1677.86
619.43	1673.86
619.78	1670.14
620.12	1667.24
620.47	1664.10
620.82	1660.10
621.16	1655.57
621.51	1653.05
621.85	1649.19
622.20	1644.90
622.55	1641.02
622.89	1638.45
623.24	1636.10
623.59	1631.74
623.93	1626.74
624.28	1621.36
624.62	1619.17
624.97	1616.19
625.32	1611.88
625.66	1608.02
626.01	1603.17
626.35	1599.33
626.70	1595.60
627.04	1591.74
627.39	1587.90
627.73	1585.17
628.08	1581.95
628.43	1578.64
628.77	1573.57
629.12	1570.19
629.46	1566.64
629.81	1563.10
630.15	1558.31
630.50	1552.95
630.84	1549.17
631.19	1544.43
631.53	1540.10
631.88	1533.12
632.22	1526.14
632.57	1522.07
632.91	1516.62
633.26	1512.00
633.60	1506.29
633.95	1501.26
634.29	1496.79
634.64	1492.17
634.98	1485.90
635.32	1481.74
635.67	1477.19
636.01	1473.00
636.36	1468.31
636.70	1464.88
637.05	1460.76
637.39	1456.26
637.73	1451.95
638.08	1447.83
638.42	1443.43
638.77	1439.38
639.11	1434.19
639.45	1430.33
639.80	1424.74
640.14	1420.07
640.49	1415.38
640.83	1410.29
641.17	1404.74
641.52	1399.50
641.86	1394.14
642.20	1389.93
642.55	1383.76
642.89	1377.90
643.23	1372.52
643.58	1367.43
643.92	1360.07
644.26	1353.02
644.61	1347.67
644.95	1341.57
645.29	1333.98
645.64	1329.62
645.98	1323.62
646.32	1318.50
646.66	1312.88
647.01	1307.52
647.35	1302.43
647.69	1296.21
648.04	1291.12
648.38	1285.69
648.72	1280.12
649.06	1273.10
649.41	1266.55
649.75	1259.86
650.09	1254.36
650.43	1246.52
650.78	1238.95
651.12	1233.07
651.46	1227.26
651.80	1220.55
652.14	1214.12
652.49	1208.67
652.83	1201.36
653.17	1193.93
653.51	1187.45
653.85	1181.14
654.20	1174.24
654.54	1166.55
654.88	1160.48
655.22	1154.69
655.56	1147.57
655.90	1140.45
656.25	1134.05
656.59	1127.24
656.93	1121.52
657.27	1116.26
657.61	1110.26
657.95	1105.05
658.29	1099.02
658.64	1094.17
658.98	1087.90
659.32	1081.67
659.66	1075.17
660.00	1069.02
660.34	1063.57
660.68	1057.24
661.02	1050.07
661.36	1043.67
661.70	1037.86
662.05	1031.00
662.39	1024.50
662.73	1019.69
663.07	1014.90
663.41	1009.36
663.75	1002.93
664.09	997.24
664.43	990.07
664.77	984.43
665.11	978.02
665.45	971.67
665.79	964.62
666.13	958.21
666.47	952.31
666.81	946.33
667.15	940.19
667.49	935.14
667.83	929.64
668.17	924.60
668.51	919.12
668.85	914.26
669.19	909.81
669.53	903.26
669.87	896.52
670.21	889.98
670.55	884.74
670.89	880.02
671.23	874.67
671.57	869.02
671.91	864.02
672.25	858.69
672.58	854.40
672.92	848.93
673.26	844.21
673.60	839.43
673.94	834.38
674.28	828.98
674.62	823.48
674.96	818.36
675.30	813.69
675.64	808.98
675.97	803.31
676.31	797.50
676.65	792.52
676.99	788.69
677.33	783.64
677.67	778.83
678.01	773.05
678.34	767.50
678.68	762.43
679.02	756.67
679.36	751.29
679.70	745.52
680.04	740.31
680.37	735.05
680.71	729.95
681.05	725.71
681.39	721.50
681.73	716.71
682.06	712.26
682.40	707.38
682.74	702.98
683.08	699.07
683.42	694.00
683.75	690.10
684.09	684.21
684.43	679.62
684.77	674.10
685.10	670.02
685.44	665.21
685.78	661.05
686.12	656.83
686.45	652.38
686.79	648.21
687.13	644.60
687.46	640.74
687.80	637.07
688.14	632.24
688.48	627.69
688.81	622.93
689.15	619.43
689.49	614.50
689.82	610.05
690.16	604.67
690.50	600.86
690.83	595.98
691.17	591.83
691.51	587.57
691.84	584.19
692.18	580.31
692.52	576.45
692.85	572.79
693.19	569.76
693.52	565.98
693.86	561.64
694.20	557.64
694.53	553.21
694.87	548.69
695.21	544.29
695.54	540.07
695.88	536.05
696.21	530.95
696.55	527.79
696.88	524.07
697.22	520.26
697.56	516.95
697.89	513.55
698.23	510.38
698.56	507.07
698.90	503.76
699.23	499.71
699.57	496.50
699.90	492.57
700.24	488.71
700.58	485.26
700.91	482.31
701.25	480.21
701.58	478.24
701.92	475.69
702.25	472.83
702.59	469.64
702.92	466.67
703.26	463.83
703.59	460.60
703.93	459.74
704.26	457.36
704.60	454.26
704.93	451.31
705.26	448.29
705.60	445.86
705.93	442.36
706.27	440.14
706.60	437.88
706.94	435.98
707.27	432.83
707.61	430.45
707.94	427.83
708.27	423.90
708.61	420.57
708.94	417.57
709.28	415.29
709.61	412.93
709.94	410.90
710.28	408.45
710.61	406.14
710.95	401.50
711.28	400.64
711.61	398.40
711.95	396.83
712.28	394.29
712.61	391.55
712.95	390.38
713.28	389.24
713.61	386.67
713.95	384.17
714.28	382.21
714.61	379.79
714.95	377.45
715.28	375.12
715.61	372.71
715.95	370.76
716.28	368.71
716.61	367.29
716.95	364.90
717.28	363.19
717.61	361.10
717.94	359.26
718.28	355.93
718.61	354.10
718.94	351.88
719.27	350.40
719.61	349.19
719.94	347.17
720.27	344.29
720.60	342.48
720.94	340.45
721.27	339.17
721.60	338.07
721.93	336.90
722.27	336.36
722.60	335.40
722.93	333.83
723.26	332.67
723.59	330.79
723.93	329.55
724.26	328.05
724.59	326.48
724.92	325.52
725.25	324.98
725.59	323.43
725.92	322.33
726.25	321.05
726.58	319.57
726.91	318.14
727.24	317.12
727.57	315.83
727.91	314.24
728.24	312.98
728.57	311.55
728.90	310.31
729.23	308.26
729.56	307.74
729.89	306.55
730.22	305.10
730.55	303.74
730.89	302.81
731.22	301.71
731.55	301.10
731.88	299.86
732.21	298.38
732.54	297.43
732.87	296.17
733.20	295.21
733.53	294.17
733.86	293.21
734.19	292.00
734.52	291.02
734.85	291.88
735.18	290.76
735.51	290.64
735.84	289.93
736.17	289.76
736.50	288.00
736.83	289.29
737.16	288.40
737.49	288.05
737.82	286.83
738.15	286.38
738.48	285.12
738.81	284.31
739.14	283.07
739.47	282.36
739.80	281.60
740.13	281.07
740.46	280.05
740.79	279.21
741.12	278.52
741.45	277.83
741.78	275.88
742.11	275.90
742.44	274.83
742.77	274.38
743.10	273.17
743.43	272.38
743.75	269.76
744.08	271.69
744.41	270.88
744.74	270.10
745.07	269.14
745.40	269.02
745.73	269.12
746.06	268.64
746.39	268.29
746.71	267.60
747.04	266.52
747.37	266.12
747.70	265.67
748.03	265.00
748.36	264.69
748.68	263.98
749.01	262.55
749.34	261.93
749.67	260.90
750.00	260.74
750.33	261.81
750.65	261.52
750.98	258.57
751.31	257.74
751.64	257.62
751.97	258.31
752.29	257.71
752.62	256.26
752.95	255.76
753.28	255.07
753.60	254.26
753.93	254.52
754.26	254.00
754.59	253.12
754.91	252.43
755.24	251.76
755.57	251.40
755.90	250.98
756.22	250.02
756.55	249.40
756.88	248.29
757.20	246.33
757.53	245.43
757.86	244.83
758.19	244.83
758.51	244.50
758.84	242.95
759.17	242.36
759.49	242.17
759.82	242.88
760.15	242.50
760.47	242.40
760.80	241.26
761.13	241.38
761.45	240.81
761.78	240.48
762.11	240.12
762.43	239.76
762.76	239.36
763.08	239.38
763.41	239.45
763.74	239.26
764.06	239.05
764.39	238.71
764.71	238.43
765.04	237.81
765.37	237.24
765.69	237.17
766.02	236.81
766.34	236.52
766.67	235.24
767.00	235.40
767.32	236.21
767.65	237.33
767.97	236.83
768.30	236.74
768.62	236.50
768.95	236.24
769.27	235.83
769.60	235.98
769.92	235.60
770.25	234.81
770.57	234.45
770.90	233.98
771.22	233.64
771.55	233.60
771.87	233.48
772.20	233.21
772.52	234.36
772.85	236.79
773.17	236.67
773.50	236.45
773.82	235.83
774.15	234.50
774.47	233.00
774.80	232.55
775.12	232.31
775.45	232.10
775.77	231.90
776.09	231.71
776.42	231.76
776.74	232.17
777.07	232.24
777.39	232.14
777.72	232.05
778.04	232.10
778.36	231.57
778.69	231.62
779.01	231.36
779.33	229.40
779.66	226.67
779.98	226.21
780.31	225.90
780.63	226.64
780.95	227.00
781.28	226.88
781.60	226.62
781.92	226.62
782.25	226.69
782.57	226.67
782.89	226.50
783.22	225.93
783.54	225.17
783.86	225.21
784.19	225.17
784.51	225.83
784.83	225.33
785.16	225.29
