SpectraSuite Data File
++++++++++++++++++++++++++++++++++++
Date: Tue Apr 02 18:46:52 EDT 2013
User: group
Dark Spectrum Present: No
Reference Spectrum Present: No
Number of Sampled Component Spectra: 1
Spectrometers: USB2E7196
Integration Time (usec): 580000 (USB2E7196)
Spectra Averaged: 2 (USB2E7196)
Boxcar Smoothing: 10 (USB2E7196)
Correct for Electrical Dark: No (USB2E7196)
Strobe/Lamp Enabled: No (USB2E7196)
Correct for Detector Non-linearity: No (USB2E7196)
Correct for Stray Light: No (USB2E7196)
Number of Pixels in Processed Spectrum: 2048
>>>>>Begin Processed Spectral Data<<<<<
339.09	0.00
339.48	197.50
339.86	197.00
340.24	196.50
340.63	198.50
341.01	231.50
341.39	202.50
341.78	207.00
342.16	214.50
342.54	204.50
342.93	198.86
343.31	208.55
343.69	209.10
344.07	209.40
344.46	210.36
344.84	210.98
345.22	209.95
345.60	210.38
345.99	210.67
346.37	210.60
346.75	210.74
347.13	210.88
347.52	210.93
347.90	211.71
348.28	211.69
348.66	212.19
349.05	211.64
349.43	211.98
349.81	212.12
350.19	212.21
350.57	212.19
350.96	212.43
351.34	212.76
351.72	212.86
352.10	213.12
352.48	212.83
352.87	212.86
353.25	212.81
353.63	212.76
354.01	212.83
354.39	212.90
354.77	212.95
355.15	213.48
355.54	213.40
355.92	212.81
356.30	213.05
356.68	214.31
357.06	214.62
357.44	214.10
357.82	214.07
358.20	215.14
358.58	215.26
358.97	215.36
359.35	215.67
359.73	215.88
360.11	215.93
360.49	216.10
360.87	215.98
361.25	216.26
361.63	216.71
362.01	216.60
362.39	216.38
362.77	216.76
363.15	216.38
363.53	216.33
363.91	216.43
364.29	216.10
364.67	214.17
365.05	214.05
365.43	214.21
365.81	214.50
366.19	214.38
366.57	215.29
366.95	215.17
367.33	215.05
367.71	214.88
368.09	215.26
368.47	215.21
368.85	215.24
369.23	215.64
369.61	215.05
369.99	215.60
370.37	215.71
370.75	216.60
371.13	216.48
371.51	216.21
371.89	216.40
372.27	216.79
372.65	217.02
373.03	217.02
373.41	216.93
373.78	216.69
374.16	215.50
374.54	214.67
374.92	214.52
375.30	214.19
375.68	214.05
376.06	214.02
376.44	213.67
376.82	213.69
377.19	213.26
377.57	213.19
377.95	212.74
378.33	212.60
378.71	211.33
379.09	211.45
379.47	211.62
379.84	211.19
380.22	210.79
380.60	210.31
380.98	210.07
381.36	210.14
381.73	209.98
382.11	210.55
382.49	210.45
382.87	210.12
383.25	210.29
383.62	212.69
384.00	212.33
384.38	212.60
384.76	213.17
385.13	214.02
385.51	213.95
385.89	213.64
386.27	213.69
386.64	213.90
387.02	213.86
387.40	213.83
387.78	214.02
388.15	214.43
388.53	214.26
388.91	214.50
389.29	214.24
389.66	214.40
390.04	214.05
390.42	214.50
390.79	214.90
391.17	214.79
391.55	212.57
391.92	212.67
392.30	213.05
392.68	212.48
393.05	212.43
393.43	212.55
393.81	212.79
394.18	212.67
394.56	212.74
394.94	212.90
395.31	212.71
395.69	213.43
396.06	213.40
396.44	213.69
396.82	213.33
397.19	214.60
397.57	214.50
397.95	214.90
398.32	214.50
398.70	214.86
399.07	215.64
399.45	215.21
399.82	215.19
400.20	214.81
400.58	214.67
400.95	213.79
401.33	214.50
401.70	215.98
402.08	216.07
402.45	216.19
402.83	216.93
403.20	217.10
403.58	217.10
403.95	217.69
404.33	217.98
404.71	218.52
405.08	219.62
405.46	220.05
405.83	220.50
406.21	220.67
406.58	220.62
406.96	220.64
407.33	221.50
407.70	222.02
408.08	224.36
408.45	225.48
408.83	226.45
409.20	226.57
409.58	226.17
409.95	227.40
410.33	228.31
410.70	228.60
411.08	229.95
411.45	231.00
411.82	231.71
412.20	233.50
412.57	235.98
412.95	235.90
413.32	237.74
413.69	239.12
414.07	240.93
414.44	242.98
414.82	244.76
415.19	247.07
415.56	249.29
415.94	250.19
416.31	252.90
416.68	255.86
417.06	259.17
417.43	262.52
417.81	266.10
418.18	269.79
418.55	273.14
418.93	276.93
419.30	280.90
419.67	285.29
420.04	289.83
420.42	293.81
420.79	300.88
421.16	306.12
421.54	313.14
421.91	319.38
422.28	325.43
422.66	332.43
423.03	340.31
423.40	347.29
423.77	354.26
424.15	361.26
424.52	368.86
424.89	377.45
425.26	385.12
425.64	392.48
426.01	400.55
426.38	409.86
426.75	419.45
427.13	429.31
427.50	438.81
427.87	448.55
428.24	458.21
428.61	466.55
428.99	477.83
429.36	487.74
429.73	498.79
430.10	510.55
430.47	521.81
430.85	532.33
431.22	544.88
431.59	559.55
431.96	572.24
432.33	586.02
432.70	599.50
433.08	615.71
433.45	630.52
433.82	646.05
434.19	662.60
434.56	679.50
434.93	694.43
435.30	709.86
435.68	727.43
436.05	744.69
436.42	761.26
436.79	776.86
437.16	793.62
437.53	812.19
437.90	829.10
438.27	846.17
438.64	864.60
439.01	881.14
439.38	894.69
439.75	909.98
440.13	927.21
440.50	942.88
440.87	955.29
441.24	969.19
441.61	982.76
441.98	993.88
442.35	1005.43
442.72	1018.57
443.09	1032.26
443.46	1039.71
443.83	1045.38
444.20	1049.93
444.57	1055.90
444.94	1059.74
445.31	1062.38
445.68	1067.43
446.05	1069.50
446.42	1067.67
446.79	1067.05
447.16	1066.05
447.53	1065.14
447.90	1058.43
448.27	1052.52
448.64	1043.88
449.01	1037.48
449.37	1027.33
449.74	1016.17
450.11	1005.05
450.48	990.43
450.85	975.07
451.22	962.19
451.59	950.45
451.96	939.40
452.33	923.86
452.70	909.57
453.07	892.67
453.43	874.05
453.80	857.81
454.17	842.26
454.54	826.57
454.91	810.26
455.28	793.48
455.65	778.69
456.02	766.79
456.38	754.57
456.75	739.10
457.12	725.71
457.49	713.05
457.86	698.95
458.23	689.14
458.59	677.86
458.96	666.26
459.33	655.50
459.70	644.76
460.07	636.86
460.43	627.60
460.80	619.10
461.17	612.19
461.54	603.62
461.91	595.95
462.27	587.86
462.64	580.98
463.01	574.10
463.38	567.95
463.74	557.43
464.11	550.45
464.48	544.98
464.85	538.69
465.21	534.26
465.58	529.19
465.95	522.24
466.32	516.79
466.68	511.26
467.05	506.24
467.42	501.48
467.78	496.14
468.15	491.24
468.52	487.71
468.88	482.14
469.25	477.64
469.62	474.45
469.98	470.55
470.35	466.71
470.72	462.95
471.08	458.07
471.45	455.14
471.82	452.40
472.18	448.69
472.55	446.40
472.92	442.67
473.28	439.69
473.65	437.19
474.02	434.60
474.38	432.95
474.75	430.81
475.11	428.00
475.48	425.88
475.85	423.79
476.21	421.86
476.58	420.33
476.94	419.07
477.31	417.60
477.67	416.83
478.04	415.83
478.41	415.02
478.77	416.21
479.14	414.90
479.50	414.24
479.87	413.90
480.23	413.52
480.60	413.55
480.96	413.38
481.33	414.00
481.69	413.67
482.06	413.74
482.42	414.14
482.79	415.24
483.15	415.79
483.52	417.02
483.88	417.17
484.25	418.10
484.61	419.21
484.98	419.43
485.34	420.98
485.71	422.48
486.07	423.93
486.44	423.50
486.80	425.26
487.17	426.81
487.53	429.38
487.90	431.71
488.26	433.98
488.62	437.02
488.99	438.86
489.35	441.76
489.72	444.43
490.08	446.86
490.44	449.24
490.81	452.74
491.17	455.83
491.54	459.50
491.90	462.67
492.26	466.33
492.63	470.40
492.99	473.21
493.36	477.33
493.72	481.93
494.08	486.38
494.45	490.76
494.81	496.21
495.17	500.60
495.54	505.71
495.90	510.76
496.26	515.55
496.63	520.83
496.99	525.93
497.35	531.48
497.72	538.00
498.08	544.21
498.44	550.26
498.80	556.55
499.17	562.64
499.53	569.69
499.89	576.24
500.26	583.38
500.62	590.24
500.98	597.26
501.34	603.67
501.71	611.17
502.07	618.48
502.43	625.24
502.79	632.33
503.16	638.93
503.52	646.38
503.88	653.50
504.24	661.07
504.60	669.14
504.97	677.12
505.33	684.10
505.69	692.31
506.05	699.76
506.41	707.43
506.78	715.88
507.14	722.79
507.50	730.43
507.86	737.69
508.22	745.71
508.59	753.29
508.95	761.14
509.31	770.50
509.67	777.95
510.03	785.33
510.39	793.12
510.75	800.76
511.12	808.52
511.48	816.48
511.84	824.29
512.20	832.19
512.56	839.71
512.92	847.60
513.28	854.76
513.64	862.10
514.00	869.19
514.37	876.02
514.73	883.86
515.09	891.40
515.45	898.74
515.81	905.95
516.17	912.90
516.53	919.40
516.89	924.12
517.25	931.26
517.61	939.00
517.97	945.14
518.33	951.48
518.69	957.62
519.05	964.02
519.41	970.29
519.77	977.17
520.13	982.95
520.49	988.21
520.85	994.14
521.21	1001.24
521.57	1007.05
521.93	1012.48
522.29	1018.02
522.65	1022.81
523.01	1028.40
523.37	1033.02
523.73	1038.07
524.09	1043.79
524.45	1049.19
524.81	1054.31
525.17	1058.50
525.53	1064.29
525.89	1068.95
526.25	1073.36
526.61	1077.07
526.97	1080.79
527.33	1084.33
527.68	1090.55
528.04	1095.21
528.40	1099.21
528.76	1102.76
529.12	1107.45
529.48	1112.43
529.84	1116.29
530.20	1120.88
530.56	1124.83
530.91	1129.67
531.27	1133.62
531.63	1137.86
531.99	1141.21
532.35	1144.52
532.71	1148.07
533.07	1151.31
533.42	1158.10
533.78	1162.40
534.14	1167.40
534.50	1171.48
534.86	1176.10
535.21	1178.45
535.57	1183.19
535.93	1186.69
536.29	1190.62
536.65	1194.29
537.00	1197.36
537.36	1201.14
537.72	1204.43
538.08	1208.02
538.44	1210.67
538.79	1214.62
539.15	1217.02
539.51	1221.40
539.87	1225.64
540.22	1229.52
540.58	1232.69
540.94	1233.86
541.29	1236.40
541.65	1238.79
542.01	1242.45
542.37	1244.45
542.72	1246.86
543.08	1248.95
543.44	1252.07
543.79	1253.14
544.15	1256.14
544.51	1259.43
544.87	1262.05
545.22	1265.17
545.58	1267.71
545.94	1270.62
546.29	1272.17
546.65	1275.31
547.01	1277.50
547.36	1279.40
547.72	1280.38
548.07	1283.45
548.43	1284.93
548.79	1287.38
549.14	1289.48
549.50	1292.00
549.86	1294.19
550.21	1297.12
550.57	1300.07
550.92	1301.60
551.28	1305.12
551.64	1307.19
551.99	1309.74
552.35	1312.38
552.70	1315.43
553.06	1318.74
553.41	1321.93
553.77	1326.76
554.13	1329.67
554.48	1333.79
554.84	1337.88
555.19	1342.90
555.55	1347.86
555.90	1352.48
556.26	1355.83
556.61	1359.38
556.97	1361.79
557.32	1365.98
557.68	1369.43
558.03	1372.76
558.39	1377.00
558.74	1380.57
559.10	1385.02
559.45	1389.07
559.81	1393.52
560.16	1396.71
560.52	1400.26
560.87	1405.00
561.23	1408.29
561.58	1414.26
561.94	1416.71
562.29	1420.57
562.64	1424.79
563.00	1428.05
563.35	1432.10
563.71	1437.74
564.06	1442.83
564.42	1448.40
564.77	1453.98
565.12	1459.74
565.48	1466.45
565.83	1472.93
566.19	1479.33
566.54	1483.95
566.89	1488.98
567.25	1494.81
567.60	1502.43
567.96	1510.48
568.31	1516.50
568.66	1522.74
569.02	1527.26
569.37	1533.12
569.72	1538.67
570.08	1543.45
570.43	1548.71
570.78	1554.69
571.14	1559.98
571.49	1565.14
571.84	1571.38
572.20	1575.62
572.55	1580.55
572.90	1583.31
573.26	1587.88
573.61	1591.88
573.96	1597.40
574.31	1602.12
574.67	1605.71
575.02	1608.10
575.37	1609.69
575.72	1612.86
576.08	1617.07
576.43	1620.40
576.78	1624.40
577.13	1628.95
577.49	1632.93
577.84	1636.57
578.19	1640.64
578.54	1645.19
578.90	1649.81
579.25	1653.33
579.60	1656.21
579.95	1659.02
580.30	1663.48
580.66	1667.19
581.01	1671.40
581.36	1674.62
581.71	1677.60
582.06	1682.10
582.42	1686.83
582.77	1689.67
583.12	1692.60
583.47	1695.67
583.82	1699.71
584.17	1703.52
584.53	1706.50
584.88	1710.36
585.23	1713.86
585.58	1715.93
585.93	1718.07
586.28	1720.52
586.63	1723.33
586.98	1727.69
587.34	1732.50
587.69	1735.40
588.04	1738.57
588.39	1741.02
588.74	1742.33
589.09	1745.19
589.44	1746.07
589.79	1748.00
590.14	1750.69
590.49	1752.45
590.84	1752.98
591.19	1755.07
591.54	1756.88
591.89	1758.38
592.25	1762.07
592.60	1763.50
592.95	1765.64
593.30	1767.52
593.65	1769.38
594.00	1770.00
594.35	1776.19
594.70	1775.69
595.05	1777.48
595.40	1778.17
595.75	1778.52
596.10	1780.52
596.45	1781.62
596.80	1783.48
597.15	1785.38
597.50	1786.71
597.85	1789.64
598.19	1791.74
598.54	1791.83
598.89	1792.40
599.24	1793.55
599.59	1792.38
599.94	1792.98
600.29	1793.60
600.64	1794.48
600.99	1794.31
601.34	1795.29
601.69	1790.55
602.04	1790.48
602.39	1790.21
602.74	1790.43
603.08	1791.00
603.43	1791.50
603.78	1791.07
604.13	1790.83
604.48	1789.69
604.83	1790.12
605.18	1790.02
605.53	1789.14
605.87	1788.74
606.22	1787.07
606.57	1786.48
606.92	1785.10
607.27	1784.26
607.62	1784.14
607.96	1783.24
608.31	1783.24
608.66	1781.50
609.01	1779.43
609.36	1778.33
609.70	1777.07
610.05	1775.33
610.40	1773.90
610.75	1772.14
611.10	1770.98
611.44	1768.60
611.79	1765.79
612.14	1762.21
612.49	1757.24
612.83	1754.79
613.18	1752.24
613.53	1750.90
613.88	1746.95
614.22	1743.86
614.57	1739.48
614.92	1734.76
615.27	1731.10
615.61	1726.64
615.96	1723.88
616.31	1721.24
616.65	1718.95
617.00	1716.14
617.35	1713.26
617.70	1710.33
618.04	1706.52
618.39	1702.79
618.74	1699.67
619.08	1696.31
619.43	1693.36
619.78	1691.12
620.12	1688.07
620.47	1684.00
620.82	1679.60
621.16	1675.33
621.51	1672.31
621.85	1669.07
622.20	1666.07
622.55	1661.36
622.89	1658.31
623.24	1655.33
623.59	1651.14
623.93	1647.36
624.28	1642.48
624.62	1639.50
624.97	1635.64
625.32	1630.83
625.66	1626.40
626.01	1622.71
626.35	1618.60
626.70	1615.14
627.04	1612.14
627.39	1607.52
627.73	1605.07
628.08	1601.98
628.43	1598.76
628.77	1594.88
629.12	1592.00
629.46	1588.31
629.81	1584.79
630.15	1579.74
630.50	1574.45
630.84	1569.98
631.19	1564.10
631.53	1559.31
631.88	1552.02
632.22	1546.26
632.57	1542.71
632.91	1537.50
633.26	1532.55
633.60	1527.90
633.95	1522.21
634.29	1516.64
634.64	1512.43
634.98	1506.64
635.32	1502.55
635.67	1498.38
636.01	1494.14
636.36	1488.69
636.70	1484.74
637.05	1480.12
637.39	1476.24
637.73	1471.60
638.08	1468.24
638.42	1463.14
638.77	1459.17
639.11	1455.38
639.45	1450.90
639.80	1445.48
640.14	1441.48
640.49	1436.76
640.83	1431.83
641.17	1427.79
641.52	1422.31
641.86	1417.29
642.20	1413.48
642.55	1406.71
642.89	1400.90
643.23	1395.45
643.58	1391.31
643.92	1384.95
644.26	1379.67
644.61	1374.98
644.95	1370.00
645.29	1362.45
645.64	1358.76
645.98	1352.81
646.32	1348.24
646.66	1342.45
647.01	1336.14
647.35	1330.57
647.69	1324.52
648.04	1318.95
648.38	1312.93
648.72	1307.67
649.06	1302.05
649.41	1295.71
649.75	1290.60
650.09	1285.95
650.43	1279.14
650.78	1272.31
651.12	1265.95
651.46	1260.02
651.80	1252.79
652.14	1246.55
652.49	1242.00
652.83	1235.69
653.17	1229.90
653.51	1223.07
653.85	1217.14
654.20	1211.55
654.54	1205.00
654.88	1199.14
655.22	1194.38
655.56	1187.69
655.90	1182.10
656.25	1175.86
656.59	1169.21
656.93	1162.83
657.27	1156.57
657.61	1151.05
657.95	1145.74
658.29	1139.79
658.64	1133.76
658.98	1127.88
659.32	1121.40
659.66	1114.43
660.00	1107.79
660.34	1101.31
660.68	1095.74
661.02	1089.60
661.36	1083.60
661.70	1078.38
662.05	1072.57
662.39	1066.05
662.73	1061.45
663.07	1056.19
663.41	1050.24
663.75	1044.12
664.09	1038.71
664.43	1032.45
664.77	1026.55
665.11	1019.50
665.45	1014.38
665.79	1008.90
666.13	1003.14
666.47	997.12
666.81	991.93
667.15	986.67
667.49	981.74
667.83	976.93
668.17	971.60
668.51	966.74
668.85	961.40
669.19	956.71
669.53	950.43
669.87	944.31
670.21	938.17
670.55	933.02
670.89	929.17
671.23	923.64
671.57	918.90
671.91	914.10
672.25	909.14
672.58	904.62
672.92	898.71
673.26	893.55
673.60	889.40
673.94	884.38
674.28	879.67
674.62	874.67
674.96	868.31
675.30	863.69
675.64	858.48
675.97	853.19
676.31	847.76
676.65	843.19
676.99	839.26
677.33	834.29
677.67	829.62
678.01	823.76
678.34	819.29
678.68	815.00
679.02	809.02
679.36	803.98
679.70	797.52
680.04	792.57
680.37	787.93
680.71	782.36
681.05	778.10
681.39	772.76
681.73	767.76
682.06	763.00
682.40	757.88
682.74	753.07
683.08	748.76
683.42	742.79
683.75	738.21
684.09	732.40
684.43	727.57
684.77	722.31
685.10	717.40
685.44	712.17
685.78	706.40
686.12	702.05
686.45	697.55
686.79	693.38
687.13	689.36
687.46	684.74
687.80	680.81
688.14	675.88
688.48	671.38
688.81	666.52
689.15	662.90
689.49	658.31
689.82	654.00
690.16	648.62
690.50	644.50
690.83	639.52
691.17	634.57
691.51	630.05
691.84	625.48
692.18	620.98
692.52	616.93
692.85	612.98
693.19	609.88
693.52	606.21
693.86	601.57
694.20	597.31
694.53	593.10
694.87	588.86
695.21	584.26
695.54	580.14
695.88	576.17
696.21	570.95
696.55	566.95
696.88	563.36
697.22	559.50
697.56	556.67
697.89	553.19
698.23	550.33
698.56	546.00
698.90	543.05
699.23	539.14
699.57	535.26
699.90	531.76
700.24	527.12
700.58	523.40
700.91	520.33
701.25	518.36
701.58	515.86
701.92	512.69
702.25	509.79
702.59	506.14
702.92	502.60
703.26	499.64
703.59	496.43
703.93	494.62
704.26	491.90
704.60	488.43
704.93	484.67
705.26	481.14
705.60	478.81
705.93	475.00
706.27	472.88
706.60	470.74
706.94	468.12
707.27	465.19
707.61	461.98
707.94	458.86
708.27	454.48
708.61	450.43
708.94	447.45
709.28	444.64
709.61	442.14
709.94	439.76
710.28	437.33
710.61	434.79
710.95	430.19
711.28	428.67
711.61	426.33
711.95	424.67
712.28	422.02
712.61	419.38
712.95	417.93
713.28	416.05
713.61	412.79
713.95	410.17
714.28	408.02
714.61	405.64
714.95	403.38
715.28	400.69
715.61	398.57
715.95	396.21
716.28	393.76
716.61	392.17
716.95	389.50
717.28	387.12
717.61	384.93
717.94	382.64
718.28	379.31
718.61	376.88
718.94	374.31
719.27	372.14
719.61	369.93
719.94	367.19
720.27	364.19
720.60	362.36
720.94	359.95
721.27	358.07
721.60	356.60
721.93	354.93
722.27	354.33
722.60	352.64
722.93	350.74
723.26	349.36
723.59	346.93
723.93	345.67
724.26	344.29
724.59	342.69
724.92	341.60
725.25	340.62
725.59	339.19
725.92	337.95
726.25	336.81
726.58	335.93
726.91	334.64
727.24	333.45
727.57	332.02
727.91	330.29
728.24	329.31
728.57	327.81
728.90	326.52
729.23	324.10
729.56	323.79
729.89	322.71
730.22	321.19
730.55	319.83
730.89	318.50
731.22	317.12
731.55	315.81
731.88	314.62
732.21	313.02
732.54	311.81
732.87	310.67
733.20	309.64
733.53	308.33
733.86	307.33
734.19	305.95
734.52	305.33
734.85	306.24
735.18	304.74
735.51	304.38
735.84	303.62
736.17	303.26
736.50	301.50
736.83	302.81
737.16	302.14
737.49	301.62
737.82	300.81
738.15	300.31
738.48	299.29
738.81	298.50
739.14	297.40
739.47	296.29
739.80	295.50
740.13	294.71
740.46	293.60
740.79	292.26
741.12	291.52
741.45	290.33
741.78	288.07
742.11	287.83
742.44	286.21
742.77	285.64
743.10	284.29
743.43	283.29
743.75	280.40
744.08	281.88
744.41	280.83
744.74	279.71
745.07	278.31
745.40	277.90
745.73	277.76
746.06	276.79
746.39	276.10
746.71	274.90
747.04	273.83
747.37	273.21
747.70	272.95
748.03	272.31
748.36	271.93
748.68	271.17
749.01	269.90
749.34	269.38
749.67	268.67
750.00	268.60
750.33	269.31
750.65	268.79
750.98	265.62
751.31	264.90
751.64	264.38
751.97	265.10
752.29	264.50
752.62	262.93
752.95	262.52
753.28	261.81
753.60	261.14
753.93	261.10
754.26	260.45
754.59	259.48
754.91	258.48
755.24	257.74
755.57	257.12
755.90	256.52
756.22	256.29
756.55	255.00
756.88	254.24
757.20	252.50
757.53	251.50
757.86	250.93
758.19	250.83
758.51	250.40
758.84	248.90
759.17	248.26
759.49	247.95
759.82	248.48
760.15	248.29
760.47	247.86
760.80	246.69
761.13	246.40
761.45	246.00
761.78	245.71
762.11	245.26
762.43	244.67
762.76	244.38
763.08	243.71
763.41	243.86
763.74	243.50
764.06	243.00
764.39	242.64
764.71	242.38
765.04	241.67
765.37	241.05
765.69	240.45
766.02	239.86
766.34	239.38
766.67	238.21
767.00	238.02
767.32	239.02
767.65	240.10
767.97	239.57
768.30	239.21
768.62	238.83
768.95	238.50
769.27	238.24
769.60	238.07
769.92	237.52
770.25	236.79
770.57	236.12
770.90	235.88
771.22	235.45
771.55	235.29
771.87	235.17
772.20	235.12
772.52	236.60
772.85	239.00
773.17	239.07
773.50	238.79
773.82	238.33
774.15	237.14
774.47	235.76
774.80	235.57
775.12	235.36
775.45	235.36
775.77	235.14
776.09	235.14
776.42	234.86
776.74	235.26
777.07	235.07
777.39	235.17
777.72	234.74
778.04	234.93
778.36	234.43
778.69	234.38
779.01	234.36
779.33	232.43
779.66	229.88
779.98	229.55
780.31	229.29
780.63	230.07
780.95	229.90
781.28	229.90
781.60	229.55
781.92	229.57
782.25	229.36
782.57	229.33
782.89	229.00
783.22	228.60
783.54	228.12
783.86	228.29
784.19	227.93
784.51	228.55
784.83	227.93
