SpectraSuite Data File
++++++++++++++++++++++++++++++++++++
Date: Tue Apr 02 18:41:42 EDT 2013
User: group
Dark Spectrum Present: No
Reference Spectrum Present: No
Number of Sampled Component Spectra: 1
Spectrometers: USB2E7196
Integration Time (usec): 580000 (USB2E7196)
Spectra Averaged: 2 (USB2E7196)
Boxcar Smoothing: 10 (USB2E7196)
Correct for Electrical Dark: No (USB2E7196)
Strobe/Lamp Enabled: No (USB2E7196)
Correct for Detector Non-linearity: No (USB2E7196)
Correct for Stray Light: No (USB2E7196)
Number of Pixels in Processed Spectrum: 2048
>>>>>Begin Processed Spectral Data<<<<<
339.09	0.00
339.48	190.50
339.86	193.50
340.24	194.50
340.63	197.50
341.01	226.00
341.39	202.00
341.78	203.50
342.16	208.50
342.54	205.50
342.93	196.48
343.31	206.26
343.69	206.98
344.07	207.52
344.46	208.40
344.84	209.14
345.22	208.55
345.60	209.00
345.99	209.33
346.37	209.12
346.75	209.24
347.13	209.29
347.52	209.31
347.90	210.07
348.28	209.95
348.66	210.43
349.05	209.74
349.43	210.05
349.81	210.38
350.19	210.55
350.57	210.67
350.96	211.05
351.34	211.38
351.72	211.40
352.10	211.43
352.48	211.43
352.87	211.19
353.25	211.07
353.63	211.07
354.01	210.98
354.39	211.48
354.77	211.60
355.15	212.12
355.54	212.19
355.92	211.67
356.30	212.19
356.68	213.40
357.06	213.60
357.44	213.29
357.82	213.10
358.20	214.02
358.58	214.14
358.97	214.19
359.35	214.57
359.73	215.24
360.11	215.48
360.49	215.71
360.87	215.88
361.25	216.21
361.63	216.86
362.01	217.14
362.39	217.02
362.77	217.19
363.15	217.10
363.53	217.05
363.91	217.19
364.29	216.86
364.67	215.07
365.05	215.29
365.43	215.55
365.81	216.10
366.19	216.17
366.57	216.83
366.95	216.69
367.33	216.21
367.71	216.00
368.09	216.57
368.47	216.17
368.85	216.02
369.23	216.36
369.61	215.74
369.99	216.52
370.37	216.74
370.75	217.81
371.13	217.38
371.51	217.33
371.89	217.31
372.27	217.40
372.65	217.81
373.03	218.02
373.41	217.90
373.78	217.55
374.16	216.62
374.54	216.07
374.92	216.00
375.30	216.10
375.68	215.79
376.06	215.40
376.44	215.43
376.82	215.76
377.19	215.74
377.57	215.50
377.95	214.81
378.33	214.67
378.71	213.36
379.09	213.57
379.47	213.64
379.84	213.52
380.22	213.55
380.60	213.24
380.98	213.05
381.36	212.93
381.73	212.81
382.11	213.14
382.49	213.17
382.87	213.14
383.25	213.19
383.62	215.60
384.00	215.29
384.38	215.48
384.76	215.74
385.13	216.40
385.51	216.60
385.89	216.17
386.27	216.17
386.64	216.64
387.02	216.62
387.40	216.50
387.78	216.62
388.15	216.57
388.53	216.38
388.91	216.38
389.29	216.29
389.66	216.71
390.04	216.36
390.42	216.88
390.79	216.83
391.17	216.83
391.55	214.71
391.92	214.88
392.30	214.98
392.68	214.52
393.05	214.05
393.43	214.14
393.81	214.40
394.18	214.00
394.56	213.74
394.94	214.07
395.31	214.00
395.69	214.55
396.06	214.90
396.44	215.21
396.82	215.19
397.19	216.14
397.57	215.83
397.95	216.38
398.32	215.55
398.70	215.76
399.07	216.17
399.45	216.00
399.82	216.05
400.20	215.90
400.58	215.95
400.95	215.17
401.33	215.67
401.70	217.12
402.08	217.57
402.45	217.67
402.83	218.14
403.20	218.38
403.58	218.29
403.95	218.67
404.33	218.93
404.71	219.24
405.08	220.71
405.46	221.26
405.83	221.55
406.21	222.02
406.58	222.52
406.96	222.71
407.33	223.36
407.70	224.14
408.08	226.26
408.45	227.24
408.83	228.45
409.20	228.90
409.58	228.52
409.95	229.48
410.33	230.55
410.70	231.12
411.08	232.21
411.45	233.36
411.82	234.21
412.20	235.98
412.57	238.33
412.95	237.86
413.32	239.69
413.69	240.69
414.07	242.45
414.44	244.21
414.82	246.24
415.19	248.76
415.56	251.02
415.94	252.21
416.31	255.10
416.68	257.98
417.06	261.19
417.43	264.69
417.81	268.33
418.18	272.07
418.55	275.67
418.93	280.00
419.30	284.24
419.67	288.79
420.04	293.21
420.42	297.31
420.79	304.50
421.16	309.88
421.54	317.48
421.91	323.81
422.28	330.31
422.66	337.19
423.03	344.83
423.40	351.52
423.77	359.05
424.15	366.33
424.52	374.36
424.89	382.86
425.26	390.67
425.64	398.12
426.01	406.29
426.38	415.74
426.75	425.12
427.13	434.55
427.50	444.19
427.87	454.26
428.24	464.74
428.61	473.26
428.99	484.90
429.36	494.98
429.73	506.10
430.10	517.40
430.47	529.17
430.85	540.07
431.22	553.43
431.59	568.55
431.96	581.40
432.33	595.69
432.70	610.02
433.08	626.12
433.45	642.00
433.82	657.62
434.19	674.83
434.56	691.95
434.93	708.02
435.30	724.43
435.68	742.02
436.05	759.26
436.42	776.76
436.79	793.00
437.16	810.81
437.53	828.71
437.90	847.10
438.27	865.17
438.64	883.38
439.01	900.83
439.38	914.81
439.75	930.40
440.13	947.74
440.50	963.36
440.87	976.69
441.24	990.29
441.61	1005.86
441.98	1017.29
442.35	1030.29
442.72	1043.93
443.09	1057.83
443.46	1065.81
443.83	1071.40
444.20	1075.95
444.57	1081.95
444.94	1085.57
445.31	1090.24
445.68	1096.24
446.05	1098.33
446.42	1097.57
446.79	1096.21
447.16	1094.33
447.53	1092.83
447.90	1086.19
448.27	1079.95
448.64	1071.33
449.01	1065.36
449.37	1053.19
449.74	1041.48
450.11	1029.45
450.48	1013.90
450.85	997.52
451.22	985.26
451.59	973.05
451.96	961.90
452.33	945.88
452.70	931.12
453.07	913.05
453.43	892.86
453.80	875.83
454.17	859.21
454.54	843.21
454.91	826.83
455.28	810.00
455.65	794.52
456.02	782.60
456.38	769.71
456.75	753.86
457.12	740.71
457.49	727.67
457.86	713.21
458.23	703.12
458.59	690.95
458.96	678.17
459.33	667.60
459.70	656.62
460.07	648.26
460.43	638.05
460.80	629.48
461.17	622.14
461.54	613.55
461.91	605.86
462.27	597.43
462.64	589.90
463.01	582.40
463.38	575.90
463.74	564.98
464.11	557.93
464.48	551.67
464.85	545.55
465.21	541.45
465.58	535.83
465.95	529.19
466.32	524.52
466.68	519.05
467.05	513.52
467.42	508.17
467.78	502.60
468.15	498.21
468.52	494.29
468.88	488.48
469.25	483.48
469.62	479.79
469.98	475.48
470.35	471.69
470.72	468.07
471.08	463.05
471.45	460.52
471.82	458.07
472.18	454.76
472.55	451.76
472.92	447.31
473.28	444.60
473.65	441.76
474.02	439.21
474.38	437.38
474.75	435.33
475.11	433.14
475.48	431.43
475.85	429.31
476.21	427.14
476.58	425.90
476.94	424.62
477.31	423.31
477.67	422.48
478.04	421.93
478.41	421.67
478.77	423.29
479.14	422.00
479.50	421.02
479.87	420.86
480.23	420.36
480.60	420.12
480.96	419.60
481.33	420.24
481.69	419.52
482.06	419.64
482.42	420.10
482.79	420.40
483.15	420.33
483.52	421.02
483.88	421.48
484.25	422.14
484.61	422.90
484.98	423.90
485.34	426.07
485.71	427.29
486.07	428.55
486.44	427.95
486.80	429.55
487.17	431.31
487.53	433.57
487.90	435.90
488.26	439.07
488.62	441.86
488.99	443.69
489.35	446.93
489.72	449.43
490.08	452.14
490.44	454.55
490.81	458.19
491.17	461.43
491.54	465.48
491.90	469.12
492.26	472.55
492.63	476.29
492.99	479.21
493.36	483.38
493.72	487.81
494.08	492.50
494.45	497.14
494.81	502.21
495.17	506.40
495.54	511.64
495.90	516.29
496.26	521.57
496.63	527.02
496.99	532.55
497.35	538.33
497.72	544.14
498.08	550.71
498.44	556.52
498.80	563.33
499.17	569.52
499.53	575.60
499.89	583.02
500.26	589.17
500.62	596.19
500.98	603.24
501.34	610.60
501.71	617.90
502.07	625.07
502.43	631.69
502.79	638.98
503.16	646.02
503.52	652.69
503.88	660.00
504.24	667.83
504.60	675.24
504.97	683.40
505.33	691.07
505.69	699.93
506.05	707.83
506.41	715.57
506.78	722.90
507.14	730.67
507.50	738.45
507.86	747.24
508.22	755.31
508.59	762.50
508.95	769.83
509.31	778.64
509.67	786.36
510.03	793.74
510.39	801.86
510.75	810.29
511.12	818.48
511.48	825.83
511.84	833.12
512.20	840.83
512.56	848.29
512.92	856.40
513.28	863.90
513.64	871.62
514.00	879.14
514.37	887.24
514.73	894.67
515.09	902.10
515.45	909.14
515.81	915.81
516.17	923.14
516.53	929.64
516.89	935.69
517.25	942.67
517.61	950.79
517.97	956.83
518.33	962.83
518.69	969.36
519.05	976.79
519.41	984.05
519.77	991.38
520.13	997.55
520.49	1003.43
520.85	1008.67
521.21	1015.21
521.57	1021.71
521.93	1026.79
522.29	1032.64
522.65	1037.74
523.01	1043.71
523.37	1049.55
523.73	1055.29
524.09	1060.88
524.45	1065.48
524.81	1070.12
525.17	1074.62
525.53	1080.26
525.89	1085.62
526.25	1090.86
526.61	1094.86
526.97	1098.74
527.33	1102.98
527.68	1109.17
528.04	1113.81
528.40	1118.52
528.76	1122.55
529.12	1125.90
529.48	1131.98
529.84	1136.48
530.20	1141.19
530.56	1145.31
530.91	1150.17
531.27	1154.12
531.63	1158.62
531.99	1162.36
532.35	1166.00
532.71	1170.38
533.07	1174.76
533.42	1180.62
533.78	1185.24
534.14	1190.33
534.50	1194.40
534.86	1199.79
535.21	1202.19
535.57	1206.79
535.93	1210.29
536.29	1216.24
536.65	1221.05
537.00	1224.60
537.36	1228.43
537.72	1232.00
538.08	1235.95
538.44	1238.33
538.79	1242.02
539.15	1245.95
539.51	1250.93
539.87	1255.14
540.22	1258.86
540.58	1262.14
540.94	1264.07
541.29	1267.26
541.65	1269.67
542.01	1273.55
542.37	1275.07
542.72	1277.69
543.08	1280.07
543.44	1283.74
543.79	1284.71
544.15	1287.50
544.51	1290.98
544.87	1294.57
545.22	1297.67
545.58	1300.33
545.94	1304.12
546.29	1307.62
546.65	1310.33
547.01	1312.74
547.36	1316.02
547.72	1318.67
548.07	1322.36
548.43	1324.83
548.79	1326.45
549.14	1329.60
549.50	1332.33
549.86	1335.55
550.21	1338.90
550.57	1342.40
550.92	1345.45
551.28	1349.05
551.64	1352.26
551.99	1354.76
552.35	1357.57
552.70	1361.31
553.06	1365.64
553.41	1369.26
553.77	1374.29
554.13	1377.83
554.48	1382.67
554.84	1387.29
555.19	1391.98
555.55	1396.79
555.90	1401.38
556.26	1406.74
556.61	1411.21
556.97	1415.07
557.32	1419.43
557.68	1424.24
558.03	1428.48
558.39	1433.00
558.74	1437.10
559.10	1441.10
559.45	1445.71
559.81	1450.64
560.16	1455.00
560.52	1459.07
560.87	1463.88
561.23	1467.67
561.58	1474.52
561.94	1477.71
562.29	1482.79
562.64	1487.98
563.00	1491.74
563.35	1496.48
563.71	1501.52
564.06	1506.21
564.42	1512.21
564.77	1517.86
565.12	1523.71
565.48	1531.62
565.83	1537.71
566.19	1543.71
566.54	1549.29
566.89	1555.21
567.25	1561.48
567.60	1568.86
567.96	1576.36
568.31	1583.45
568.66	1589.12
569.02	1592.29
569.37	1598.43
569.72	1603.64
570.08	1606.98
570.43	1611.43
570.78	1617.12
571.14	1622.45
571.49	1627.60
571.84	1633.02
572.20	1637.62
572.55	1642.67
572.90	1644.52
573.26	1648.45
573.61	1652.10
573.96	1657.02
574.31	1660.05
574.67	1663.98
575.02	1665.86
575.37	1668.05
575.72	1669.00
576.08	1672.64
576.43	1676.45
576.78	1680.48
577.13	1683.00
577.49	1687.05
577.84	1691.81
578.19	1694.60
578.54	1697.76
578.90	1701.93
579.25	1704.76
579.60	1707.17
579.95	1709.05
580.30	1712.67
580.66	1716.14
581.01	1719.19
581.36	1721.95
581.71	1725.19
582.06	1728.57
582.42	1732.19
582.77	1734.81
583.12	1739.00
583.47	1740.93
583.82	1743.52
584.17	1745.88
584.53	1749.74
584.88	1752.36
585.23	1754.76
585.58	1756.79
585.93	1759.29
586.28	1761.60
586.63	1763.76
586.98	1765.88
587.34	1769.10
587.69	1770.93
588.04	1772.33
588.39	1774.74
588.74	1776.38
589.09	1778.29
589.44	1777.74
589.79	1779.14
590.14	1780.12
590.49	1780.86
590.84	1782.24
591.19	1783.88
591.54	1785.21
591.89	1785.21
592.25	1788.26
592.60	1788.14
592.95	1788.86
593.30	1790.02
593.65	1790.05
594.00	1789.60
594.35	1796.93
594.70	1796.19
595.05	1796.17
595.40	1795.76
595.75	1795.74
596.10	1796.90
596.45	1796.29
596.80	1797.98
597.15	1798.45
597.50	1798.62
597.85	1799.02
598.19	1798.48
598.54	1797.95
598.89	1797.40
599.24	1797.95
599.59	1796.40
599.94	1795.71
600.29	1796.07
600.64	1795.12
600.99	1794.05
601.34	1793.71
601.69	1786.60
602.04	1785.33
602.39	1784.45
602.74	1784.24
603.08	1783.14
603.43	1782.48
603.78	1782.33
604.13	1780.98
604.48	1779.52
604.83	1778.90
605.18	1778.71
605.53	1778.29
605.87	1777.26
606.22	1776.02
606.57	1773.50
606.92	1771.55
607.27	1770.57
607.62	1769.31
607.96	1768.40
608.31	1767.90
608.66	1766.60
609.01	1763.86
609.36	1763.38
609.70	1761.60
610.05	1758.19
610.40	1756.00
610.75	1752.12
611.10	1749.86
611.44	1745.88
611.79	1742.55
612.14	1739.45
612.49	1734.69
612.83	1730.33
613.18	1726.71
613.53	1722.17
613.88	1718.88
614.22	1715.76
614.57	1711.26
614.92	1707.36
615.27	1702.62
615.61	1697.26
615.96	1692.79
616.31	1689.33
616.65	1685.12
617.00	1681.29
617.35	1677.48
617.70	1673.21
618.04	1669.07
618.39	1664.05
618.74	1660.48
619.08	1655.86
619.43	1652.02
619.78	1647.31
620.12	1644.29
620.47	1639.98
620.82	1635.14
621.16	1629.40
621.51	1624.12
621.85	1619.81
622.20	1613.76
622.55	1608.24
622.89	1604.24
623.24	1599.83
623.59	1595.45
623.93	1590.79
624.28	1585.29
624.62	1584.36
624.97	1581.05
625.32	1575.67
625.66	1570.64
626.01	1566.36
626.35	1561.71
626.70	1556.29
627.04	1553.48
627.39	1548.05
627.73	1544.19
628.08	1540.86
628.43	1537.64
628.77	1533.40
629.12	1529.26
629.46	1525.45
629.81	1521.48
630.15	1516.26
630.50	1511.38
630.84	1505.36
631.19	1499.79
631.53	1494.48
631.88	1485.60
632.22	1478.74
632.57	1474.12
632.91	1469.57
633.26	1464.05
633.60	1459.12
633.95	1452.69
634.29	1446.21
634.64	1441.40
634.98	1435.00
635.32	1430.31
635.67	1425.38
636.01	1420.29
636.36	1414.21
636.70	1409.69
637.05	1404.02
637.39	1399.10
637.73	1393.71
638.08	1390.00
638.42	1385.12
638.77	1381.50
639.11	1376.43
639.45	1371.36
639.80	1366.19
640.14	1360.29
640.49	1354.36
640.83	1347.79
641.17	1342.81
641.52	1337.43
641.86	1332.00
642.20	1327.64
642.55	1320.81
642.89	1314.98
643.23	1308.29
643.58	1303.98
643.92	1296.88
644.26	1290.81
644.61	1284.83
644.95	1278.67
645.29	1271.60
645.64	1265.31
645.98	1258.31
646.32	1252.26
646.66	1245.29
647.01	1238.21
647.35	1232.29
647.69	1226.14
648.04	1221.33
648.38	1214.57
648.72	1207.62
649.06	1200.45
649.41	1192.38
649.75	1185.60
650.09	1178.60
650.43	1171.95
650.78	1164.02
651.12	1157.05
651.46	1151.00
651.80	1143.98
652.14	1137.98
652.49	1132.36
652.83	1125.12
653.17	1117.79
653.51	1111.02
653.85	1105.26
654.20	1099.02
654.54	1092.02
654.88	1084.71
655.22	1078.38
655.56	1072.64
655.90	1066.67
656.25	1059.83
656.59	1054.33
656.93	1048.38
657.27	1042.57
657.61	1036.05
657.95	1030.02
658.29	1023.62
658.64	1016.95
658.98	1010.55
659.32	1002.95
659.66	995.86
660.00	990.62
660.34	984.79
660.68	978.33
661.02	971.55
661.36	964.43
661.70	958.36
662.05	953.12
662.39	946.90
662.73	941.29
663.07	936.14
663.41	930.40
663.75	924.17
664.09	918.40
664.43	911.55
664.77	905.95
665.11	899.79
665.45	894.55
665.79	888.69
666.13	882.62
666.47	876.98
666.81	871.79
667.15	865.40
667.49	860.17
667.83	855.71
668.17	850.57
668.51	845.79
668.85	840.74
669.19	836.07
669.53	830.05
669.87	824.12
670.21	817.76
670.55	812.31
670.89	807.74
671.23	801.98
671.57	797.12
671.91	791.81
672.25	787.14
672.58	782.86
672.92	777.52
673.26	772.43
673.60	768.00
673.94	762.71
674.28	757.71
674.62	752.93
674.96	747.83
675.30	743.24
675.64	738.24
675.97	732.79
676.31	727.14
676.65	721.90
676.99	717.86
677.33	713.50
677.67	708.90
678.01	703.36
678.34	699.24
678.68	694.81
679.02	690.10
679.36	684.74
679.70	678.83
680.04	674.17
680.37	669.93
680.71	665.05
681.05	660.95
681.39	656.36
681.73	651.43
682.06	646.43
682.40	641.57
682.74	637.69
683.08	634.50
683.42	629.83
683.75	625.98
684.09	620.31
684.43	615.55
684.77	611.21
685.10	606.71
685.44	602.55
685.78	598.17
686.12	593.83
686.45	589.55
686.79	585.88
687.13	582.29
687.46	578.48
687.80	575.29
688.14	570.83
688.48	567.24
688.81	563.29
689.15	560.31
689.49	556.45
689.82	552.36
690.16	547.36
690.50	543.71
690.83	539.64
691.17	536.24
691.51	531.95
691.84	528.43
692.18	524.48
692.52	520.38
692.85	517.05
693.19	514.21
693.52	511.31
693.86	507.31
694.20	503.50
694.53	500.26
694.87	496.00
695.21	492.24
695.54	488.33
695.88	484.60
696.21	479.88
696.55	476.48
696.88	473.45
697.22	469.93
697.56	467.07
697.89	463.69
698.23	460.83
698.56	458.12
698.90	454.95
699.23	452.02
699.57	449.14
699.90	445.71
700.24	442.40
700.58	439.29
700.91	437.05
701.25	435.76
701.58	432.93
701.92	430.67
702.25	428.19
702.59	425.71
702.92	423.38
703.26	421.38
703.59	418.90
703.93	417.95
704.26	416.31
704.60	413.74
704.93	411.29
705.26	408.55
705.60	406.57
705.93	404.02
706.27	402.38
706.60	400.55
706.94	399.00
707.27	396.60
707.61	394.43
707.94	392.05
708.27	388.38
708.61	385.79
708.94	383.69
709.28	381.90
709.61	379.67
709.94	377.74
710.28	375.45
710.61	373.31
710.95	369.69
711.28	368.81
711.61	366.98
711.95	365.86
712.28	364.24
712.61	361.86
712.95	361.17
713.28	360.26
713.61	357.93
713.95	355.95
714.28	354.19
714.61	352.14
714.95	350.29
715.28	348.26
715.61	346.69
715.95	345.02
716.28	342.98
716.61	341.79
716.95	339.93
717.28	338.29
717.61	336.74
717.94	335.10
718.28	331.98
718.61	330.17
718.94	328.29
719.27	326.48
719.61	325.21
719.94	323.10
720.27	320.79
720.60	319.38
720.94	317.95
721.27	316.64
721.60	315.74
721.93	314.31
722.27	313.81
722.60	312.55
722.93	311.07
723.26	310.05
723.59	308.57
723.93	307.74
724.26	306.98
724.59	305.90
724.92	304.86
725.25	304.76
725.59	303.79
725.92	302.69
726.25	301.50
726.58	300.67
726.91	299.67
727.24	298.69
727.57	297.74
727.91	296.17
728.24	295.50
728.57	294.38
728.90	293.79
729.23	292.26
729.56	292.17
729.89	291.24
730.22	290.14
730.55	289.36
730.89	288.26
731.22	286.93
731.55	285.95
731.88	285.19
732.21	283.71
732.54	282.69
732.87	282.14
733.20	281.60
733.53	280.95
733.86	280.26
734.19	279.12
734.52	278.52
734.85	279.21
735.18	278.26
735.51	278.14
735.84	277.60
736.17	277.55
736.50	275.76
736.83	277.33
737.16	276.88
737.49	276.14
737.82	275.38
738.15	275.05
738.48	274.00
738.81	273.31
739.14	272.45
739.47	271.71
739.80	270.83
740.13	270.33
740.46	269.17
740.79	268.12
741.12	267.43
741.45	266.50
741.78	264.88
742.11	264.93
742.44	263.62
742.77	263.24
743.10	262.14
743.43	261.55
743.75	258.93
744.08	260.48
744.41	259.83
744.74	259.17
745.07	258.31
745.40	258.48
745.73	258.98
746.06	258.33
746.39	258.17
746.71	257.48
747.04	256.76
747.37	256.29
747.70	256.31
748.03	256.07
748.36	255.90
748.68	255.24
749.01	253.90
749.34	253.60
749.67	253.10
750.00	253.19
750.33	254.33
750.65	253.93
750.98	251.21
751.31	250.71
751.64	250.64
751.97	251.31
752.29	250.79
752.62	249.36
752.95	249.05
753.28	248.24
753.60	247.83
753.93	248.05
754.26	247.81
754.59	246.93
754.91	246.26
755.24	245.74
755.57	245.33
755.90	245.00
756.22	244.40
756.55	243.45
756.88	242.74
757.20	241.00
757.53	240.21
757.86	239.79
758.19	239.67
758.51	239.12
758.84	237.86
759.17	237.48
759.49	237.00
759.82	237.69
760.15	237.60
760.47	236.90
760.80	235.95
761.13	236.05
761.45	235.64
761.78	235.40
762.11	235.10
762.43	234.79
762.76	234.57
763.08	234.64
763.41	234.81
763.74	234.24
764.06	233.90
764.39	233.86
764.71	233.62
765.04	233.10
765.37	232.81
765.69	232.76
766.02	232.12
766.34	231.88
766.67	230.67
767.00	231.24
767.32	232.40
767.65	233.43
767.97	232.98
768.30	232.81
768.62	232.67
768.95	232.17
769.27	231.90
769.60	231.95
769.92	231.29
770.25	230.55
770.57	230.17
770.90	230.17
771.22	229.71
771.55	229.55
771.87	229.38
772.20	228.90
772.52	230.31
772.85	232.60
773.17	232.55
773.50	232.43
773.82	231.55
774.15	230.50
774.47	228.86
774.80	228.55
775.12	228.26
775.45	228.10
775.77	228.12
776.09	228.05
776.42	227.79
776.74	228.19
777.07	228.10
777.39	228.40
777.72	227.95
778.04	228.00
778.36	227.62
778.69	227.67
779.01	227.79
779.33	225.86
779.66	223.55
779.98	223.14
780.31	223.14
780.63	223.81
780.95	224.05
781.28	224.29
781.60	223.83
781.92	224.05
782.25	223.71
782.57	223.62
782.89	223.21
783.22	222.95
783.54	222.57
783.86	222.69
784.19	222.29
784.51	222.90
784.83	222.43
785.16	222.21
