SpectraSuite Data File
++++++++++++++++++++++++++++++++++++
Date: Tue Apr 02 18:45:16 EDT 2013
User: group
Dark Spectrum Present: No
Reference Spectrum Present: No
Number of Sampled Component Spectra: 1
Spectrometers: USB2E7196
Integration Time (usec): 580000 (USB2E7196)
Spectra Averaged: 2 (USB2E7196)
Boxcar Smoothing: 10 (USB2E7196)
Correct for Electrical Dark: No (USB2E7196)
Strobe/Lamp Enabled: No (USB2E7196)
Correct for Detector Non-linearity: No (USB2E7196)
Correct for Stray Light: No (USB2E7196)
Number of Pixels in Processed Spectrum: 2048
>>>>>Begin Processed Spectral Data<<<<<
339.09	0.00
339.48	201.00
339.86	196.50
340.24	193.50
340.63	198.50
341.01	232.00
341.39	205.00
341.78	209.50
342.16	210.50
342.54	206.50
342.93	199.07
343.31	208.79
343.69	209.07
344.07	209.57
344.46	210.31
344.84	210.88
345.22	209.71
345.60	209.98
345.99	209.83
346.37	209.81
346.75	209.79
347.13	209.62
347.52	209.83
347.90	210.55
348.28	210.52
348.66	210.88
349.05	210.50
349.43	210.67
349.81	211.02
350.19	210.93
350.57	210.88
350.96	211.12
351.34	211.31
351.72	211.31
352.10	211.36
352.48	211.29
352.87	211.12
353.25	211.05
353.63	210.67
354.01	210.98
354.39	211.12
354.77	211.10
355.15	211.55
355.54	211.05
355.92	210.33
356.30	210.45
356.68	211.67
357.06	211.57
357.44	211.24
357.82	211.00
358.20	211.98
358.58	212.00
358.97	212.19
359.35	212.60
359.73	213.14
360.11	213.21
360.49	213.60
360.87	213.79
361.25	214.29
361.63	215.14
362.01	215.14
362.39	214.98
362.77	215.33
363.15	215.45
363.53	215.64
363.91	216.00
364.29	215.74
364.67	213.95
365.05	214.14
365.43	214.67
365.81	215.00
366.19	215.17
366.57	215.76
366.95	215.33
367.33	214.88
367.71	214.74
368.09	215.07
368.47	214.83
368.85	214.83
369.23	215.21
369.61	214.69
369.99	215.12
370.37	215.69
370.75	216.74
371.13	216.17
371.51	215.88
371.89	215.83
372.27	216.10
372.65	216.07
373.03	216.29
373.41	216.00
373.78	215.93
374.16	214.76
374.54	214.19
374.92	214.12
375.30	214.45
375.68	214.07
376.06	214.24
376.44	214.21
376.82	214.21
377.19	214.00
377.57	213.81
377.95	213.36
378.33	212.86
378.71	211.60
379.09	211.88
379.47	212.14
379.84	212.00
380.22	211.74
380.60	211.74
380.98	211.52
381.36	211.69
381.73	211.29
382.11	211.76
382.49	212.00
382.87	211.74
383.25	211.71
383.62	214.21
384.00	213.76
384.38	213.71
384.76	214.21
385.13	214.98
385.51	215.12
385.89	214.83
386.27	214.95
386.64	215.14
387.02	215.12
387.40	215.00
387.78	215.00
388.15	215.29
388.53	214.98
388.91	214.95
389.29	214.81
389.66	215.10
390.04	214.71
390.42	215.02
390.79	215.40
391.17	215.38
391.55	213.21
391.92	213.21
392.30	213.69
392.68	213.12
393.05	212.93
393.43	213.07
393.81	213.31
394.18	212.79
394.56	213.00
394.94	213.26
395.31	213.17
395.69	213.88
396.06	214.07
396.44	214.36
396.82	214.29
397.19	215.29
397.57	215.29
397.95	216.05
398.32	215.36
398.70	215.60
399.07	215.93
399.45	215.74
399.82	215.76
400.20	215.19
400.58	215.14
400.95	214.36
401.33	214.81
401.70	216.36
402.08	216.83
402.45	216.74
402.83	217.26
403.20	217.48
403.58	217.31
403.95	217.76
404.33	218.19
404.71	218.52
405.08	219.60
405.46	219.64
405.83	219.71
406.21	220.29
406.58	220.52
406.96	220.93
407.33	221.52
407.70	222.40
408.08	224.86
408.45	226.02
408.83	227.02
409.20	227.40
409.58	226.69
409.95	228.00
410.33	228.90
410.70	229.19
411.08	230.45
411.45	231.43
411.82	232.31
412.20	233.98
412.57	236.38
412.95	236.14
413.32	238.26
413.69	239.55
414.07	241.17
414.44	243.02
414.82	244.90
415.19	247.17
415.56	249.17
415.94	250.64
416.31	253.50
416.68	256.05
417.06	259.43
417.43	263.05
417.81	266.40
418.18	270.31
418.55	274.07
418.93	277.69
419.30	282.07
419.67	286.43
420.04	290.62
420.42	294.98
420.79	302.07
421.16	307.40
421.54	314.31
421.91	320.62
422.28	326.83
422.66	333.33
423.03	341.36
423.40	348.21
423.77	354.93
424.15	361.76
424.52	369.76
424.89	377.64
425.26	385.31
425.64	393.19
426.01	400.95
426.38	410.05
426.75	420.02
427.13	429.26
427.50	438.71
427.87	448.76
428.24	458.57
428.61	467.12
428.99	478.50
429.36	489.12
429.73	500.29
430.10	511.79
430.47	523.26
430.85	533.43
431.22	546.33
431.59	561.52
431.96	574.29
432.33	588.24
432.70	602.19
433.08	617.55
433.45	632.14
433.82	647.36
434.19	664.02
434.56	680.50
434.93	696.07
435.30	711.45
435.68	729.00
436.05	746.21
436.42	763.17
436.79	778.79
437.16	795.38
437.53	812.24
437.90	829.76
438.27	847.50
438.64	865.93
439.01	882.55
439.38	896.19
439.75	910.95
440.13	927.57
440.50	943.50
440.87	956.79
441.24	970.38
441.61	985.24
441.98	995.79
442.35	1007.57
442.72	1020.05
443.09	1034.31
443.46	1041.45
443.83	1046.43
444.20	1051.07
444.57	1057.17
444.94	1061.17
445.31	1066.07
445.68	1071.31
446.05	1072.81
446.42	1071.88
446.79	1070.76
447.16	1067.93
447.53	1067.36
447.90	1061.10
448.27	1054.14
448.64	1045.98
449.01	1039.71
449.37	1028.55
449.74	1018.31
450.11	1007.40
450.48	993.10
450.85	977.00
451.22	964.90
451.59	953.07
451.96	941.64
452.33	926.17
452.70	911.81
453.07	893.98
453.43	874.81
453.80	858.12
454.17	841.52
454.54	825.83
454.91	810.24
455.28	794.12
455.65	779.00
456.02	767.74
456.38	755.00
456.75	739.45
457.12	726.14
457.49	712.76
457.86	698.43
458.23	688.26
458.59	676.45
458.96	664.76
459.33	654.50
459.70	643.83
460.07	635.31
460.43	625.55
460.80	617.26
461.17	610.19
461.54	602.52
461.91	595.00
462.27	586.90
462.64	579.83
463.01	571.98
463.38	566.12
463.74	555.76
464.11	548.81
464.48	542.98
464.85	536.90
465.21	532.48
465.58	527.21
465.95	520.86
466.32	516.24
466.68	510.88
467.05	505.90
467.42	500.86
467.78	495.67
468.15	490.36
468.52	486.90
468.88	481.36
469.25	476.57
469.62	472.90
469.98	469.12
470.35	465.52
470.72	462.21
471.08	456.83
471.45	454.00
471.82	451.38
472.18	448.00
472.55	445.76
472.92	442.10
473.28	439.21
473.65	436.07
474.02	433.12
474.38	430.93
474.75	428.79
475.11	426.40
475.48	424.74
475.85	423.52
476.21	421.26
476.58	419.90
476.94	418.74
477.31	417.62
477.67	416.69
478.04	415.86
478.41	414.88
478.77	416.55
479.14	415.33
479.50	414.81
479.87	414.74
480.23	414.07
480.60	413.88
480.96	413.86
481.33	415.10
481.69	415.26
482.06	415.43
482.42	415.52
482.79	416.50
483.15	416.64
483.52	417.60
483.88	418.33
484.25	418.76
484.61	419.48
484.98	420.31
485.34	421.79
485.71	423.17
486.07	424.76
486.44	424.62
486.80	426.48
487.17	427.62
487.53	430.12
487.90	432.67
488.26	435.69
488.62	438.48
488.99	440.24
489.35	442.98
489.72	445.36
490.08	448.14
490.44	450.33
490.81	454.07
491.17	456.64
491.54	459.86
491.90	464.02
492.26	467.36
492.63	470.98
492.99	474.33
493.36	478.33
493.72	482.07
494.08	486.21
494.45	490.74
494.81	496.19
495.17	500.40
495.54	505.21
495.90	509.69
496.26	514.60
496.63	519.93
496.99	524.90
497.35	530.62
497.72	536.31
498.08	542.33
498.44	548.24
498.80	555.12
499.17	561.14
499.53	567.33
499.89	574.38
500.26	581.05
500.62	587.98
500.98	595.40
501.34	603.07
501.71	610.67
502.07	617.55
502.43	624.24
502.79	631.17
503.16	638.12
503.52	645.43
503.88	652.90
504.24	660.38
504.60	668.38
504.97	676.26
505.33	683.52
505.69	692.24
506.05	699.62
506.41	706.67
506.78	714.29
507.14	721.93
507.50	729.40
507.86	737.60
508.22	745.36
508.59	752.31
508.95	760.17
509.31	768.36
509.67	776.74
510.03	784.38
510.39	792.52
510.75	799.95
511.12	807.40
511.48	815.02
511.84	822.79
512.20	830.36
512.56	837.88
512.92	846.19
513.28	853.83
513.64	861.31
514.00	869.29
514.37	876.88
514.73	884.14
515.09	892.00
515.45	899.21
515.81	906.29
516.17	913.88
516.53	920.48
516.89	925.98
517.25	931.62
517.61	938.50
517.97	944.40
518.33	950.26
518.69	957.10
519.05	963.31
519.41	969.67
519.77	976.31
520.13	982.76
520.49	987.95
520.85	992.71
521.21	999.57
521.57	1005.69
521.93	1010.95
522.29	1015.81
522.65	1019.86
523.01	1025.12
523.37	1029.79
523.73	1034.83
524.09	1039.71
524.45	1044.60
524.81	1049.55
525.17	1054.21
525.53	1058.81
525.89	1064.71
526.25	1069.50
526.61	1073.98
526.97	1077.76
527.33	1082.55
527.68	1087.95
528.04	1092.40
528.40	1096.14
528.76	1098.95
529.12	1102.40
529.48	1107.64
529.84	1112.10
530.20	1117.62
530.56	1121.81
530.91	1126.55
531.27	1129.90
531.63	1134.05
531.99	1137.83
532.35	1141.74
532.71	1145.48
533.07	1150.21
533.42	1156.21
533.78	1160.19
534.14	1164.10
534.50	1168.21
534.86	1172.02
535.21	1174.17
535.57	1178.81
535.93	1182.69
536.29	1188.17
536.65	1192.69
537.00	1195.21
537.36	1198.86
537.72	1201.86
538.08	1205.43
538.44	1208.24
538.79	1212.00
539.15	1214.43
539.51	1218.21
539.87	1222.00
540.22	1225.62
540.58	1228.67
540.94	1229.21
541.29	1232.33
541.65	1234.60
542.01	1237.69
542.37	1239.69
542.72	1242.17
543.08	1243.36
543.44	1246.31
543.79	1246.38
544.15	1248.50
544.51	1252.02
544.87	1255.05
545.22	1258.31
545.58	1260.26
545.94	1262.90
546.29	1265.76
546.65	1268.86
547.01	1271.74
547.36	1274.50
547.72	1277.19
548.07	1280.12
548.43	1282.71
548.79	1284.86
549.14	1287.14
549.50	1290.19
549.86	1292.36
550.21	1295.83
550.57	1300.07
550.92	1302.43
551.28	1306.55
551.64	1309.05
551.99	1312.14
552.35	1314.40
552.70	1316.88
553.06	1320.95
553.41	1324.10
553.77	1328.17
554.13	1331.90
554.48	1335.17
554.84	1338.95
555.19	1342.36
555.55	1347.07
555.90	1350.67
556.26	1353.93
556.61	1358.17
556.97	1360.79
557.32	1364.45
557.68	1367.17
558.03	1370.05
558.39	1374.88
558.74	1379.02
559.10	1383.10
559.45	1387.07
559.81	1392.48
560.16	1396.48
560.52	1400.36
560.87	1404.40
561.23	1407.50
561.58	1412.98
561.94	1417.33
562.29	1421.62
562.64	1426.19
563.00	1428.83
563.35	1433.62
563.71	1439.14
564.06	1444.81
564.42	1450.24
564.77	1456.50
565.12	1462.57
565.48	1470.40
565.83	1475.57
566.19	1481.48
566.54	1487.21
566.89	1492.19
567.25	1497.10
567.60	1503.43
567.96	1510.93
568.31	1518.14
568.66	1525.93
569.02	1529.95
569.37	1535.21
569.72	1540.50
570.08	1545.17
570.43	1550.67
570.78	1556.79
571.14	1562.57
571.49	1567.24
571.84	1573.62
572.20	1578.26
572.55	1582.86
572.90	1585.98
573.26	1590.36
573.61	1593.43
573.96	1598.43
574.31	1602.81
574.67	1606.69
575.02	1609.17
575.37	1610.50
575.72	1613.74
576.08	1616.10
576.43	1620.93
576.78	1624.69
577.13	1628.60
577.49	1633.57
577.84	1637.95
578.19	1641.64
578.54	1645.36
578.90	1649.60
579.25	1652.86
579.60	1656.29
579.95	1659.64
580.30	1663.55
580.66	1667.57
581.01	1671.79
581.36	1675.00
581.71	1678.19
582.06	1683.52
582.42	1688.76
582.77	1692.17
583.12	1695.57
583.47	1699.17
583.82	1701.71
584.17	1705.29
584.53	1709.69
584.88	1712.38
585.23	1715.88
585.58	1718.38
585.93	1720.67
586.28	1723.17
586.63	1725.33
586.98	1728.93
587.34	1733.31
587.69	1735.76
588.04	1737.95
588.39	1740.00
588.74	1741.64
589.09	1745.60
589.44	1745.55
589.79	1747.69
590.14	1750.14
590.49	1752.02
590.84	1752.81
591.19	1755.60
591.54	1757.45
591.89	1757.45
592.25	1760.74
592.60	1760.55
592.95	1762.10
593.30	1764.07
593.65	1764.19
594.00	1765.10
594.35	1771.55
594.70	1770.88
595.05	1771.50
595.40	1773.12
595.75	1774.40
596.10	1775.67
596.45	1775.55
596.80	1777.50
597.15	1777.45
597.50	1778.24
597.85	1778.98
598.19	1780.05
598.54	1779.48
598.89	1780.45
599.24	1781.95
599.59	1781.38
599.94	1782.67
600.29	1783.69
600.64	1782.71
600.99	1783.69
601.34	1784.76
601.69	1779.19
602.04	1779.29
602.39	1779.07
602.74	1779.67
603.08	1779.26
603.43	1779.86
603.78	1778.79
604.13	1778.10
604.48	1777.57
604.83	1777.29
605.18	1777.86
605.53	1778.21
605.87	1777.95
606.22	1776.64
606.57	1775.38
606.92	1773.69
607.27	1772.60
607.62	1770.67
607.96	1770.76
608.31	1770.12
608.66	1768.79
609.01	1766.76
609.36	1766.45
609.70	1764.38
610.05	1761.29
610.40	1760.02
610.75	1756.90
611.10	1755.67
611.44	1752.60
611.79	1750.52
612.14	1748.10
612.49	1743.83
612.83	1741.10
613.18	1737.74
613.53	1734.67
613.88	1730.60
614.22	1726.93
614.57	1723.45
614.92	1719.81
615.27	1715.36
615.61	1711.05
615.96	1707.79
616.31	1704.74
616.65	1701.45
617.00	1699.48
617.35	1696.90
617.70	1694.71
618.04	1691.33
618.39	1687.69
618.74	1684.52
619.08	1681.71
619.43	1678.00
619.78	1676.07
620.12	1671.83
620.47	1669.26
620.82	1665.43
621.16	1662.05
621.51	1659.88
621.85	1656.17
622.20	1652.86
622.55	1649.95
622.89	1647.31
623.24	1643.64
623.59	1639.95
623.93	1635.81
624.28	1631.00
624.62	1628.69
624.97	1624.05
625.32	1620.71
625.66	1616.26
626.01	1612.81
626.35	1608.48
626.70	1605.24
627.04	1600.45
627.39	1596.48
627.73	1592.95
628.08	1588.69
628.43	1585.74
628.77	1580.86
629.12	1577.74
629.46	1575.43
629.81	1571.26
630.15	1566.50
630.50	1561.19
630.84	1556.19
631.19	1551.10
631.53	1546.57
631.88	1539.79
632.22	1534.83
632.57	1530.79
632.91	1526.29
633.26	1522.33
633.60	1517.26
633.95	1511.74
634.29	1506.48
634.64	1502.57
634.98	1496.67
635.32	1494.33
635.67	1489.86
636.01	1486.05
636.36	1480.79
636.70	1475.93
637.05	1471.26
637.39	1467.60
637.73	1463.48
638.08	1460.12
638.42	1455.76
638.77	1451.76
639.11	1447.57
639.45	1442.48
639.80	1436.31
640.14	1431.69
640.49	1426.60
640.83	1421.12
641.17	1416.93
641.52	1412.21
641.86	1406.40
642.20	1402.48
642.55	1395.64
642.89	1389.69
643.23	1383.64
643.58	1378.88
643.92	1372.17
644.26	1367.00
644.61	1361.45
644.95	1356.24
645.29	1350.17
645.64	1344.69
645.98	1339.33
646.32	1334.10
646.66	1328.26
647.01	1322.86
647.35	1317.69
647.69	1311.07
648.04	1305.98
648.38	1300.21
648.72	1294.98
649.06	1289.45
649.41	1283.14
649.75	1276.33
650.09	1271.17
650.43	1265.38
650.78	1258.76
651.12	1251.95
651.46	1245.43
651.80	1238.88
652.14	1232.48
652.49	1227.14
652.83	1220.83
653.17	1214.12
653.51	1207.76
653.85	1201.93
654.20	1196.17
654.54	1189.55
654.88	1183.38
655.22	1177.26
655.56	1170.60
655.90	1164.17
656.25	1157.90
656.59	1151.00
656.93	1146.05
657.27	1140.19
657.61	1134.29
657.95	1129.19
658.29	1123.67
658.64	1117.71
658.98	1111.26
659.32	1104.81
659.66	1097.31
660.00	1091.71
660.34	1085.17
660.68	1078.60
661.02	1072.40
661.36	1066.07
661.70	1060.45
662.05	1055.31
662.39	1050.05
662.73	1044.52
663.07	1039.83
663.41	1033.79
663.75	1028.17
664.09	1022.10
664.43	1016.02
664.77	1009.90
665.11	1003.17
665.45	997.31
665.79	991.40
666.13	985.62
666.47	980.10
666.81	975.17
667.15	969.31
667.49	964.26
667.83	958.86
668.17	953.12
668.51	947.93
668.85	942.31
669.19	937.26
669.53	930.81
669.87	924.93
670.21	918.40
670.55	912.36
670.89	908.00
671.23	902.95
671.57	896.67
671.91	891.19
672.25	885.83
672.58	881.81
672.92	876.45
673.26	871.33
673.60	865.79
673.94	860.24
674.28	855.05
674.62	849.74
674.96	844.45
675.30	839.71
675.64	834.12
675.97	828.81
676.31	822.90
676.65	817.79
676.99	813.88
677.33	807.95
677.67	803.88
678.01	797.76
678.34	792.38
678.68	788.52
679.02	783.10
679.36	778.10
679.70	772.10
680.04	767.62
680.37	762.29
680.71	757.83
681.05	753.26
681.39	747.95
681.73	743.21
682.06	738.40
682.40	733.57
682.74	729.21
683.08	724.98
683.42	719.88
683.75	715.71
684.09	709.64
684.43	705.55
684.77	700.40
685.10	696.43
685.44	691.81
685.78	685.74
686.12	681.50
686.45	677.17
686.79	672.12
687.13	667.60
687.46	663.57
687.80	659.43
688.14	654.67
688.48	651.21
688.81	647.00
689.15	643.45
689.49	638.88
689.82	634.36
690.16	628.81
690.50	624.33
690.83	619.29
691.17	614.83
691.51	610.48
691.84	606.21
692.18	601.40
692.52	597.26
692.85	593.86
693.19	590.93
693.52	587.02
693.86	582.93
694.20	578.33
694.53	574.02
694.87	569.48
695.21	565.17
695.54	560.81
695.88	556.71
696.21	551.36
696.55	547.14
696.88	543.33
697.22	540.05
697.56	537.36
697.89	534.07
698.23	530.88
698.56	527.07
698.90	523.76
699.23	520.02
699.57	516.50
699.90	512.67
700.24	508.02
700.58	504.57
700.91	501.74
701.25	500.00
701.58	497.86
701.92	495.14
702.25	492.12
702.59	488.38
702.92	484.93
703.26	482.33
703.59	479.43
703.93	478.14
704.26	475.00
704.60	471.33
704.93	468.10
705.26	465.14
705.60	462.83
705.93	459.48
706.27	457.17
706.60	454.64
706.94	453.10
707.27	449.83
707.61	447.02
707.94	444.02
708.27	440.10
708.61	436.38
708.94	433.38
709.28	430.86
709.61	428.40
709.94	426.40
710.28	423.95
710.61	421.50
710.95	417.00
711.28	416.43
711.61	413.88
711.95	411.79
712.28	409.07
712.61	406.14
712.95	405.05
713.28	403.62
713.61	401.10
713.95	397.90
714.28	395.88
714.61	393.31
714.95	391.07
715.28	388.26
715.61	385.98
715.95	384.05
716.28	381.76
716.61	380.33
716.95	377.57
717.28	375.07
717.61	373.10
717.94	371.00
718.28	366.88
718.61	365.05
718.94	363.00
719.27	360.88
719.61	358.98
719.94	356.29
720.27	353.19
720.60	351.12
720.94	349.19
721.27	347.74
721.60	346.29
721.93	344.76
722.27	343.71
722.60	342.26
722.93	340.26
723.26	338.76
723.59	336.74
723.93	335.36
724.26	334.29
724.59	332.69
724.92	331.64
725.25	330.95
725.59	329.81
725.92	328.71
726.25	327.55
726.58	326.24
726.91	324.69
727.24	323.74
727.57	322.79
727.91	321.14
728.24	320.05
728.57	318.67
728.90	317.71
729.23	315.98
729.56	315.86
729.89	315.07
730.22	313.81
730.55	312.38
730.89	311.29
731.22	310.07
731.55	308.86
731.88	307.64
732.21	306.21
732.54	304.86
732.87	303.60
733.20	302.71
733.53	301.81
733.86	301.24
734.19	299.86
734.52	299.00
734.85	299.86
735.18	298.69
735.51	298.38
735.84	297.43
736.17	297.14
736.50	294.83
736.83	295.98
737.16	295.26
737.49	294.57
737.82	293.62
738.15	292.95
738.48	292.07
738.81	291.10
739.14	290.24
739.47	289.21
739.80	288.40
740.13	287.76
740.46	286.57
740.79	285.07
741.12	284.12
741.45	282.83
741.78	280.81
742.11	280.52
742.44	279.17
742.77	278.64
743.10	277.50
743.43	276.95
743.75	274.26
744.08	275.95
744.41	274.74
744.74	273.86
745.07	272.74
745.40	272.36
745.73	272.62
746.06	272.05
746.39	271.71
746.71	270.81
747.04	269.57
747.37	268.81
747.70	268.55
748.03	268.19
748.36	267.83
748.68	267.17
749.01	265.86
749.34	265.24
749.67	264.62
750.00	264.40
750.33	265.38
750.65	264.83
750.98	261.50
751.31	261.45
751.64	261.21
751.97	262.29
752.29	261.83
752.62	260.19
752.95	259.60
753.28	258.62
753.60	258.24
753.93	258.52
754.26	258.40
754.59	257.31
754.91	256.45
755.24	255.88
755.57	255.14
755.90	254.81
756.22	254.14
756.55	253.14
756.88	252.36
757.20	250.50
757.53	249.38
757.86	249.10
758.19	248.52
758.51	247.93
758.84	246.00
759.17	245.02
759.49	244.64
759.82	244.98
760.15	244.90
760.47	244.21
760.80	243.26
761.13	243.05
761.45	242.88
761.78	242.60
762.11	242.05
762.43	241.67
762.76	241.19
763.08	241.05
763.41	241.07
763.74	240.81
764.06	240.40
764.39	240.19
764.71	239.98
765.04	239.36
765.37	238.90
765.69	238.67
766.02	238.52
766.34	238.19
766.67	237.02
767.00	237.05
767.32	237.93
767.65	238.67
767.97	238.10
768.30	237.86
768.62	237.67
768.95	237.24
769.27	236.90
769.60	236.95
769.92	236.40
770.25	235.62
770.57	234.95
770.90	234.62
771.22	234.05
771.55	233.90
771.87	234.12
772.20	234.05
772.52	235.48
772.85	237.60
773.17	237.48
773.50	237.31
773.82	236.81
774.15	235.52
774.47	234.17
774.80	233.76
775.12	233.76
775.45	233.55
775.77	233.52
776.09	233.43
776.42	233.17
776.74	233.52
777.07	233.43
777.39	233.40
777.72	233.12
778.04	233.36
778.36	232.74
778.69	232.45
779.01	232.24
779.33	230.29
779.66	227.71
779.98	227.50
780.31	227.14
780.63	227.74
780.95	227.88
781.28	227.76
781.60	227.64
781.92	227.29
782.25	227.33
782.57	227.14
782.89	226.86
783.22	226.74
783.54	226.17
783.86	226.21
784.19	225.93
784.51	226.57
784.83	226.10
