SpectraSuite Data File
++++++++++++++++++++++++++++++++++++
Date: Tue Apr 02 18:37:26 EDT 2013
User: group
Dark Spectrum Present: No
Reference Spectrum Present: No
Number of Sampled Component Spectra: 1
Spectrometers: USB2E7196
Integration Time (usec): 580000 (USB2E7196)
Spectra Averaged: 2 (USB2E7196)
Boxcar Smoothing: 10 (USB2E7196)
Correct for Electrical Dark: No (USB2E7196)
Strobe/Lamp Enabled: No (USB2E7196)
Correct for Detector Non-linearity: No (USB2E7196)
Correct for Stray Light: No (USB2E7196)
Number of Pixels in Processed Spectrum: 2048
>>>>>Begin Processed Spectral Data<<<<<
339.09	0.00
339.48	191.50
339.86	191.00
340.24	194.00
340.63	197.50
341.01	231.00
341.39	203.50
341.78	209.50
342.16	207.50
342.54	201.50
342.93	195.52
343.31	205.40
343.69	206.19
344.07	206.81
344.46	207.67
344.84	208.33
345.22	207.24
345.60	207.62
345.99	207.74
346.37	207.83
346.75	208.14
347.13	208.19
347.52	208.52
347.90	209.38
348.28	209.31
348.66	209.67
349.05	209.24
349.43	209.57
349.81	210.05
350.19	210.29
350.57	210.60
350.96	211.21
351.34	211.45
351.72	211.57
352.10	211.81
352.48	211.62
352.87	211.50
353.25	211.64
353.63	211.69
354.01	211.57
354.39	211.83
354.77	212.07
355.15	212.79
355.54	212.67
355.92	212.19
356.30	212.74
356.68	214.43
357.06	214.57
357.44	214.26
357.82	214.19
358.20	215.14
358.58	215.10
358.97	214.95
359.35	215.38
359.73	215.86
360.11	216.02
360.49	216.24
360.87	216.24
361.25	216.45
361.63	216.81
362.01	217.12
362.39	216.98
362.77	217.12
363.15	217.00
363.53	217.10
363.91	217.21
364.29	217.10
364.67	214.95
365.05	215.00
365.43	215.55
365.81	215.76
366.19	215.76
366.57	216.69
366.95	216.79
367.33	216.29
367.71	216.07
368.09	216.38
368.47	216.57
368.85	216.52
369.23	217.02
369.61	216.60
369.99	217.36
370.37	217.71
370.75	218.60
371.13	218.19
371.51	218.10
371.89	218.26
372.27	218.31
372.65	218.50
373.03	218.57
373.41	218.26
373.78	218.26
374.16	217.26
374.54	216.52
374.92	216.45
375.30	216.52
375.68	216.24
376.06	216.36
376.44	215.93
376.82	216.12
377.19	215.67
377.57	215.45
377.95	214.57
378.33	214.07
378.71	212.83
379.09	213.10
379.47	213.21
379.84	213.07
380.22	213.05
380.60	212.79
380.98	212.81
381.36	212.79
381.73	212.45
382.11	212.76
382.49	212.93
382.87	212.36
383.25	212.36
383.62	214.57
384.00	213.93
384.38	214.07
384.76	214.57
385.13	215.64
385.51	215.79
385.89	215.45
386.27	215.64
386.64	215.83
387.02	215.64
387.40	215.43
387.78	215.52
388.15	215.52
388.53	215.50
388.91	215.43
389.29	215.21
389.66	215.45
390.04	215.19
390.42	215.21
390.79	215.71
391.17	215.60
391.55	213.55
391.92	213.69
392.30	213.90
392.68	213.45
393.05	213.00
393.43	213.10
393.81	213.52
394.18	213.40
394.56	213.57
394.94	214.00
395.31	213.76
395.69	214.33
396.06	214.52
396.44	214.60
396.82	214.38
397.19	215.62
397.57	215.33
397.95	215.74
398.32	215.45
398.70	215.48
399.07	216.07
399.45	215.90
399.82	215.74
400.20	215.50
400.58	215.48
400.95	214.76
401.33	215.07
401.70	216.48
402.08	216.64
402.45	216.86
402.83	217.43
403.20	217.98
403.58	217.86
403.95	218.26
404.33	219.00
404.71	219.31
405.08	220.43
405.46	221.00
405.83	221.43
406.21	221.83
406.58	222.19
406.96	222.33
407.33	223.17
407.70	224.24
408.08	226.38
408.45	227.21
408.83	228.52
409.20	229.24
409.58	228.83
409.95	230.21
410.33	231.14
410.70	231.38
411.08	232.43
411.45	233.45
411.82	234.55
412.20	236.00
412.57	238.74
412.95	238.45
413.32	240.12
413.69	241.45
414.07	243.12
414.44	245.29
414.82	247.64
415.19	250.57
415.56	252.98
415.94	254.83
416.31	258.38
416.68	261.81
417.06	265.48
417.43	269.57
417.81	273.43
418.18	277.52
418.55	282.14
418.93	287.02
419.30	292.07
419.67	297.14
420.04	302.57
420.42	307.29
420.79	315.48
421.16	321.93
421.54	330.26
421.91	337.67
422.28	344.79
422.66	352.55
423.03	361.43
423.40	369.52
423.77	377.98
424.15	385.95
424.52	394.50
424.89	404.57
425.26	413.50
425.64	422.45
426.01	432.52
426.38	442.83
426.75	454.17
427.13	464.90
427.50	476.55
427.87	488.52
428.24	500.38
428.61	510.60
428.99	524.14
429.36	536.71
429.73	550.26
430.10	563.31
430.47	577.31
430.85	590.17
431.22	605.24
431.59	622.60
431.96	638.29
432.33	655.19
432.70	671.57
433.08	691.21
433.45	709.57
433.82	727.19
434.19	748.45
434.56	768.31
434.93	787.64
435.30	806.71
435.68	827.98
436.05	849.10
436.42	870.05
436.79	889.33
437.16	910.74
437.53	932.36
437.90	954.45
438.27	976.00
438.64	997.76
439.01	1018.64
439.38	1036.05
439.75	1053.69
440.13	1074.48
440.50	1093.64
440.87	1109.02
441.24	1125.88
441.61	1144.64
441.98	1156.95
442.35	1170.57
442.72	1186.19
443.09	1201.76
443.46	1210.60
443.83	1216.86
444.20	1223.24
444.57	1230.60
444.94	1233.40
445.31	1238.14
445.68	1245.10
446.05	1247.60
446.42	1246.69
446.79	1245.21
447.16	1242.71
447.53	1241.98
447.90	1233.76
448.27	1225.76
448.64	1215.33
449.01	1207.57
449.37	1194.17
449.74	1181.10
450.11	1168.55
450.48	1151.26
450.85	1133.67
451.22	1119.02
451.59	1105.14
451.96	1090.69
452.33	1072.43
452.70	1056.21
453.07	1035.26
453.43	1012.29
453.80	992.14
454.17	973.12
454.54	955.17
454.91	936.07
455.28	917.05
455.65	899.12
456.02	885.24
456.38	869.93
456.75	851.21
457.12	835.19
457.49	819.81
457.86	802.74
458.23	790.43
458.59	776.02
458.96	761.74
459.33	748.98
459.70	736.40
460.07	726.36
460.43	714.40
460.80	704.62
461.17	695.31
461.54	685.12
461.91	675.00
462.27	664.93
462.64	656.55
463.01	646.95
463.38	640.10
463.74	627.83
464.11	620.10
464.48	613.31
464.85	605.79
465.21	600.90
465.58	595.33
465.95	587.76
466.32	581.40
466.68	575.19
467.05	569.43
467.42	563.14
467.78	556.71
468.15	550.90
468.52	546.48
468.88	540.26
469.25	534.64
469.62	531.12
469.98	526.33
470.35	522.31
470.72	518.29
471.08	512.69
471.45	509.36
471.82	506.48
472.18	501.95
472.55	499.19
472.92	494.45
473.28	490.74
473.65	487.38
474.02	484.19
474.38	481.26
474.75	478.69
475.11	476.07
475.48	474.40
475.85	472.81
476.21	470.76
476.58	469.43
476.94	468.14
477.31	466.36
477.67	465.02
478.04	463.45
478.41	463.21
478.77	464.79
479.14	463.48
479.50	462.14
479.87	462.33
480.23	462.29
480.60	462.71
480.96	462.79
481.33	463.76
481.69	464.26
482.06	465.12
482.42	465.95
482.79	466.74
483.15	466.93
483.52	468.05
483.88	468.31
484.25	468.93
484.61	470.29
484.98	471.67
485.34	473.88
485.71	476.29
486.07	477.62
486.44	477.45
486.80	479.81
487.17	482.45
487.53	485.48
487.90	488.31
488.26	491.79
488.62	494.95
488.99	497.31
489.35	501.00
489.72	504.14
490.08	507.90
490.44	511.79
490.81	515.93
491.17	520.05
491.54	524.90
491.90	530.02
492.26	534.88
492.63	539.83
492.99	544.33
493.36	549.60
493.72	555.36
494.08	561.12
494.45	567.55
494.81	574.52
495.17	580.81
495.54	587.57
495.90	593.67
496.26	600.76
496.63	608.00
496.99	614.48
497.35	621.98
497.72	629.17
498.08	636.24
498.44	643.90
498.80	652.69
499.17	660.93
499.53	669.17
499.89	678.36
500.26	687.43
500.62	696.07
500.98	705.45
501.34	714.02
501.71	723.50
502.07	732.26
502.43	741.31
502.79	749.86
503.16	758.88
503.52	768.33
503.88	777.36
504.24	787.02
504.60	797.52
504.97	808.07
505.33	818.17
505.69	829.86
506.05	840.33
506.41	850.67
506.78	860.52
507.14	870.33
507.50	880.00
507.86	890.00
508.22	900.86
508.59	910.05
508.95	921.38
509.31	932.95
509.67	943.29
510.03	952.67
510.39	963.14
510.75	973.17
511.12	983.29
511.48	993.45
511.84	1004.24
512.20	1013.69
512.56	1023.43
512.92	1033.36
513.28	1042.81
513.64	1052.83
514.00	1061.67
514.37	1071.52
514.73	1081.38
515.09	1091.40
515.45	1100.64
515.81	1109.60
516.17	1118.50
516.53	1126.48
516.89	1133.74
517.25	1142.62
517.61	1152.12
517.97	1160.62
518.33	1168.29
518.69	1177.10
519.05	1185.57
519.41	1193.83
519.77	1203.31
520.13	1211.17
520.49	1217.86
520.85	1224.88
521.21	1232.57
521.57	1239.14
521.93	1245.26
522.29	1253.02
522.65	1259.29
523.01	1266.38
523.37	1271.93
523.73	1278.57
524.09	1285.69
524.45	1291.52
524.81	1297.00
525.17	1302.40
525.53	1307.21
525.89	1313.50
526.25	1319.29
526.61	1323.26
526.97	1327.29
527.33	1331.12
527.68	1337.38
528.04	1342.19
528.40	1346.38
528.76	1349.83
529.12	1355.12
529.48	1360.12
529.84	1363.12
530.20	1367.43
530.56	1370.95
530.91	1375.50
531.27	1379.40
531.63	1382.29
531.99	1385.62
532.35	1389.12
532.71	1391.86
533.07	1396.62
533.42	1402.36
533.78	1404.76
534.14	1409.05
534.50	1411.86
534.86	1415.33
535.21	1416.00
535.57	1419.76
535.93	1422.12
536.29	1426.12
536.65	1428.74
537.00	1430.50
537.36	1432.67
537.72	1434.33
538.08	1436.14
538.44	1437.88
538.79	1439.60
539.15	1441.07
539.51	1443.79
539.87	1446.00
540.22	1448.40
540.58	1450.43
540.94	1449.40
541.29	1450.90
541.65	1450.81
542.01	1452.69
542.37	1452.76
542.72	1452.69
543.08	1452.07
543.44	1453.26
543.79	1451.50
544.15	1451.95
544.51	1453.14
544.87	1452.76
545.22	1453.71
545.58	1453.62
545.94	1452.98
546.29	1452.64
546.65	1452.33
547.01	1450.57
547.36	1449.67
547.72	1448.07
548.07	1445.81
548.43	1444.79
548.79	1442.90
549.14	1442.74
549.50	1441.33
549.86	1439.79
550.21	1438.81
550.57	1438.83
550.92	1436.38
551.28	1436.17
551.64	1434.29
551.99	1432.19
552.35	1430.98
552.70	1428.74
553.06	1427.76
553.41	1426.62
553.77	1426.64
554.13	1425.48
554.48	1424.86
554.84	1424.02
555.19	1422.93
555.55	1422.76
555.90	1421.83
556.26	1420.86
556.61	1418.67
556.97	1416.19
557.32	1415.29
557.68	1414.10
558.03	1411.67
558.39	1410.98
558.74	1409.45
559.10	1407.62
559.45	1406.52
559.81	1405.14
560.16	1402.88
560.52	1401.02
560.87	1400.05
561.23	1396.88
561.58	1397.69
561.94	1396.17
562.29	1393.76
562.64	1392.00
563.00	1389.33
563.35	1387.10
563.71	1385.62
564.06	1384.62
564.42	1383.12
564.77	1381.71
565.12	1381.12
565.48	1381.98
565.83	1381.00
566.19	1379.29
566.54	1377.98
566.89	1376.21
567.25	1376.02
567.60	1376.50
567.96	1376.81
568.31	1375.57
568.66	1374.67
569.02	1369.83
569.37	1366.74
569.72	1365.07
570.08	1363.93
570.43	1362.12
570.78	1360.67
571.14	1358.38
571.49	1356.19
571.84	1354.31
572.20	1351.24
572.55	1348.86
572.90	1344.43
573.26	1341.17
573.61	1338.29
573.96	1335.81
574.31	1333.48
574.67	1329.45
575.02	1325.74
575.37	1320.74
575.72	1316.74
576.08	1313.48
576.43	1310.90
576.78	1308.07
577.13	1304.14
577.49	1299.71
577.84	1296.45
578.19	1292.24
578.54	1288.29
578.90	1284.93
579.25	1281.17
579.60	1277.81
579.95	1272.95
580.30	1269.26
580.66	1266.14
581.01	1262.43
581.36	1258.55
581.71	1253.79
582.06	1251.07
582.42	1246.64
582.77	1242.36
583.12	1238.90
583.47	1234.98
583.82	1231.00
584.17	1227.33
584.53	1224.50
584.88	1220.76
585.23	1216.98
585.58	1212.40
585.93	1208.79
586.28	1204.90
586.63	1201.21
586.98	1197.67
587.34	1194.83
587.69	1190.14
588.04	1185.62
588.39	1181.00
588.74	1175.93
589.09	1172.29
589.44	1166.17
589.79	1162.05
590.14	1158.17
590.49	1152.95
590.84	1147.79
591.19	1144.10
591.54	1139.26
591.89	1134.05
592.25	1131.67
592.60	1126.36
592.95	1123.40
593.30	1119.10
593.65	1114.50
594.00	1109.29
594.35	1110.00
594.70	1104.62
595.05	1100.17
595.40	1095.90
595.75	1092.62
596.10	1088.57
596.45	1083.81
596.80	1079.74
597.15	1074.81
597.50	1069.88
597.85	1067.10
598.19	1062.86
598.54	1057.95
598.89	1053.93
599.24	1050.07
599.59	1044.14
599.94	1040.21
600.29	1035.14
600.64	1031.14
600.99	1027.57
601.34	1023.95
601.69	1013.76
602.04	1009.62
602.39	1005.17
602.74	1001.19
603.08	995.62
603.43	992.00
603.78	987.48
604.13	983.52
604.48	978.26
604.83	974.76
605.18	969.00
605.53	964.88
605.87	959.93
606.22	955.79
606.57	951.00
606.92	946.07
607.27	941.57
607.62	937.07
607.96	932.48
608.31	927.62
608.66	923.55
609.01	919.69
609.36	915.07
609.70	911.60
610.05	906.71
610.40	903.19
610.75	898.02
611.10	893.79
611.44	889.17
611.79	885.33
612.14	880.67
612.49	876.29
612.83	871.93
613.18	867.50
613.53	862.83
613.88	858.43
614.22	854.88
614.57	850.31
614.92	845.88
615.27	841.79
615.61	836.69
615.96	831.76
616.31	826.98
616.65	823.67
617.00	818.60
617.35	814.00
617.70	809.55
618.04	805.14
618.39	800.76
618.74	797.07
619.08	793.17
619.43	788.98
619.78	785.67
620.12	781.48
620.47	778.02
620.82	774.17
621.16	770.10
621.51	766.67
621.85	762.48
622.20	758.71
622.55	754.10
622.89	750.33
623.24	746.93
623.59	742.74
623.93	739.02
624.28	736.21
624.62	734.71
624.97	732.12
625.32	728.88
625.66	725.67
626.01	721.71
626.35	718.19
626.70	714.40
627.04	710.74
627.39	707.21
627.73	704.33
628.08	700.67
628.43	696.90
628.77	692.33
629.12	689.50
629.46	686.21
629.81	683.45
630.15	680.00
630.50	676.33
630.84	673.29
631.19	669.38
631.53	665.52
631.88	659.55
632.22	654.62
632.57	651.02
632.91	647.81
633.26	644.74
633.60	641.07
633.95	637.64
634.29	633.71
634.64	630.07
634.98	626.17
635.32	623.24
635.67	620.57
636.01	617.40
636.36	613.55
636.70	610.86
637.05	607.12
637.39	604.10
637.73	601.43
638.08	599.10
638.42	596.21
638.77	593.38
639.11	591.00
639.45	588.07
639.80	585.45
640.14	582.38
640.49	578.90
640.83	575.57
641.17	572.93
641.52	569.79
641.86	567.38
642.20	565.21
642.55	562.07
642.89	559.00
643.23	555.98
643.58	554.38
643.92	550.40
644.26	547.93
644.61	545.33
644.95	542.29
645.29	538.93
645.64	535.93
645.98	532.69
646.32	530.02
646.66	527.07
647.01	523.69
647.35	520.60
647.69	518.14
648.04	516.40
648.38	514.02
648.72	511.64
649.06	508.74
649.41	505.26
649.75	502.55
650.09	500.10
650.43	497.60
650.78	494.12
651.12	491.81
651.46	488.69
651.80	485.60
652.14	482.67
652.49	480.79
652.83	478.07
653.17	475.67
653.51	472.81
653.85	470.64
654.20	468.12
654.54	465.43
654.88	463.12
655.22	461.55
655.56	458.36
655.90	456.12
656.25	453.76
656.59	451.64
656.93	449.17
657.27	447.26
657.61	444.57
657.95	442.69
658.29	440.50
658.64	438.69
658.98	436.81
659.32	434.64
659.66	431.95
660.00	430.33
660.34	428.33
660.68	426.29
661.02	424.45
661.36	422.64
661.70	420.71
662.05	418.69
662.39	416.62
662.73	415.86
663.07	415.12
663.41	413.38
663.75	411.12
664.09	409.67
664.43	407.07
664.77	405.67
665.11	403.57
665.45	401.88
665.79	400.29
666.13	398.79
666.47	396.90
666.81	395.43
667.15	393.05
667.49	391.43
667.83	390.76
668.17	388.86
668.51	387.45
668.85	386.33
669.19	385.29
669.53	382.50
669.87	380.05
670.21	377.79
670.55	376.12
670.89	375.83
671.23	374.17
671.57	373.19
671.91	371.95
672.25	370.52
672.58	369.52
672.92	367.43
673.26	365.69
673.60	364.74
673.94	363.36
674.28	362.21
674.62	361.14
674.96	359.17
675.30	358.02
675.64	356.60
675.97	355.36
676.31	353.60
676.65	352.50
676.99	352.19
677.33	350.50
677.67	349.33
678.01	347.12
678.34	346.05
678.68	344.98
679.02	343.48
679.36	342.31
679.70	340.48
680.04	339.60
680.37	338.43
680.71	336.95
681.05	335.43
681.39	334.31
681.73	332.71
682.06	331.52
682.40	330.19
682.74	329.55
683.08	328.86
683.42	327.14
683.75	326.57
684.09	324.69
684.43	323.93
684.77	322.76
685.10	321.88
685.44	320.79
685.78	319.67
686.12	318.83
686.45	317.71
686.79	316.76
687.13	316.21
687.46	315.31
687.80	314.64
688.14	313.79
688.48	312.83
688.81	312.29
689.15	311.74
689.49	311.00
689.82	309.76
690.16	307.88
690.50	307.17
690.83	305.45
691.17	304.19
691.51	303.12
691.84	302.55
692.18	301.36
692.52	300.45
692.85	299.71
693.19	299.31
693.52	298.07
693.86	297.07
694.20	295.90
694.53	295.33
694.87	294.60
695.21	293.57
695.54	292.60
695.88	291.43
696.21	289.90
696.55	289.05
696.88	288.00
697.22	287.31
697.56	287.07
697.89	286.50
698.23	286.36
698.56	285.57
698.90	284.74
699.23	284.02
699.57	283.62
699.90	282.31
700.24	280.93
700.58	280.74
700.91	280.52
701.25	281.36
701.58	280.98
701.92	280.64
702.25	280.10
702.59	279.45
702.92	278.81
703.26	278.14
703.59	277.86
703.93	279.14
704.26	278.81
704.60	277.98
704.93	277.48
705.26	276.29
705.60	276.00
705.93	275.02
706.27	275.10
706.60	274.71
706.94	275.29
707.27	274.45
707.61	273.74
707.94	273.07
708.27	271.17
708.61	269.88
708.94	269.40
709.28	268.98
709.61	268.24
709.94	267.90
710.28	267.71
710.61	266.83
710.95	264.48
711.28	265.33
711.61	264.71
711.95	264.48
712.28	264.10
712.61	263.45
712.95	264.00
713.28	264.33
713.61	263.33
713.95	262.00
714.28	261.86
714.61	261.29
714.95	260.48
715.28	259.69
715.61	259.48
715.95	258.88
716.28	258.00
716.61	258.12
716.95	257.26
717.28	256.50
717.61	255.95
717.94	255.71
718.28	253.69
718.61	253.40
718.94	252.71
719.27	252.29
719.61	251.93
719.94	251.07
720.27	249.17
720.60	248.57
720.94	248.40
721.27	248.00
721.60	248.02
721.93	247.86
722.27	248.29
722.60	247.93
722.93	247.17
723.26	247.40
723.59	246.55
723.93	246.69
724.26	246.69
724.59	246.29
724.92	246.10
725.25	246.40
725.59	245.74
725.92	245.83
726.25	245.50
726.58	245.12
726.91	244.62
727.24	245.00
727.57	244.86
727.91	244.10
728.24	244.10
728.57	243.24
728.90	243.12
729.23	242.00
729.56	242.76
729.89	242.69
730.22	242.31
730.55	242.19
730.89	241.88
731.22	241.55
731.55	241.33
731.88	240.81
732.21	240.07
732.54	239.90
732.87	239.38
733.20	239.24
733.53	239.14
733.86	239.19
734.19	238.38
734.52	238.52
734.85	239.67
735.18	239.00
735.51	239.69
735.84	239.45
736.17	239.79
736.50	238.71
736.83	241.02
737.16	240.60
737.49	240.57
737.82	240.26
738.15	240.31
738.48	240.07
738.81	239.86
739.14	239.55
739.47	239.43
739.80	239.31
740.13	239.10
740.46	238.67
740.79	237.93
741.12	237.76
741.45	237.10
741.78	235.69
742.11	236.21
742.44	235.40
742.77	235.57
743.10	235.24
743.43	234.74
743.75	232.21
744.08	234.86
744.41	234.43
744.74	234.07
745.07	233.40
745.40	233.71
745.73	234.48
746.06	234.55
746.39	234.81
746.71	234.21
747.04	234.00
747.37	233.62
747.70	234.14
748.03	234.29
748.36	234.55
748.68	234.62
749.01	233.71
749.34	233.64
749.67	233.45
750.00	233.52
750.33	234.81
750.65	234.62
750.98	231.81
751.31	231.69
751.64	231.71
751.97	232.76
752.29	232.38
752.62	231.19
752.95	230.74
753.28	230.19
753.60	230.12
753.93	230.52
754.26	230.69
754.59	229.95
754.91	229.26
755.24	228.93
755.57	228.57
755.90	228.43
756.22	228.31
756.55	227.71
756.88	227.31
757.20	225.71
757.53	225.00
757.86	224.88
758.19	224.98
758.51	224.86
758.84	223.57
759.17	223.31
759.49	223.29
759.82	224.36
760.15	224.33
760.47	224.36
760.80	223.62
761.13	223.62
761.45	223.26
761.78	223.40
762.11	223.40
762.43	223.19
762.76	223.12
763.08	223.26
763.41	223.31
763.74	223.02
764.06	223.21
764.39	223.36
764.71	223.14
765.04	222.83
765.37	222.55
765.69	222.55
766.02	222.33
766.34	222.19
766.67	221.19
767.00	221.50
767.32	222.43
767.65	223.62
767.97	223.48
768.30	223.55
768.62	223.43
768.95	223.07
769.27	223.05
769.60	223.29
769.92	222.83
770.25	222.50
770.57	222.07
770.90	221.86
771.22	221.62
771.55	221.69
771.87	221.69
772.20	221.55
772.52	223.14
772.85	225.57
773.17	225.48
773.50	225.31
773.82	225.05
774.15	223.93
774.47	222.38
774.80	222.24
775.12	222.10
775.45	222.24
775.77	222.33
776.09	222.50
776.42	222.43
776.74	223.10
777.07	222.98
777.39	223.26
777.72	223.10
778.04	223.38
778.36	222.98
778.69	222.79
779.01	222.81
779.33	220.88
779.66	218.71
779.98	218.67
780.31	218.76
780.63	219.45
780.95	219.86
781.28	220.05
781.60	219.74
781.92	219.55
782.25	219.10
782.57	219.10
782.89	218.88
783.22	218.62
783.54	217.98
783.86	217.88
784.19	217.64
784.51	218.21
784.83	217.74
785.16	217.88
785.48	217.83
785.80	217.83
786.12	218.24
786.45	217.88
786.77	218.02
787.09	217.95
787.42	217.10
787.74	217.26
788.06	217.19
