SpectraSuite Data File
++++++++++++++++++++++++++++++++++++
Date: Tue Apr 02 18:40:33 EDT 2013
User: group
Dark Spectrum Present: No
Reference Spectrum Present: No
Number of Sampled Component Spectra: 1
Spectrometers: USB2E7196
Integration Time (usec): 580000 (USB2E7196)
Spectra Averaged: 2 (USB2E7196)
Boxcar Smoothing: 10 (USB2E7196)
Correct for Electrical Dark: No (USB2E7196)
Strobe/Lamp Enabled: No (USB2E7196)
Correct for Detector Non-linearity: No (USB2E7196)
Correct for Stray Light: No (USB2E7196)
Number of Pixels in Processed Spectrum: 2048
>>>>>Begin Processed Spectral Data<<<<<
339.09	0.00
339.48	194.50
339.86	197.00
340.24	200.50
340.63	202.00
341.01	233.00
341.39	204.00
341.78	208.00
342.16	213.50
342.54	207.00
342.93	200.36
343.31	210.29
343.69	210.93
344.07	211.50
344.46	212.05
344.84	212.64
345.22	211.52
345.60	212.02
345.99	212.19
346.37	212.19
346.75	212.38
347.13	212.33
347.52	212.31
347.90	212.74
348.28	212.90
348.66	213.43
349.05	212.45
349.43	212.43
349.81	212.60
350.19	212.48
350.57	212.57
350.96	212.81
351.34	212.88
351.72	213.19
352.10	213.02
352.48	212.83
352.87	212.67
353.25	212.64
353.63	212.26
354.01	212.10
354.39	211.93
354.77	211.98
355.15	212.43
355.54	212.12
355.92	211.45
356.30	211.36
356.68	212.64
357.06	213.00
357.44	212.64
357.82	212.62
358.20	213.45
358.58	213.29
358.97	213.26
359.35	213.52
359.73	213.57
360.11	213.69
360.49	213.76
360.87	213.50
361.25	213.62
361.63	214.24
362.01	214.45
362.39	214.24
362.77	214.31
363.15	214.12
363.53	214.24
363.91	214.38
364.29	214.26
364.67	212.36
365.05	212.02
365.43	212.31
365.81	212.38
366.19	212.55
366.57	213.36
366.95	213.40
367.33	213.00
367.71	212.83
368.09	213.26
368.47	213.24
368.85	213.33
369.23	213.83
369.61	213.00
369.99	213.55
370.37	213.95
370.75	214.79
371.13	214.43
371.51	214.29
371.89	214.36
372.27	214.69
372.65	214.76
373.03	215.05
373.41	214.98
373.78	214.98
374.16	214.14
374.54	213.36
374.92	213.19
375.30	213.52
375.68	213.38
376.06	213.43
376.44	213.45
376.82	213.79
377.19	213.45
377.57	213.69
377.95	213.33
378.33	213.19
378.71	211.93
379.09	212.14
379.47	212.29
379.84	212.19
380.22	211.86
380.60	211.64
380.98	211.67
381.36	211.57
381.73	211.21
382.11	211.55
382.49	211.69
382.87	211.52
383.25	211.50
383.62	213.79
384.00	213.36
384.38	213.45
384.76	213.71
385.13	214.83
385.51	215.19
385.89	214.83
386.27	214.93
386.64	215.48
387.02	215.50
387.40	215.45
387.78	215.67
388.15	215.93
388.53	215.83
388.91	215.86
389.29	215.67
389.66	216.05
390.04	215.90
390.42	216.19
390.79	216.43
391.17	216.48
391.55	214.17
391.92	214.36
392.30	214.64
392.68	214.19
393.05	213.69
393.43	213.60
393.81	213.74
394.18	213.48
394.56	213.52
394.94	214.00
395.31	213.83
395.69	214.55
396.06	214.79
396.44	215.02
396.82	214.79
397.19	216.31
397.57	216.14
397.95	216.33
398.32	216.02
398.70	216.21
399.07	216.71
399.45	216.71
399.82	216.57
400.20	216.36
400.58	216.40
400.95	215.76
401.33	216.10
401.70	217.64
402.08	217.76
402.45	217.52
402.83	217.90
403.20	218.05
403.58	217.50
403.95	218.12
404.33	218.67
404.71	219.00
405.08	219.93
405.46	220.36
405.83	220.86
406.21	221.48
406.58	221.83
406.96	221.74
407.33	222.48
407.70	223.19
408.08	225.26
408.45	226.19
408.83	227.29
409.20	227.83
409.58	227.29
409.95	228.50
410.33	229.64
410.70	230.21
411.08	231.79
411.45	233.02
411.82	233.45
412.20	234.98
412.57	237.62
412.95	237.02
413.32	238.64
413.69	239.95
414.07	241.50
414.44	243.24
414.82	245.52
415.19	248.19
415.56	250.74
415.94	252.05
416.31	255.10
416.68	258.05
417.06	261.50
417.43	265.38
417.81	269.10
418.18	273.02
418.55	276.83
418.93	280.93
419.30	285.36
419.67	290.48
420.04	295.21
420.42	299.81
420.79	307.64
421.16	313.36
421.54	320.31
421.91	326.93
422.28	333.57
422.66	340.45
423.03	348.50
423.40	355.83
423.77	363.83
424.15	371.40
424.52	379.29
424.89	387.90
425.26	395.95
425.64	404.00
426.01	412.71
426.38	422.36
426.75	432.52
427.13	442.02
427.50	452.05
427.87	462.64
428.24	472.52
428.61	481.62
428.99	493.74
429.36	505.14
429.73	516.90
430.10	529.02
430.47	541.50
430.85	552.83
431.22	566.07
431.59	581.71
431.96	595.10
432.33	610.29
432.70	624.62
433.08	642.07
433.45	658.31
433.82	674.26
434.19	692.24
434.56	709.62
434.93	726.33
435.30	742.83
435.68	761.64
436.05	779.67
436.42	797.55
436.79	814.45
437.16	832.43
437.53	851.64
437.90	870.38
438.27	889.19
438.64	908.26
439.01	926.36
439.38	940.88
439.75	956.50
440.13	973.90
440.50	990.57
440.87	1003.74
441.24	1017.90
441.61	1033.71
441.98	1045.07
442.35	1057.98
442.72	1072.00
443.09	1086.29
443.46	1094.24
443.83	1100.45
444.20	1105.45
444.57	1111.74
444.94	1115.74
445.31	1119.24
445.68	1124.86
446.05	1126.45
446.42	1125.07
446.79	1123.67
447.16	1121.71
447.53	1120.95
447.90	1114.52
448.27	1108.10
448.64	1098.98
449.01	1091.93
449.37	1080.02
449.74	1067.93
450.11	1055.90
450.48	1040.21
450.85	1023.48
451.22	1009.64
451.59	996.95
451.96	984.74
452.33	968.24
452.70	952.81
453.07	934.36
453.43	914.26
453.80	896.64
454.17	880.71
454.54	864.17
454.91	846.76
455.28	829.10
455.65	813.71
456.02	800.95
456.38	787.45
456.75	771.67
457.12	757.45
457.49	744.26
457.86	729.38
458.23	718.57
458.59	706.40
458.96	693.88
459.33	682.40
459.70	670.64
460.07	661.67
460.43	651.57
460.80	642.93
461.17	634.98
461.54	626.31
461.91	616.90
462.27	608.40
462.64	601.00
463.01	593.71
463.38	586.21
463.74	575.31
464.11	568.05
464.48	562.05
464.85	555.74
465.21	550.48
465.58	545.31
465.95	538.76
466.32	533.26
466.68	527.74
467.05	522.79
467.42	517.95
467.78	512.10
468.15	506.76
468.52	502.79
468.88	497.07
469.25	492.02
469.62	488.64
469.98	484.48
470.35	480.64
470.72	476.67
471.08	471.76
471.45	468.81
471.82	466.07
472.18	461.90
472.55	459.19
472.92	455.88
473.28	452.14
473.65	449.31
474.02	446.36
474.38	444.64
474.75	442.48
475.11	440.02
475.48	438.21
475.85	436.36
476.21	433.90
476.58	432.31
476.94	431.33
477.31	430.07
477.67	429.14
478.04	427.93
478.41	427.24
478.77	428.67
479.14	427.86
479.50	427.14
479.87	427.38
480.23	427.24
480.60	426.90
480.96	426.74
481.33	427.62
481.69	427.83
482.06	427.79
482.42	428.14
482.79	428.86
483.15	429.33
483.52	430.50
483.88	431.14
484.25	432.05
484.61	432.69
484.98	432.93
485.34	434.67
485.71	436.38
486.07	437.98
486.44	438.02
486.80	439.26
487.17	440.81
487.53	443.05
487.90	445.24
488.26	448.50
488.62	451.57
488.99	453.19
489.35	456.40
489.72	458.86
490.08	461.69
490.44	464.33
490.81	468.14
491.17	471.29
491.54	475.29
491.90	479.05
492.26	482.93
492.63	487.14
492.99	490.14
493.36	494.74
493.72	498.86
494.08	503.26
494.45	508.36
494.81	513.74
495.17	518.12
495.54	523.33
495.90	527.81
496.26	533.12
496.63	538.62
496.99	543.74
497.35	550.00
497.72	556.31
498.08	562.57
498.44	569.07
498.80	576.12
499.17	582.71
499.53	589.24
499.89	596.74
500.26	603.90
500.62	611.38
500.98	618.40
501.34	625.76
501.71	633.17
502.07	640.95
502.43	648.45
502.79	655.90
503.16	663.55
503.52	671.48
503.88	678.33
504.24	686.29
504.60	694.88
504.97	703.14
505.33	710.81
505.69	719.88
506.05	728.36
506.41	736.19
506.78	744.00
507.14	751.74
507.50	759.79
507.86	768.21
508.22	776.76
508.59	784.31
508.95	792.67
509.31	802.02
509.67	809.74
510.03	817.83
510.39	826.38
510.75	834.79
511.12	842.64
511.48	851.55
511.84	860.43
512.20	868.21
512.56	876.17
512.92	884.98
513.28	892.86
513.64	900.38
514.00	908.29
514.37	916.95
514.73	925.90
515.09	933.57
515.45	941.52
515.81	949.14
516.17	957.10
516.53	964.45
516.89	971.19
517.25	979.45
517.61	987.21
517.97	994.24
518.33	1001.43
518.69	1009.29
519.05	1016.62
519.41	1023.79
519.77	1032.52
520.13	1039.48
520.49	1045.02
520.85	1052.21
521.21	1059.48
521.57	1066.48
521.93	1072.24
522.29	1078.12
522.65	1083.71
523.01	1089.88
523.37	1095.38
523.73	1101.95
524.09	1107.95
524.45	1112.86
524.81	1117.57
525.17	1123.14
525.53	1128.26
525.89	1133.45
526.25	1138.81
526.61	1143.86
526.97	1148.50
527.33	1152.52
527.68	1159.52
528.04	1165.12
528.40	1169.07
528.76	1173.43
529.12	1178.60
529.48	1184.29
529.84	1189.33
530.20	1195.00
530.56	1199.50
530.91	1204.60
531.27	1209.29
531.63	1214.19
531.99	1219.45
532.35	1224.17
532.71	1228.29
533.07	1234.14
533.42	1241.19
533.78	1246.31
534.14	1251.74
534.50	1256.17
534.86	1261.55
535.21	1264.00
535.57	1269.24
535.93	1274.07
536.29	1279.57
536.65	1284.21
537.00	1287.95
537.36	1292.21
537.72	1296.90
538.08	1301.81
538.44	1305.40
538.79	1309.26
539.15	1312.79
539.51	1318.17
539.87	1323.45
540.22	1328.10
540.58	1331.40
540.94	1333.38
541.29	1336.88
541.65	1339.83
542.01	1343.86
542.37	1346.19
542.72	1349.07
543.08	1352.10
543.44	1354.86
543.79	1357.55
544.15	1360.38
544.51	1364.45
544.87	1368.12
545.22	1371.26
545.58	1374.45
545.94	1378.45
546.29	1382.00
546.65	1386.33
547.01	1388.45
547.36	1390.62
547.72	1394.00
548.07	1398.07
548.43	1401.17
548.79	1404.43
549.14	1407.74
549.50	1411.00
549.86	1414.93
550.21	1418.90
550.57	1422.26
550.92	1426.88
551.28	1430.40
551.64	1434.86
551.99	1438.29
552.35	1441.74
552.70	1444.88
553.06	1449.52
553.41	1453.83
553.77	1459.19
554.13	1463.76
554.48	1469.43
554.84	1475.12
555.19	1479.02
555.55	1484.81
555.90	1489.33
556.26	1493.38
556.61	1497.90
556.97	1501.71
557.32	1506.00
557.68	1510.60
558.03	1515.17
558.39	1518.40
558.74	1522.90
559.10	1526.26
559.45	1530.95
559.81	1535.81
560.16	1540.60
560.52	1544.93
560.87	1549.55
561.23	1553.62
561.58	1559.00
561.94	1562.98
562.29	1567.00
562.64	1572.69
563.00	1576.14
563.35	1580.86
563.71	1585.55
564.06	1591.26
564.42	1596.69
564.77	1602.45
565.12	1608.74
565.48	1616.62
565.83	1623.71
566.19	1629.52
566.54	1636.02
566.89	1641.36
567.25	1647.38
567.60	1653.74
567.96	1660.83
568.31	1668.00
568.66	1673.81
569.02	1677.57
569.37	1681.60
569.72	1687.00
570.08	1691.29
570.43	1694.83
570.78	1699.95
571.14	1706.26
571.49	1709.76
571.84	1714.79
572.20	1718.48
572.55	1722.90
572.90	1725.12
573.26	1727.69
573.61	1731.50
573.96	1735.02
574.31	1739.07
574.67	1741.95
575.02	1745.55
575.37	1746.38
575.72	1746.55
576.08	1748.83
576.43	1751.81
576.78	1754.52
577.13	1757.19
577.49	1760.38
577.84	1764.64
578.19	1767.38
578.54	1769.90
578.90	1773.69
579.25	1776.02
579.60	1778.57
579.95	1779.38
580.30	1781.26
580.66	1784.83
581.01	1786.64
581.36	1788.12
581.71	1789.26
582.06	1792.71
582.42	1794.05
582.77	1796.21
583.12	1799.26
583.47	1800.12
583.82	1802.21
584.17	1804.83
584.53	1806.90
584.88	1808.21
585.23	1810.31
585.58	1811.43
585.93	1811.43
586.28	1812.43
586.63	1814.14
586.98	1815.76
587.34	1818.40
587.69	1819.36
588.04	1819.10
588.39	1819.81
588.74	1819.55
589.09	1820.76
589.44	1818.57
589.79	1819.55
590.14	1819.81
590.49	1820.02
590.84	1820.07
591.19	1820.48
591.54	1820.40
591.89	1819.38
592.25	1820.67
592.60	1817.93
592.95	1817.95
593.30	1817.90
593.65	1816.90
594.00	1815.05
594.35	1820.17
594.70	1817.45
595.05	1817.05
595.40	1816.74
595.75	1815.98
596.10	1816.45
596.45	1815.21
596.80	1815.57
597.15	1813.88
597.50	1812.48
597.85	1811.50
598.19	1810.86
598.54	1809.12
598.89	1806.88
599.24	1806.60
599.59	1803.24
599.94	1803.00
600.29	1801.14
600.64	1799.90
600.99	1799.00
601.34	1798.19
601.69	1789.55
602.04	1787.45
602.39	1785.36
602.74	1783.57
603.08	1781.05
603.43	1779.74
603.78	1778.31
604.13	1776.33
604.48	1773.48
604.83	1771.93
605.18	1769.38
605.53	1767.10
605.87	1764.45
606.22	1762.64
606.57	1759.71
606.92	1756.95
607.27	1754.83
607.62	1752.24
607.96	1750.48
608.31	1747.48
608.66	1744.52
609.01	1741.50
609.36	1739.79
609.70	1736.29
610.05	1732.67
610.40	1729.55
610.75	1724.43
611.10	1720.90
611.44	1717.07
611.79	1713.69
612.14	1709.40
612.49	1705.05
612.83	1700.90
613.18	1696.21
613.53	1690.93
613.88	1685.74
614.22	1681.36
614.57	1676.17
614.92	1671.21
615.27	1665.45
615.61	1660.10
615.96	1655.79
616.31	1651.10
616.65	1646.81
617.00	1641.86
617.35	1637.45
617.70	1631.86
618.04	1627.17
618.39	1621.14
618.74	1615.33
619.08	1609.31
619.43	1604.64
619.78	1599.83
620.12	1594.60
620.47	1590.00
620.82	1585.40
621.16	1579.98
621.51	1575.62
621.85	1570.07
622.20	1564.12
622.55	1557.48
622.89	1552.12
623.24	1545.81
623.59	1540.52
623.93	1534.52
624.28	1529.76
624.62	1526.33
624.97	1522.40
625.32	1517.12
625.66	1512.21
626.01	1507.31
626.35	1503.79
626.70	1497.90
627.04	1492.64
627.39	1487.62
627.73	1483.33
628.08	1478.88
628.43	1474.24
628.77	1468.79
629.12	1464.00
629.46	1459.40
629.81	1454.95
630.15	1449.62
630.50	1444.83
630.84	1439.26
631.19	1434.52
631.53	1428.33
631.88	1419.69
632.22	1412.95
632.57	1407.71
632.91	1401.69
633.26	1395.76
633.60	1388.55
633.95	1382.43
634.29	1376.69
634.64	1370.93
634.98	1363.83
635.32	1358.07
635.67	1352.17
636.01	1346.81
636.36	1339.98
636.70	1335.76
637.05	1329.81
637.39	1324.67
637.73	1318.88
638.08	1314.26
638.42	1307.86
638.77	1302.71
639.11	1297.38
639.45	1292.05
639.80	1286.81
640.14	1281.21
640.49	1275.55
640.83	1270.52
641.17	1265.36
641.52	1258.67
641.86	1252.48
642.20	1247.81
642.55	1240.86
642.89	1235.05
643.23	1228.07
643.58	1223.07
643.92	1214.55
644.26	1209.17
644.61	1202.36
644.95	1195.83
645.29	1188.26
645.64	1182.38
645.98	1175.48
646.32	1169.19
646.66	1162.31
647.01	1154.76
647.35	1148.24
647.69	1141.69
648.04	1135.26
648.38	1128.57
648.72	1122.43
649.06	1116.14
649.41	1108.90
649.75	1102.10
650.09	1094.57
650.43	1087.45
650.78	1080.24
651.12	1074.26
651.46	1066.10
651.80	1059.43
652.14	1052.67
652.49	1047.29
652.83	1040.50
653.17	1034.00
653.51	1027.40
653.85	1021.19
654.20	1014.05
654.54	1006.86
654.88	1000.24
655.22	994.12
655.56	987.52
655.90	980.83
656.25	974.05
656.59	967.19
656.93	961.98
657.27	957.69
657.61	952.17
657.95	945.90
658.29	939.62
658.64	934.10
658.98	927.48
659.32	921.24
659.66	914.55
660.00	907.93
660.34	901.74
660.68	895.50
661.02	888.86
661.36	883.19
661.70	877.52
662.05	872.02
662.39	866.12
662.73	860.90
663.07	856.50
663.41	850.90
663.75	844.90
664.09	838.57
664.43	831.67
664.77	824.57
665.11	819.12
665.45	813.12
665.79	807.90
666.13	802.83
666.47	796.95
666.81	791.55
667.15	785.67
667.49	780.60
667.83	776.21
668.17	771.36
668.51	766.33
668.85	761.45
669.19	756.76
669.53	750.43
669.87	744.31
670.21	738.02
670.55	732.60
670.89	728.55
671.23	723.57
671.57	718.26
671.91	714.38
672.25	709.67
672.58	706.29
672.92	700.88
673.26	696.38
673.60	692.02
673.94	687.07
674.28	683.19
674.62	678.88
674.96	673.07
675.30	668.67
675.64	663.83
675.97	659.52
676.31	654.45
676.65	650.07
676.99	646.57
677.33	642.21
677.67	638.26
678.01	632.86
678.34	628.55
678.68	625.12
679.02	620.67
679.36	616.07
679.70	611.21
680.04	607.05
680.37	602.19
680.71	598.52
681.05	594.17
681.39	590.05
681.73	585.55
682.06	581.83
682.40	577.52
682.74	573.95
683.08	570.71
683.42	566.31
683.75	562.83
684.09	558.07
684.43	554.29
684.77	550.05
685.10	546.52
685.44	542.76
685.78	538.33
686.12	534.71
686.45	530.67
686.79	526.55
687.13	523.62
687.46	520.05
687.80	516.26
688.14	512.69
688.48	509.10
688.81	505.43
689.15	502.60
689.49	498.86
689.82	495.67
690.16	491.31
690.50	488.31
690.83	484.55
691.17	481.05
691.51	477.79
691.84	474.60
692.18	471.50
692.52	468.36
692.85	465.69
693.19	462.95
693.52	460.17
693.86	457.00
694.20	453.69
694.53	450.88
694.87	447.62
695.21	444.45
695.54	441.55
695.88	438.14
696.21	434.31
696.55	431.60
696.88	428.57
697.22	425.40
697.56	422.86
697.89	420.38
698.23	418.14
698.56	415.69
698.90	413.36
699.23	410.67
699.57	408.19
699.90	404.98
700.24	402.45
700.58	400.33
700.91	398.19
701.25	397.55
701.58	395.74
701.92	394.00
702.25	392.14
702.59	389.31
702.92	387.60
703.26	385.79
703.59	383.64
703.93	383.07
704.26	381.19
704.60	379.02
704.93	376.55
705.26	374.36
705.60	372.67
705.93	370.19
706.27	368.33
706.60	366.90
706.94	365.83
707.27	363.45
707.61	361.26
707.94	359.33
708.27	355.81
708.61	353.38
708.94	351.02
709.28	349.00
709.61	347.40
709.94	345.55
710.28	343.81
710.61	342.33
710.95	338.88
711.28	338.52
711.61	336.98
711.95	336.02
712.28	334.31
712.61	332.26
712.95	331.69
713.28	331.36
713.61	329.14
713.95	327.17
714.28	325.83
714.61	324.36
714.95	323.12
715.28	321.19
715.61	319.86
715.95	318.74
716.28	317.40
716.61	316.48
716.95	315.00
717.28	313.71
717.61	312.40
717.94	310.93
718.28	308.43
718.61	306.93
718.94	305.29
719.27	304.05
719.61	303.24
719.94	301.71
720.27	299.19
720.60	297.93
720.94	296.50
721.27	295.43
721.60	294.71
721.93	293.38
722.27	293.00
722.60	292.29
722.93	291.12
723.26	290.43
723.59	289.00
723.93	288.48
724.26	287.64
724.59	286.86
724.92	286.31
725.25	285.95
725.59	285.19
725.92	284.83
726.25	284.21
726.58	283.52
726.91	282.69
727.24	282.29
727.57	281.64
727.91	280.95
728.24	280.45
728.57	279.45
728.90	278.86
729.23	277.81
729.56	277.67
729.89	277.19
730.22	275.93
730.55	275.07
730.89	274.40
731.22	273.69
731.55	272.83
731.88	272.29
732.21	271.26
732.54	270.45
732.87	269.76
733.20	268.86
733.53	268.00
733.86	267.67
734.19	266.86
734.52	266.74
734.85	267.52
735.18	266.52
735.51	266.48
735.84	265.98
736.17	265.90
736.50	264.57
736.83	266.31
737.16	266.17
737.49	266.00
737.82	265.29
738.15	264.90
738.48	264.33
738.81	263.67
739.14	262.79
739.47	262.07
739.80	261.40
740.13	261.19
740.46	260.50
740.79	259.31
741.12	258.95
741.45	257.88
741.78	256.17
742.11	256.36
742.44	255.40
742.77	255.33
743.10	254.31
743.43	253.90
743.75	251.43
744.08	253.67
744.41	252.90
744.74	252.55
745.07	251.55
745.40	251.40
745.73	251.74
746.06	251.52
746.39	251.38
746.71	250.90
747.04	250.33
747.37	249.79
747.70	249.88
748.03	249.21
748.36	249.33
748.68	248.76
749.01	247.62
749.34	247.40
749.67	246.74
750.00	246.93
750.33	247.81
750.65	247.26
750.98	244.29
751.31	244.43
751.64	243.98
751.97	244.98
752.29	244.45
752.62	243.05
752.95	242.95
753.28	242.26
753.60	241.83
753.93	242.05
754.26	241.67
754.59	240.71
754.91	240.24
755.24	239.57
755.57	239.33
755.90	239.29
756.22	238.57
756.55	238.02
756.88	237.31
757.20	235.76
757.53	234.90
757.86	234.71
758.19	234.26
758.51	233.98
758.84	232.57
759.17	232.17
759.49	232.26
759.82	232.88
760.15	233.07
760.47	232.79
760.80	231.98
761.13	232.02
761.45	231.98
761.78	231.88
762.11	231.86
762.43	231.55
762.76	231.14
763.08	231.19
763.41	231.02
763.74	231.00
764.06	230.64
764.39	230.62
764.71	230.21
765.04	229.64
765.37	229.43
765.69	229.19
766.02	229.02
766.34	228.81
766.67	227.64
767.00	227.76
767.32	228.86
767.65	230.14
767.97	230.10
768.30	230.19
768.62	230.07
768.95	229.48
769.27	229.55
769.60	229.76
769.92	229.43
770.25	229.19
770.57	228.52
770.90	228.50
771.22	228.07
771.55	228.07
771.87	228.17
772.20	227.83
772.52	229.38
772.85	231.76
773.17	231.69
773.50	231.69
773.82	231.21
774.15	230.10
774.47	228.50
774.80	227.90
775.12	227.45
775.45	227.14
775.77	227.31
776.09	227.21
776.42	227.02
776.74	227.52
777.07	227.19
777.39	227.21
777.72	226.74
778.04	227.07
778.36	226.62
778.69	226.62
779.01	226.55
779.33	224.79
779.66	222.21
779.98	221.88
780.31	221.69
780.63	222.48
780.95	222.48
781.28	222.31
781.60	222.38
781.92	222.45
782.25	222.48
782.57	222.43
782.89	222.14
783.22	221.79
783.54	221.17
783.86	221.50
784.19	221.29
784.51	221.98
784.83	221.55
785.16	221.43
