SpectraSuite Data File
++++++++++++++++++++++++++++++++++++
Date: Tue Apr 02 18:41:29 EDT 2013
User: group
Dark Spectrum Present: No
Reference Spectrum Present: No
Number of Sampled Component Spectra: 1
Spectrometers: USB2E7196
Integration Time (usec): 580000 (USB2E7196)
Spectra Averaged: 2 (USB2E7196)
Boxcar Smoothing: 10 (USB2E7196)
Correct for Electrical Dark: No (USB2E7196)
Strobe/Lamp Enabled: No (USB2E7196)
Correct for Detector Non-linearity: No (USB2E7196)
Correct for Stray Light: No (USB2E7196)
Number of Pixels in Processed Spectrum: 2048
>>>>>Begin Processed Spectral Data<<<<<
339.09	0.00
339.48	197.50
339.86	195.00
340.24	196.00
340.63	196.50
341.01	227.50
341.39	203.00
341.78	204.50
342.16	210.00
342.54	202.50
342.93	197.81
343.31	207.64
343.69	208.00
344.07	208.64
344.46	209.45
344.84	210.10
345.22	209.19
345.60	209.52
345.99	209.79
346.37	209.98
346.75	210.21
347.13	210.26
347.52	210.40
347.90	211.21
348.28	211.29
348.66	211.93
349.05	211.38
349.43	211.67
349.81	211.74
350.19	211.64
350.57	211.86
350.96	212.10
351.34	212.45
351.72	212.64
352.10	212.67
352.48	212.57
352.87	212.64
353.25	212.83
353.63	212.71
354.01	212.64
354.39	212.38
354.77	212.48
355.15	212.88
355.54	212.62
355.92	211.93
356.30	212.02
356.68	213.26
357.06	213.29
357.44	212.88
357.82	213.05
358.20	213.98
358.58	213.62
358.97	213.74
359.35	214.36
359.73	214.57
360.11	214.69
360.49	214.74
360.87	214.69
361.25	214.83
361.63	215.74
362.01	215.95
362.39	215.93
362.77	216.05
363.15	216.05
363.53	215.95
363.91	216.40
364.29	216.21
364.67	214.33
365.05	214.52
365.43	214.64
365.81	214.60
366.19	214.52
366.57	215.64
366.95	215.57
367.33	214.67
367.71	214.76
368.09	215.05
368.47	215.02
368.85	215.07
369.23	215.33
369.61	214.40
369.99	214.90
370.37	215.38
370.75	216.33
371.13	215.67
371.51	215.60
371.89	215.31
372.27	215.69
372.65	215.79
373.03	215.90
373.41	215.98
373.78	216.10
374.16	215.19
374.54	214.45
374.92	214.29
375.30	214.33
375.68	213.81
376.06	213.98
376.44	213.79
376.82	213.76
377.19	213.74
377.57	213.69
377.95	213.19
378.33	212.95
378.71	211.76
379.09	212.33
379.47	212.60
379.84	212.48
380.22	212.33
380.60	211.95
380.98	211.93
381.36	211.79
381.73	211.24
382.11	211.64
382.49	211.67
382.87	211.31
383.25	211.29
383.62	213.71
384.00	213.10
384.38	213.26
384.76	213.74
385.13	214.45
385.51	214.52
385.89	214.55
386.27	214.52
386.64	215.10
387.02	214.90
387.40	214.90
387.78	215.26
388.15	215.29
388.53	215.14
388.91	215.00
389.29	215.02
389.66	215.50
390.04	215.29
390.42	215.71
390.79	216.02
391.17	216.17
391.55	213.95
391.92	214.17
392.30	214.55
392.68	214.07
393.05	213.76
393.43	213.88
393.81	213.71
394.18	213.52
394.56	213.48
394.94	213.83
395.31	213.60
395.69	213.98
396.06	214.17
396.44	214.55
396.82	214.60
397.19	215.69
397.57	215.45
397.95	215.76
398.32	215.21
398.70	215.24
399.07	215.81
399.45	216.00
399.82	215.98
400.20	215.64
400.58	215.67
400.95	215.05
401.33	215.60
401.70	217.12
402.08	217.29
402.45	217.19
402.83	217.69
403.20	217.90
403.58	217.79
403.95	218.43
404.33	218.88
404.71	219.07
405.08	220.12
405.46	220.64
405.83	220.86
406.21	221.26
406.58	221.98
406.96	222.07
407.33	222.74
407.70	223.50
408.08	225.74
408.45	226.71
408.83	227.76
409.20	228.38
409.58	227.98
409.95	229.02
410.33	229.93
410.70	230.21
411.08	231.57
411.45	232.57
411.82	233.33
412.20	235.17
412.57	237.50
412.95	237.31
413.32	239.14
413.69	240.74
414.07	242.50
414.44	244.31
414.82	246.45
415.19	248.90
415.56	250.90
415.94	251.98
416.31	255.02
416.68	257.95
417.06	261.12
417.43	264.71
417.81	268.48
418.18	272.36
418.55	276.43
418.93	280.76
419.30	285.31
419.67	289.86
420.04	293.98
420.42	298.43
420.79	305.60
421.16	311.26
421.54	318.62
421.91	325.10
422.28	331.36
422.66	338.02
423.03	346.19
423.40	353.76
423.77	361.29
424.15	368.86
424.52	376.50
424.89	385.33
425.26	393.17
425.64	400.57
426.01	409.17
426.38	418.31
426.75	427.93
427.13	436.90
427.50	447.00
427.87	457.60
428.24	467.81
428.61	476.33
428.99	488.12
429.36	499.21
429.73	510.31
430.10	521.86
430.47	534.10
430.85	544.93
431.22	557.90
431.59	572.86
431.96	585.64
432.33	600.24
432.70	614.14
433.08	630.52
433.45	646.55
433.82	662.55
434.19	679.67
434.56	696.81
434.93	714.00
435.30	729.90
435.68	747.76
436.05	765.29
436.42	782.95
436.79	798.60
437.16	815.45
437.53	834.74
437.90	852.86
438.27	870.74
438.64	889.10
439.01	906.19
439.38	920.24
439.75	935.12
440.13	952.55
440.50	968.71
440.87	982.43
441.24	996.33
441.61	1010.88
441.98	1022.05
442.35	1034.52
442.72	1047.00
443.09	1060.71
443.46	1069.17
443.83	1074.83
444.20	1079.69
444.57	1086.10
444.94	1090.00
445.31	1093.07
445.68	1099.29
446.05	1101.07
446.42	1099.90
446.79	1099.05
447.16	1097.81
447.53	1097.17
447.90	1091.05
448.27	1084.00
448.64	1074.81
449.01	1068.00
449.37	1057.02
449.74	1046.02
450.11	1034.14
450.48	1019.00
450.85	1003.26
451.22	989.31
451.59	976.98
451.96	964.71
452.33	949.10
452.70	934.69
453.07	917.17
453.43	896.93
453.80	879.74
454.17	863.43
454.54	847.55
454.91	830.26
455.28	813.62
455.65	797.57
456.02	786.33
456.38	773.62
456.75	757.74
457.12	743.48
457.49	730.19
457.86	715.45
458.23	705.52
458.59	693.36
458.96	681.38
459.33	670.33
459.70	660.17
460.07	651.29
460.43	640.88
460.80	631.74
461.17	624.43
461.54	616.00
461.91	607.55
462.27	599.00
462.64	591.93
463.01	584.29
463.38	577.50
463.74	566.26
464.11	558.74
464.48	553.19
464.85	546.93
465.21	542.60
465.58	537.83
465.95	531.00
466.32	525.83
466.68	520.60
467.05	515.55
467.42	510.36
467.78	504.93
468.15	499.62
468.52	496.02
468.88	489.95
469.25	484.93
469.62	481.62
469.98	477.48
470.35	473.88
470.72	469.79
471.08	465.52
471.45	462.60
471.82	460.14
472.18	456.69
472.55	454.55
472.92	450.43
473.28	446.90
473.65	443.98
474.02	441.02
474.38	438.76
474.75	436.79
475.11	433.83
475.48	431.93
475.85	430.45
476.21	428.21
476.58	427.43
476.94	426.36
477.31	425.19
477.67	423.60
478.04	422.64
478.41	422.00
478.77	422.95
479.14	421.67
479.50	420.95
479.87	420.40
480.23	419.67
480.60	419.45
480.96	419.24
481.33	420.26
481.69	420.19
482.06	420.36
482.42	420.67
482.79	421.33
483.15	421.57
483.52	422.86
483.88	423.40
484.25	423.64
484.61	424.95
484.98	425.88
485.34	428.10
485.71	429.62
486.07	431.24
486.44	431.14
486.80	432.93
487.17	434.52
487.53	436.71
487.90	439.21
488.26	442.60
488.62	445.40
488.99	447.19
489.35	449.76
489.72	452.64
490.08	455.50
490.44	458.29
490.81	461.60
491.17	464.29
491.54	468.12
491.90	472.05
492.26	474.95
492.63	478.57
492.99	481.60
493.36	485.55
493.72	490.00
494.08	494.64
494.45	499.48
494.81	504.71
495.17	509.19
495.54	513.93
495.90	518.07
496.26	523.50
496.63	529.10
496.99	534.62
497.35	540.33
497.72	546.12
498.08	552.21
498.44	558.38
498.80	565.00
499.17	570.98
499.53	576.95
499.89	584.57
500.26	590.81
500.62	598.31
500.98	605.76
501.34	612.93
501.71	620.29
502.07	627.36
502.43	634.14
502.79	641.40
503.16	648.55
503.52	655.83
503.88	662.76
504.24	669.95
504.60	677.93
504.97	685.81
505.33	693.19
505.69	701.86
506.05	709.81
506.41	717.33
506.78	725.24
507.14	733.55
507.50	741.33
507.86	749.76
508.22	757.98
508.59	764.98
508.95	772.90
509.31	781.60
509.67	789.67
510.03	797.38
510.39	805.33
510.75	813.90
511.12	822.00
511.48	830.24
511.84	838.36
512.20	846.26
512.56	854.05
512.92	862.24
513.28	869.62
513.64	877.81
514.00	885.45
514.37	892.95
514.73	900.24
515.09	907.71
515.45	915.02
515.81	921.48
516.17	929.17
516.53	936.02
516.89	941.95
517.25	949.24
517.61	956.93
517.97	963.67
518.33	969.76
518.69	976.74
519.05	983.83
519.41	990.26
519.77	998.10
520.13	1004.19
520.49	1009.79
520.85	1015.86
521.21	1021.86
521.57	1028.12
521.93	1033.76
522.29	1040.10
522.65	1045.57
523.01	1051.98
523.37	1057.60
523.73	1062.90
524.09	1068.88
524.45	1073.86
524.81	1078.76
525.17	1083.69
525.53	1088.62
525.89	1093.98
526.25	1099.07
526.61	1103.17
526.97	1107.79
527.33	1111.10
527.68	1118.17
528.04	1123.21
528.40	1127.29
528.76	1131.98
529.12	1136.21
529.48	1141.60
529.84	1146.10
530.20	1151.10
530.56	1155.10
530.91	1159.67
531.27	1164.24
531.63	1168.40
531.99	1172.88
532.35	1176.76
532.71	1180.67
533.07	1185.60
533.42	1191.57
533.78	1196.21
534.14	1200.88
534.50	1205.10
534.86	1210.07
535.21	1212.12
535.57	1216.95
535.93	1220.83
536.29	1225.36
536.65	1229.57
537.00	1233.38
537.36	1236.67
537.72	1238.93
538.08	1243.26
538.44	1246.90
538.79	1250.60
539.15	1253.45
539.51	1257.50
539.87	1261.76
540.22	1265.64
540.58	1269.00
540.94	1270.79
541.29	1273.00
541.65	1276.17
542.01	1280.40
542.37	1283.81
542.72	1286.29
543.08	1288.76
543.44	1292.86
543.79	1294.19
544.15	1297.55
544.51	1300.95
544.87	1303.74
545.22	1308.38
545.58	1311.07
545.94	1314.02
546.29	1317.79
546.65	1321.38
547.01	1324.71
547.36	1328.38
547.72	1331.26
548.07	1334.69
548.43	1337.62
548.79	1341.36
549.14	1344.21
549.50	1347.36
549.86	1348.90
550.21	1352.98
550.57	1357.05
550.92	1359.88
551.28	1364.93
551.64	1368.48
551.99	1372.05
552.35	1375.88
552.70	1379.19
553.06	1382.79
553.41	1386.26
553.77	1391.02
554.13	1394.81
554.48	1399.62
554.84	1404.36
555.19	1409.07
555.55	1414.50
555.90	1419.17
556.26	1423.64
556.61	1428.21
556.97	1431.07
557.32	1436.29
557.68	1440.43
558.03	1443.33
558.39	1447.55
558.74	1450.88
559.10	1455.29
559.45	1459.19
559.81	1464.43
560.16	1468.71
560.52	1472.64
560.87	1478.57
561.23	1481.93
561.58	1488.31
561.94	1492.05
562.29	1495.19
562.64	1499.14
563.00	1502.81
563.35	1507.26
563.71	1512.48
564.06	1517.57
564.42	1524.19
564.77	1530.14
565.12	1536.05
565.48	1545.17
565.83	1550.52
566.19	1556.93
566.54	1562.45
566.89	1568.76
567.25	1574.45
567.60	1581.79
567.96	1590.88
568.31	1597.90
568.66	1604.45
569.02	1607.93
569.37	1612.83
569.72	1619.62
570.08	1625.26
570.43	1630.19
570.78	1636.02
571.14	1641.17
571.49	1646.52
571.84	1650.17
572.20	1654.57
572.55	1659.12
572.90	1661.14
573.26	1666.05
573.61	1669.83
573.96	1674.29
574.31	1678.14
574.67	1682.19
575.02	1685.02
575.37	1685.55
575.72	1687.05
576.08	1690.21
576.43	1693.74
576.78	1697.10
577.13	1699.38
577.49	1702.52
577.84	1706.52
578.19	1709.43
578.54	1713.10
578.90	1716.48
579.25	1720.52
579.60	1722.98
579.95	1725.05
580.30	1728.38
580.66	1732.24
581.01	1735.02
581.36	1737.02
581.71	1739.07
582.06	1743.14
582.42	1745.36
582.77	1748.26
583.12	1751.67
583.47	1754.26
583.82	1756.57
584.17	1759.31
584.53	1762.67
584.88	1765.14
585.23	1767.29
585.58	1769.71
585.93	1770.69
586.28	1773.12
586.63	1775.10
586.98	1778.24
587.34	1781.07
587.69	1782.02
588.04	1782.86
588.39	1785.02
588.74	1787.24
589.09	1789.24
589.44	1788.33
589.79	1790.02
590.14	1791.19
590.49	1791.45
590.84	1791.83
591.19	1794.10
591.54	1795.10
591.89	1794.55
592.25	1797.86
592.60	1797.67
592.95	1797.67
593.30	1799.19
593.65	1798.69
594.00	1797.83
594.35	1802.79
594.70	1802.43
595.05	1803.67
595.40	1804.00
595.75	1803.33
596.10	1803.29
596.45	1803.19
596.80	1802.81
597.15	1803.79
597.50	1803.62
597.85	1803.60
598.19	1803.79
598.54	1802.81
598.89	1802.55
599.24	1803.52
599.59	1800.57
599.94	1800.05
600.29	1800.14
600.64	1798.93
600.99	1797.95
601.34	1797.83
601.69	1792.00
602.04	1791.40
602.39	1789.76
602.74	1789.29
603.08	1787.31
603.43	1786.40
603.78	1784.69
604.13	1785.14
604.48	1782.74
604.83	1782.55
605.18	1781.79
605.53	1780.57
605.87	1779.48
606.22	1777.60
606.57	1774.95
606.92	1772.31
607.27	1771.31
607.62	1769.71
607.96	1768.19
608.31	1767.40
608.66	1766.33
609.01	1763.14
609.36	1760.48
609.70	1758.19
610.05	1754.95
610.40	1753.69
610.75	1750.40
611.10	1748.38
611.44	1744.90
611.79	1741.45
612.14	1736.90
612.49	1733.33
612.83	1729.00
613.18	1725.12
613.53	1721.26
613.88	1717.07
614.22	1714.33
614.57	1710.62
614.92	1705.64
615.27	1700.88
615.61	1695.79
615.96	1690.64
616.31	1687.52
616.65	1683.81
617.00	1680.57
617.35	1676.95
617.70	1671.95
618.04	1667.74
618.39	1662.69
618.74	1657.43
619.08	1652.71
619.43	1647.93
619.78	1643.17
620.12	1638.93
620.47	1635.07
620.82	1630.10
621.16	1625.33
621.51	1621.86
621.85	1615.79
622.20	1610.83
622.55	1605.19
622.89	1600.31
623.24	1596.07
623.59	1590.17
623.93	1584.98
624.28	1579.38
624.62	1576.17
624.97	1573.24
625.32	1568.00
625.66	1563.74
626.01	1559.14
626.35	1555.90
626.70	1551.95
627.04	1548.36
627.39	1543.62
627.73	1539.07
628.08	1535.60
628.43	1531.31
628.77	1526.33
629.12	1522.48
629.46	1519.00
629.81	1515.52
630.15	1509.88
630.50	1504.52
630.84	1499.79
631.19	1494.24
631.53	1488.71
631.88	1480.17
632.22	1473.55
632.57	1469.36
632.91	1464.10
633.26	1459.57
633.60	1452.62
633.95	1446.98
634.29	1439.76
634.64	1434.52
634.98	1428.21
635.32	1422.67
635.67	1417.36
636.01	1411.31
636.36	1405.67
636.70	1401.02
637.05	1395.62
637.39	1390.90
637.73	1386.02
638.08	1381.57
638.42	1377.14
638.77	1371.90
639.11	1367.71
639.45	1362.00
639.80	1355.52
640.14	1349.45
640.49	1343.67
640.83	1337.71
641.17	1332.14
641.52	1326.76
641.86	1320.64
642.20	1315.67
642.55	1308.36
642.89	1302.55
643.23	1295.69
643.58	1290.14
643.92	1281.76
644.26	1274.90
644.61	1269.31
644.95	1262.29
645.29	1255.48
645.64	1249.57
645.98	1243.10
646.32	1237.14
646.66	1230.71
647.01	1224.10
647.35	1218.83
647.69	1211.95
648.04	1206.50
648.38	1200.07
648.72	1193.74
649.06	1187.31
649.41	1179.43
649.75	1173.26
650.09	1166.83
650.43	1160.33
650.78	1153.21
651.12	1147.38
651.46	1140.71
651.80	1133.88
652.14	1127.81
652.49	1121.36
652.83	1114.86
653.17	1107.57
653.51	1100.19
653.85	1093.64
654.20	1087.62
654.54	1079.88
654.88	1072.55
655.22	1066.07
655.56	1059.02
655.90	1052.43
656.25	1045.81
656.59	1039.45
656.93	1033.57
657.27	1027.38
657.61	1021.07
657.95	1014.86
658.29	1008.33
658.64	1002.38
658.98	995.55
659.32	988.43
659.66	981.52
660.00	974.26
660.34	968.45
660.68	962.24
661.02	956.19
661.36	949.64
661.70	943.64
662.05	938.10
662.39	932.31
662.73	926.88
663.07	921.48
663.41	915.48
663.75	909.90
664.09	904.19
664.43	897.76
664.77	892.52
665.11	886.26
665.45	880.62
665.79	875.07
666.13	869.17
666.47	863.36
666.81	857.93
667.15	852.24
667.49	847.17
667.83	842.38
668.17	837.02
668.51	831.69
668.85	826.40
669.19	822.52
669.53	816.02
669.87	810.48
670.21	804.21
670.55	798.88
670.89	794.48
671.23	788.98
671.57	783.69
671.91	777.69
672.25	773.00
672.58	768.38
672.92	762.69
673.26	757.86
673.60	753.07
673.94	748.12
674.28	743.62
674.62	738.95
674.96	733.31
675.30	728.43
675.64	723.60
675.97	718.74
676.31	713.07
676.65	708.74
676.99	704.93
677.33	701.00
677.67	696.98
678.01	691.48
678.34	686.76
678.68	683.02
679.02	678.95
679.36	674.26
679.70	669.36
680.04	665.19
680.37	660.86
680.71	656.81
681.05	652.40
681.39	647.60
681.73	642.93
682.06	638.45
682.40	634.10
682.74	630.00
683.08	626.71
683.42	621.67
683.75	617.38
684.09	612.29
684.43	608.02
684.77	603.00
685.10	599.05
685.44	595.07
685.78	590.02
686.12	585.69
686.45	581.33
686.79	576.52
687.13	572.86
687.46	568.98
687.80	565.57
688.14	562.00
688.48	558.26
688.81	554.21
689.15	551.52
689.49	547.36
689.82	543.36
690.16	538.36
690.50	534.55
690.83	530.43
691.17	526.05
691.51	521.88
691.84	518.52
692.18	514.31
692.52	510.57
692.85	507.76
693.19	504.55
693.52	501.14
693.86	497.95
694.20	493.98
694.53	490.40
694.87	486.45
695.21	482.55
695.54	479.02
695.88	475.19
696.21	470.64
696.55	467.67
696.88	464.60
697.22	461.45
697.56	459.07
697.89	456.10
698.23	453.69
698.56	450.60
698.90	447.64
699.23	444.67
699.57	441.71
699.90	438.24
700.24	435.14
700.58	431.88
700.91	429.33
701.25	428.67
701.58	426.38
701.92	424.10
702.25	421.64
702.59	418.90
702.92	416.43
703.26	414.31
703.59	411.43
703.93	410.50
704.26	408.10
704.60	405.67
704.93	403.19
705.26	400.67
705.60	398.86
705.93	396.36
706.27	395.05
706.60	393.48
706.94	392.19
707.27	389.86
707.61	388.17
707.94	386.12
708.27	382.29
708.61	379.71
708.94	377.52
709.28	375.45
709.61	373.55
709.94	371.69
710.28	369.71
710.61	368.33
710.95	364.64
711.28	364.24
711.61	361.93
711.95	360.64
712.28	358.60
712.61	356.36
712.95	355.64
713.28	354.24
713.61	351.76
713.95	349.52
714.28	348.07
714.61	346.48
714.95	344.64
715.28	342.69
715.61	341.14
715.95	339.48
716.28	337.71
716.61	336.60
716.95	334.98
717.28	333.38
717.61	331.52
717.94	329.90
718.28	327.05
718.61	325.36
718.94	323.64
719.27	322.45
719.61	321.17
719.94	319.38
720.27	317.00
720.60	315.55
720.94	313.93
721.27	312.52
721.60	311.38
721.93	310.17
722.27	309.55
722.60	308.64
722.93	307.40
723.26	306.24
723.59	304.79
723.93	303.93
724.26	303.07
724.59	301.86
724.92	301.14
725.25	300.48
725.59	299.76
725.92	298.76
726.25	297.74
726.58	296.86
726.91	295.55
727.24	295.19
727.57	294.26
727.91	293.07
728.24	292.36
728.57	291.02
728.90	290.40
729.23	288.83
729.56	288.55
729.89	287.79
730.22	286.90
730.55	285.95
730.89	285.12
731.22	284.02
731.55	283.21
731.88	282.38
732.21	281.26
732.54	280.38
732.87	279.79
733.20	279.02
733.53	278.43
733.86	277.71
734.19	276.67
734.52	276.29
734.85	277.00
735.18	275.95
735.51	276.24
735.84	275.60
736.17	275.52
736.50	273.83
736.83	275.36
737.16	274.74
737.49	274.10
737.82	273.26
738.15	272.98
738.48	272.36
738.81	271.62
739.14	270.86
739.47	270.07
739.80	269.24
740.13	268.60
740.46	267.36
740.79	266.43
741.12	265.64
741.45	265.07
741.78	263.38
742.11	263.45
742.44	262.36
742.77	261.90
743.10	261.10
743.43	260.43
743.75	257.57
744.08	259.43
744.41	258.69
744.74	258.10
745.07	257.07
745.40	256.83
745.73	257.00
746.06	256.64
746.39	256.71
746.71	256.10
747.04	255.43
747.37	255.48
747.70	255.55
748.03	255.19
748.36	254.76
748.68	254.17
749.01	252.86
749.34	252.12
749.67	251.45
750.00	251.19
750.33	252.33
750.65	252.19
750.98	249.50
751.31	249.21
751.64	249.00
751.97	249.76
752.29	249.40
752.62	248.00
752.95	247.26
753.28	246.43
753.60	245.93
753.93	246.26
754.26	245.74
754.59	244.57
754.91	244.10
755.24	243.79
755.57	243.76
755.90	243.67
756.22	243.29
756.55	242.88
756.88	242.00
757.20	240.33
757.53	239.57
757.86	239.24
758.19	239.02
758.51	238.62
758.84	237.31
759.17	236.76
759.49	236.93
759.82	237.67
760.15	237.48
760.47	237.31
760.80	236.33
761.13	236.33
761.45	236.26
761.78	235.86
762.11	235.36
762.43	234.81
762.76	234.50
763.08	234.64
763.41	234.43
763.74	234.40
764.06	234.14
764.39	233.76
764.71	233.29
765.04	232.83
765.37	232.52
765.69	232.00
766.02	231.62
766.34	231.24
766.67	230.40
767.00	230.50
767.32	231.55
767.65	232.69
767.97	232.31
768.30	232.17
768.62	231.98
768.95	231.52
769.27	230.98
769.60	231.02
769.92	230.31
770.25	229.57
770.57	229.31
770.90	229.00
771.22	228.90
771.55	229.00
771.87	229.00
772.20	228.67
772.52	230.17
772.85	232.43
773.17	232.29
773.50	231.93
773.82	231.33
774.15	229.74
774.47	228.14
774.80	227.64
775.12	227.45
775.45	227.33
775.77	227.40
776.09	227.83
776.42	227.76
776.74	228.17
777.07	228.14
777.39	228.17
777.72	227.81
778.04	227.83
778.36	227.74
778.69	227.50
779.01	227.62
779.33	225.98
779.66	223.71
779.98	223.57
780.31	223.36
780.63	224.19
780.95	224.74
781.28	224.76
781.60	224.71
781.92	224.50
782.25	224.26
782.57	224.07
782.89	223.62
783.22	223.26
783.54	222.81
783.86	222.79
784.19	222.45
784.51	223.26
784.83	222.93
785.16	222.40
