SpectraSuite Data File
++++++++++++++++++++++++++++++++++++
Date: Tue Apr 02 18:46:40 EDT 2013
User: group
Dark Spectrum Present: No
Reference Spectrum Present: No
Number of Sampled Component Spectra: 1
Spectrometers: USB2E7196
Integration Time (usec): 580000 (USB2E7196)
Spectra Averaged: 2 (USB2E7196)
Boxcar Smoothing: 10 (USB2E7196)
Correct for Electrical Dark: No (USB2E7196)
Strobe/Lamp Enabled: No (USB2E7196)
Correct for Detector Non-linearity: No (USB2E7196)
Correct for Stray Light: No (USB2E7196)
Number of Pixels in Processed Spectrum: 2048
>>>>>Begin Processed Spectral Data<<<<<
339.09	0.00
339.48	194.00
339.86	192.50
340.24	197.50
340.63	200.50
341.01	229.00
341.39	198.50
341.78	203.50
342.16	211.00
342.54	204.50
342.93	197.57
343.31	207.31
343.69	207.95
344.07	208.57
344.46	209.45
344.84	210.02
345.22	208.88
345.60	209.29
345.99	209.64
346.37	209.64
346.75	209.71
347.13	210.02
347.52	210.26
347.90	211.12
348.28	211.10
348.66	211.48
349.05	210.55
349.43	210.67
349.81	210.83
350.19	211.02
350.57	211.02
350.96	211.24
351.34	211.74
351.72	211.88
352.10	212.12
352.48	211.74
352.87	211.67
353.25	211.74
353.63	211.74
354.01	211.95
354.39	212.07
354.77	212.36
355.15	212.83
355.54	212.64
355.92	211.86
356.30	211.98
356.68	213.19
357.06	213.64
357.44	213.19
357.82	213.05
358.20	214.07
358.58	214.00
358.97	214.05
359.35	214.14
359.73	214.60
360.11	214.62
360.49	214.74
360.87	214.81
361.25	215.31
361.63	216.05
362.01	216.07
362.39	215.90
362.77	216.10
363.15	215.98
363.53	216.17
363.91	216.43
364.29	216.48
364.67	214.67
365.05	214.93
365.43	215.52
365.81	215.90
366.19	215.90
366.57	216.86
366.95	216.83
367.33	216.55
367.71	216.26
368.09	216.38
368.47	216.43
368.85	216.33
369.23	216.76
369.61	216.12
369.99	216.62
370.37	216.86
370.75	217.50
371.13	217.14
371.51	216.83
371.89	216.88
372.27	217.00
372.65	217.19
373.03	217.00
373.41	216.45
373.78	216.24
374.16	215.29
374.54	214.43
374.92	214.24
375.30	214.07
375.68	213.81
376.06	213.95
376.44	213.79
376.82	213.88
377.19	213.50
377.57	213.43
377.95	212.79
378.33	212.57
378.71	211.40
379.09	211.55
379.47	211.69
379.84	211.33
380.22	211.02
380.60	210.55
380.98	210.48
381.36	210.71
381.73	210.36
382.11	210.71
382.49	211.19
382.87	211.05
383.25	211.50
383.62	214.12
384.00	213.88
384.38	214.07
384.76	214.19
385.13	215.17
385.51	215.19
385.89	214.83
386.27	215.10
386.64	215.40
387.02	215.38
387.40	215.31
387.78	215.45
388.15	215.71
388.53	215.81
388.91	215.93
389.29	215.86
389.66	216.38
390.04	216.24
390.42	216.38
390.79	216.48
391.17	216.29
391.55	214.10
391.92	214.21
392.30	214.45
392.68	214.45
393.05	214.05
393.43	214.21
393.81	214.71
394.18	214.29
394.56	214.33
394.94	214.69
395.31	214.48
395.69	215.33
396.06	215.62
396.44	215.95
396.82	215.48
397.19	216.40
397.57	216.43
397.95	216.79
398.32	216.19
398.70	216.43
399.07	216.79
399.45	216.60
399.82	216.55
400.20	216.19
400.58	216.02
400.95	215.31
401.33	215.60
401.70	216.79
402.08	217.12
402.45	217.29
402.83	218.12
403.20	218.48
403.58	218.40
403.95	218.74
404.33	219.05
404.71	219.69
405.08	220.98
405.46	221.02
405.83	221.19
406.21	221.64
406.58	222.19
406.96	222.43
407.33	222.90
407.70	223.40
408.08	225.83
408.45	226.86
408.83	227.83
409.20	228.50
409.58	228.07
409.95	229.24
410.33	230.43
410.70	230.64
411.08	231.90
411.45	232.67
411.82	233.43
412.20	234.98
412.57	237.43
412.95	237.00
413.32	238.86
413.69	240.43
414.07	241.79
414.44	243.38
414.82	245.36
415.19	247.81
415.56	250.12
415.94	251.10
416.31	253.83
416.68	256.69
417.06	260.00
417.43	263.29
417.81	266.57
418.18	270.07
418.55	273.50
418.93	277.33
419.30	281.55
419.67	286.00
420.04	289.90
420.42	294.00
420.79	300.88
421.16	306.33
421.54	313.24
421.91	319.79
422.28	325.93
422.66	332.57
423.03	340.24
423.40	347.05
423.77	354.17
424.15	361.38
424.52	369.17
424.89	377.52
425.26	385.21
425.64	392.83
426.01	401.26
426.38	410.00
426.75	419.29
427.13	428.52
427.50	437.93
427.87	447.98
428.24	458.02
428.61	466.43
428.99	478.07
429.36	488.21
429.73	498.90
430.10	510.24
430.47	522.02
430.85	532.02
431.22	544.48
431.59	559.52
431.96	572.00
432.33	585.95
432.70	599.45
433.08	615.67
433.45	630.90
433.82	645.62
434.19	662.74
434.56	679.67
434.93	695.36
435.30	711.36
435.68	728.93
436.05	745.81
436.42	762.29
436.79	777.24
437.16	794.43
437.53	812.86
437.90	830.88
438.27	848.74
438.64	867.07
439.01	884.19
439.38	897.38
439.75	911.76
440.13	928.02
440.50	943.69
440.87	956.64
441.24	969.93
441.61	984.60
441.98	995.24
442.35	1006.57
442.72	1019.05
443.09	1032.57
443.46	1039.81
443.83	1045.43
444.20	1050.21
444.57	1056.43
444.94	1059.21
445.31	1061.98
445.68	1067.17
446.05	1068.19
446.42	1067.40
446.79	1066.17
447.16	1064.02
447.53	1063.07
447.90	1056.93
448.27	1050.36
448.64	1041.24
449.01	1035.00
449.37	1024.07
449.74	1013.62
450.11	1002.69
450.48	988.19
450.85	971.79
451.22	959.95
451.59	947.74
451.96	936.24
452.33	921.00
452.70	907.14
453.07	890.05
453.43	870.57
453.80	854.05
454.17	838.50
454.54	822.81
454.91	807.17
455.28	791.45
455.65	776.48
456.02	765.55
456.38	753.14
456.75	737.74
457.12	724.33
457.49	710.90
457.86	696.62
458.23	687.02
458.59	676.19
458.96	664.38
459.33	653.98
459.70	643.95
460.07	635.55
460.43	626.10
460.80	618.26
461.17	611.31
461.54	603.07
461.91	594.79
462.27	586.71
462.64	580.12
463.01	572.76
463.38	566.43
463.74	555.64
464.11	549.19
464.48	543.57
464.85	537.69
465.21	533.81
465.58	529.17
465.95	522.33
466.32	516.90
466.68	511.43
467.05	505.90
467.42	501.07
467.78	495.83
468.15	490.76
468.52	487.07
468.88	481.26
469.25	476.43
469.62	473.19
469.98	469.93
470.35	466.19
470.72	462.55
471.08	458.31
471.45	455.31
471.82	452.62
472.18	449.07
472.55	446.71
472.92	442.67
473.28	439.76
473.65	437.21
474.02	434.69
474.38	432.86
474.75	431.40
475.11	428.79
475.48	427.19
475.85	425.69
476.21	423.31
476.58	422.17
476.94	421.26
477.31	419.62
477.67	417.98
478.04	416.76
478.41	416.10
478.77	417.33
479.14	416.24
479.50	415.31
479.87	414.79
480.23	413.83
480.60	413.43
480.96	413.10
481.33	414.19
481.69	414.10
482.06	414.31
482.42	414.83
482.79	415.62
483.15	415.57
483.52	416.64
483.88	417.02
484.25	417.60
484.61	418.40
484.98	419.40
485.34	421.26
485.71	423.07
486.07	424.21
486.44	423.67
486.80	425.45
487.17	426.88
487.53	429.45
487.90	432.33
488.26	435.76
488.62	438.64
488.99	439.79
489.35	442.83
489.72	445.24
490.08	447.57
490.44	450.17
490.81	453.90
491.17	456.71
491.54	460.60
491.90	464.36
492.26	467.74
492.63	471.48
492.99	474.62
493.36	478.21
493.72	483.14
494.08	487.62
494.45	492.24
494.81	497.79
495.17	502.24
495.54	507.36
495.90	511.60
496.26	516.74
496.63	523.02
496.99	528.21
497.35	533.86
497.72	539.74
498.08	545.50
498.44	551.67
498.80	558.07
499.17	564.21
499.53	570.40
499.89	577.76
500.26	584.38
500.62	591.31
500.98	598.86
501.34	605.62
501.71	612.50
502.07	619.12
502.43	625.43
502.79	632.21
503.16	638.50
503.52	645.69
503.88	652.48
504.24	659.81
504.60	667.33
504.97	675.45
505.33	683.07
505.69	692.17
506.05	699.50
506.41	707.10
506.78	714.50
507.14	722.48
507.50	729.88
507.86	737.83
508.22	746.17
508.59	753.50
508.95	761.52
509.31	770.88
509.67	779.02
510.03	786.93
510.39	795.02
510.75	803.10
511.12	810.81
511.48	818.67
511.84	826.33
512.20	834.21
512.56	841.45
512.92	848.93
513.28	855.26
513.64	862.33
514.00	870.02
514.37	877.81
514.73	884.79
515.09	892.17
515.45	898.86
515.81	905.69
516.17	912.48
516.53	918.24
516.89	923.74
517.25	930.50
517.61	937.76
517.97	944.45
518.33	950.38
518.69	957.40
519.05	963.81
519.41	970.17
519.77	976.98
520.13	982.83
520.49	988.52
520.85	994.52
521.21	1001.24
521.57	1006.29
521.93	1011.55
522.29	1017.10
522.65	1022.21
523.01	1027.50
523.37	1032.14
523.73	1037.43
524.09	1042.86
524.45	1047.38
524.81	1052.02
525.17	1056.86
525.53	1061.62
525.89	1066.29
526.25	1071.02
526.61	1075.10
526.97	1078.43
527.33	1082.88
527.68	1089.05
528.04	1093.76
528.40	1097.98
528.76	1101.62
529.12	1106.36
529.48	1111.26
529.84	1115.02
530.20	1119.71
530.56	1124.67
530.91	1128.90
531.27	1133.24
531.63	1137.26
531.99	1141.12
532.35	1144.95
532.71	1148.98
533.07	1152.90
533.42	1159.67
533.78	1163.64
534.14	1168.60
534.50	1172.29
534.86	1176.45
535.21	1178.79
535.57	1183.00
535.93	1186.83
536.29	1191.71
536.65	1196.31
537.00	1199.40
537.36	1203.64
537.72	1206.81
538.08	1209.38
538.44	1212.29
538.79	1214.86
539.15	1218.02
539.51	1222.40
539.87	1225.90
540.22	1229.40
540.58	1232.79
540.94	1234.17
541.29	1236.95
541.65	1238.79
542.01	1242.43
542.37	1244.26
542.72	1246.14
543.08	1248.17
543.44	1250.76
543.79	1251.57
544.15	1253.29
544.51	1257.12
544.87	1259.36
545.22	1261.90
545.58	1265.60
545.94	1268.52
546.29	1271.36
546.65	1274.48
547.01	1276.69
547.36	1278.79
547.72	1280.24
548.07	1282.45
548.43	1284.17
548.79	1285.81
549.14	1288.31
549.50	1291.69
549.86	1293.62
550.21	1296.76
550.57	1299.26
550.92	1302.07
551.28	1305.57
551.64	1308.62
551.99	1310.57
552.35	1314.02
552.70	1316.62
553.06	1318.71
553.41	1322.05
553.77	1326.74
554.13	1329.36
554.48	1332.93
554.84	1338.05
555.19	1342.12
555.55	1347.10
555.90	1350.57
556.26	1355.88
556.61	1359.74
556.97	1362.07
557.32	1366.57
557.68	1370.36
558.03	1374.43
558.39	1377.71
558.74	1381.83
559.10	1385.74
559.45	1390.79
559.81	1394.50
560.16	1399.00
560.52	1403.95
560.87	1407.95
561.23	1410.76
561.58	1417.62
561.94	1421.83
562.29	1425.38
562.64	1429.64
563.00	1432.38
563.35	1437.33
563.71	1441.26
564.06	1446.81
564.42	1452.57
564.77	1457.64
565.12	1463.33
565.48	1470.95
565.83	1476.69
566.19	1481.64
566.54	1486.02
566.89	1490.05
567.25	1496.19
567.60	1503.07
567.96	1509.60
568.31	1516.69
568.66	1523.19
569.02	1526.86
569.37	1532.02
569.72	1537.14
570.08	1542.29
570.43	1547.74
570.78	1553.55
571.14	1559.17
571.49	1563.29
571.84	1568.12
572.20	1573.29
572.55	1577.88
572.90	1579.98
573.26	1584.74
573.61	1589.38
573.96	1595.29
574.31	1600.24
574.67	1604.12
575.02	1606.62
575.37	1609.17
575.72	1611.38
576.08	1614.95
576.43	1618.76
576.78	1622.19
577.13	1625.98
577.49	1630.17
577.84	1635.17
578.19	1639.21
578.54	1642.76
578.90	1648.26
579.25	1651.83
579.60	1654.90
579.95	1658.55
580.30	1662.90
580.66	1667.88
581.01	1671.98
581.36	1674.64
581.71	1678.05
582.06	1683.31
582.42	1687.45
582.77	1690.62
583.12	1694.93
583.47	1698.36
583.82	1701.45
584.17	1705.00
584.53	1709.17
584.88	1712.02
585.23	1715.55
585.58	1717.52
585.93	1720.79
586.28	1722.74
586.63	1726.05
586.98	1729.17
587.34	1732.57
587.69	1735.14
588.04	1736.98
588.39	1740.07
588.74	1742.26
589.09	1744.55
589.44	1745.26
589.79	1747.31
590.14	1750.24
590.49	1751.88
590.84	1753.24
591.19	1755.24
591.54	1757.12
591.89	1758.26
592.25	1761.67
592.60	1762.12
592.95	1765.17
593.30	1767.14
593.65	1768.83
594.00	1769.55
594.35	1776.48
594.70	1777.31
595.05	1779.19
595.40	1779.40
595.75	1778.69
596.10	1780.17
596.45	1781.55
596.80	1783.05
597.15	1784.50
597.50	1784.05
597.85	1785.00
598.19	1785.93
598.54	1787.45
598.89	1788.19
599.24	1789.71
599.59	1789.17
599.94	1789.64
600.29	1788.88
600.64	1787.79
600.99	1787.95
601.34	1788.83
601.69	1783.48
602.04	1783.43
602.39	1782.14
602.74	1783.43
603.08	1783.93
603.43	1785.05
603.78	1784.81
604.13	1783.88
604.48	1782.24
604.83	1782.95
605.18	1783.52
605.53	1783.24
605.87	1781.71
606.22	1780.98
606.57	1778.90
606.92	1778.10
607.27	1776.52
607.62	1776.52
607.96	1777.07
608.31	1776.62
608.66	1775.19
609.01	1773.21
609.36	1771.93
609.70	1771.12
610.05	1768.21
610.40	1767.21
610.75	1764.62
611.10	1762.98
611.44	1760.14
611.79	1759.19
612.14	1757.26
612.49	1753.76
612.83	1752.36
613.18	1749.43
613.53	1747.24
613.88	1744.24
614.22	1740.88
614.57	1737.38
614.92	1733.74
615.27	1729.93
615.61	1725.67
615.96	1722.52
616.31	1719.88
616.65	1717.24
617.00	1713.93
617.35	1711.86
617.70	1708.33
618.04	1704.33
618.39	1700.88
618.74	1698.24
619.08	1694.02
619.43	1690.93
619.78	1688.07
620.12	1683.55
620.47	1680.90
620.82	1675.90
621.16	1672.19
621.51	1669.31
621.85	1665.79
622.20	1661.60
622.55	1657.14
622.89	1654.07
623.24	1651.62
623.59	1648.19
623.93	1643.57
624.28	1639.88
624.62	1637.07
624.97	1634.50
625.32	1630.33
625.66	1625.40
626.01	1621.24
626.35	1618.55
626.70	1613.43
627.04	1609.98
627.39	1604.74
627.73	1601.10
628.08	1598.12
628.43	1594.79
628.77	1590.69
629.12	1588.60
629.46	1586.02
629.81	1582.24
630.15	1576.71
630.50	1571.14
630.84	1565.95
631.19	1561.40
631.53	1556.45
631.88	1549.55
632.22	1542.93
632.57	1539.93
632.91	1535.36
633.26	1531.10
633.60	1525.12
633.95	1520.29
634.29	1514.45
634.64	1511.31
634.98	1505.69
635.32	1501.83
635.67	1498.12
636.01	1493.36
636.36	1488.21
636.70	1483.00
637.05	1479.12
637.39	1475.43
637.73	1471.24
638.08	1467.81
638.42	1463.50
638.77	1459.43
639.11	1455.55
639.45	1451.57
639.80	1445.79
640.14	1442.10
640.49	1437.40
640.83	1432.12
641.17	1427.79
641.52	1422.90
641.86	1417.90
642.20	1415.17
642.55	1409.40
642.89	1403.71
643.23	1398.12
643.58	1392.88
643.92	1386.93
644.26	1380.43
644.61	1376.33
644.95	1370.60
645.29	1363.93
645.64	1359.19
645.98	1353.90
646.32	1348.64
646.66	1342.60
647.01	1336.57
647.35	1330.29
647.69	1323.86
648.04	1319.81
648.38	1314.14
648.72	1308.60
649.06	1302.52
649.41	1294.38
649.75	1288.00
650.09	1281.95
650.43	1275.86
650.78	1269.31
651.12	1263.12
651.46	1257.02
651.80	1250.07
652.14	1243.71
652.49	1238.76
652.83	1231.93
653.17	1224.57
653.51	1218.76
653.85	1212.93
654.20	1206.71
654.54	1200.36
654.88	1194.14
655.22	1188.12
655.56	1181.98
655.90	1175.55
656.25	1169.69
656.59	1164.26
656.93	1158.83
657.27	1153.83
657.61	1147.52
657.95	1142.21
658.29	1136.31
658.64	1131.05
658.98	1124.31
659.32	1117.95
659.66	1111.17
660.00	1105.12
660.34	1099.86
660.68	1093.55
661.02	1087.21
661.36	1082.10
661.70	1076.79
662.05	1071.52
662.39	1065.21
662.73	1059.90
663.07	1055.60
663.41	1049.62
663.75	1043.50
664.09	1037.74
664.43	1031.02
664.77	1025.55
665.11	1018.67
665.45	1013.40
665.79	1007.55
666.13	1001.62
666.47	996.52
666.81	991.00
667.15	985.50
667.49	980.95
667.83	975.74
668.17	970.38
668.51	965.83
668.85	960.29
669.19	955.79
669.53	949.45
669.87	943.48
670.21	936.45
670.55	930.98
670.89	926.43
671.23	920.69
671.57	914.95
671.91	909.86
672.25	905.88
672.58	901.31
672.92	895.55
673.26	891.33
673.60	886.36
673.94	881.24
674.28	876.10
674.62	870.43
674.96	865.07
675.30	860.71
675.64	854.62
675.97	849.69
676.31	843.14
676.65	838.52
676.99	834.60
677.33	830.19
677.67	825.38
678.01	819.45
678.34	815.02
678.68	810.88
679.02	805.76
679.36	799.57
679.70	794.00
680.04	789.64
680.37	784.33
680.71	778.98
681.05	774.67
681.39	769.79
681.73	764.93
682.06	759.69
682.40	754.45
682.74	749.93
683.08	745.33
683.42	740.81
683.75	736.21
684.09	730.31
684.43	725.52
684.77	720.71
685.10	716.17
685.44	711.24
685.78	705.79
686.12	701.69
686.45	697.45
686.79	692.31
687.13	687.98
687.46	683.36
687.80	679.48
688.14	674.74
688.48	670.57
688.81	666.00
689.15	662.52
689.49	658.05
689.82	653.38
690.16	648.43
690.50	644.21
690.83	639.95
691.17	635.40
691.51	630.83
691.84	626.36
692.18	621.93
692.52	617.57
692.85	613.98
693.19	610.07
693.52	606.00
693.86	601.62
694.20	597.17
694.53	593.21
694.87	588.81
695.21	584.21
695.54	580.02
695.88	576.00
696.21	570.45
696.55	566.40
696.88	562.31
697.22	558.38
697.56	554.69
697.89	550.33
698.23	547.10
698.56	543.14
698.90	539.50
699.23	536.05
699.57	532.43
699.90	528.19
700.24	523.88
700.58	520.02
700.91	517.07
701.25	515.60
701.58	513.02
701.92	510.10
702.25	506.98
702.59	503.26
702.92	499.76
703.26	496.86
703.59	493.86
703.93	492.48
704.26	489.74
704.60	486.83
704.93	483.57
705.26	480.21
705.60	478.17
705.93	475.05
706.27	472.60
706.60	470.07
706.94	468.00
707.27	465.05
707.61	462.83
707.94	460.02
708.27	455.10
708.61	451.07
708.94	447.83
709.28	445.29
709.61	442.57
709.94	440.21
710.28	437.76
710.61	435.12
710.95	430.40
711.28	429.00
711.61	426.17
711.95	424.43
712.28	421.88
712.61	418.60
712.95	417.12
713.28	415.36
713.61	412.60
713.95	409.64
714.28	407.38
714.61	404.71
714.95	402.24
715.28	399.74
715.61	397.24
715.95	395.12
716.28	392.60
716.61	390.45
716.95	387.76
717.28	385.69
717.61	383.36
717.94	381.48
718.28	377.64
718.61	375.57
718.94	373.21
719.27	371.21
719.61	369.29
719.94	366.83
720.27	363.67
720.60	361.60
720.94	359.64
721.27	357.81
721.60	356.45
721.93	354.62
722.27	353.74
722.60	352.62
722.93	350.55
723.26	349.17
723.59	347.79
723.93	346.48
724.26	345.17
724.59	343.67
724.92	342.43
725.25	341.79
725.59	340.24
725.92	338.98
726.25	337.62
726.58	336.40
726.91	334.90
727.24	334.10
727.57	332.62
727.91	331.12
728.24	329.90
728.57	327.95
728.90	326.86
729.23	324.83
729.56	324.40
729.89	323.43
730.22	322.05
730.55	320.50
730.89	319.19
731.22	317.71
731.55	316.19
731.88	315.00
732.21	313.52
732.54	312.19
732.87	310.76
733.20	309.64
733.53	308.64
733.86	307.48
734.19	305.98
734.52	305.38
734.85	305.83
735.18	304.50
735.51	304.10
735.84	303.12
736.17	302.64
736.50	300.52
736.83	301.88
737.16	300.83
737.49	300.36
737.82	299.07
738.15	298.45
738.48	297.64
738.81	296.40
739.14	295.10
739.47	294.26
739.80	293.67
740.13	292.76
740.46	291.57
740.79	290.57
741.12	289.69
741.45	288.33
741.78	286.19
742.11	285.83
742.44	284.67
742.77	284.05
743.10	282.83
743.43	282.00
743.75	278.86
744.08	280.71
744.41	279.60
744.74	278.93
745.07	277.62
745.40	277.31
745.73	277.62
746.06	277.12
746.39	276.40
746.71	275.17
747.04	274.31
747.37	273.43
747.70	273.12
748.03	272.36
748.36	272.02
748.68	271.33
749.01	270.14
749.34	269.38
749.67	268.52
750.00	268.50
750.33	269.57
750.65	269.38
750.98	266.14
751.31	265.48
751.64	265.12
751.97	265.71
752.29	264.90
752.62	263.02
752.95	262.14
753.28	261.45
753.60	260.90
753.93	260.93
754.26	260.69
754.59	259.38
754.91	258.79
755.24	258.31
755.57	257.83
755.90	257.33
756.22	256.74
756.55	255.95
756.88	254.55
757.20	252.71
757.53	251.38
757.86	250.86
758.19	250.31
758.51	249.62
758.84	248.10
759.17	247.29
759.49	247.07
759.82	247.64
760.15	247.36
760.47	246.93
760.80	245.95
761.13	245.79
761.45	245.26
761.78	244.83
762.11	244.40
762.43	243.52
762.76	243.05
763.08	242.86
763.41	242.93
763.74	242.86
764.06	242.36
764.39	242.05
764.71	241.52
765.04	241.00
765.37	240.50
765.69	240.26
766.02	239.98
766.34	239.64
766.67	238.67
767.00	238.55
767.32	239.36
767.65	240.02
767.97	239.60
768.30	239.52
768.62	239.26
768.95	238.33
769.27	238.05
769.60	238.00
769.92	237.36
770.25	236.36
770.57	235.79
770.90	235.24
771.22	234.71
771.55	234.55
771.87	234.38
772.20	234.17
772.52	235.26
772.85	237.55
773.17	237.17
773.50	236.69
773.82	236.60
774.15	235.24
774.47	233.88
774.80	233.48
775.12	233.45
775.45	233.05
775.77	233.36
776.09	233.33
776.42	233.33
776.74	233.95
777.07	233.98
777.39	233.69
777.72	233.38
778.04	233.69
778.36	233.48
778.69	233.55
779.01	233.33
779.33	231.50
779.66	228.86
779.98	228.48
780.31	228.29
780.63	228.81
780.95	229.10
781.28	228.95
781.60	228.43
781.92	227.93
782.25	227.90
782.57	227.67
782.89	227.43
783.22	227.02
783.54	226.17
783.86	225.95
784.19	225.79
784.51	226.33
784.83	225.93
