SpectraSuite Data File
++++++++++++++++++++++++++++++++++++
Date: Tue Apr 02 18:39:54 EDT 2013
User: group
Dark Spectrum Present: No
Reference Spectrum Present: No
Number of Sampled Component Spectra: 1
Spectrometers: USB2E7196
Integration Time (usec): 580000 (USB2E7196)
Spectra Averaged: 2 (USB2E7196)
Boxcar Smoothing: 10 (USB2E7196)
Correct for Electrical Dark: No (USB2E7196)
Strobe/Lamp Enabled: No (USB2E7196)
Correct for Detector Non-linearity: No (USB2E7196)
Correct for Stray Light: No (USB2E7196)
Number of Pixels in Processed Spectrum: 2048
>>>>>Begin Processed Spectral Data<<<<<
339.09	0.00
339.48	192.50
339.86	194.00
340.24	196.00
340.63	193.00
341.01	234.50
341.39	201.00
341.78	206.00
342.16	209.50
342.54	204.00
342.93	196.95
343.31	206.95
343.69	207.67
344.07	208.24
344.46	208.88
344.84	209.74
345.22	208.29
345.60	208.67
345.99	208.98
346.37	209.12
346.75	209.43
347.13	209.67
347.52	210.10
347.90	210.88
348.28	211.00
348.66	211.17
349.05	210.50
349.43	210.90
349.81	211.10
350.19	210.88
350.57	210.83
350.96	211.02
351.34	211.00
351.72	210.98
352.10	211.00
352.48	211.02
352.87	210.76
353.25	210.95
353.63	210.88
354.01	210.79
354.39	211.00
354.77	211.10
355.15	211.48
355.54	211.31
355.92	210.69
356.30	210.81
356.68	212.29
357.06	212.62
357.44	212.40
357.82	212.40
358.20	213.88
358.58	213.90
358.97	213.86
359.35	214.33
359.73	214.76
360.11	214.83
360.49	214.98
360.87	215.17
361.25	215.45
361.63	216.17
362.01	216.38
362.39	216.19
362.77	216.38
363.15	216.21
363.53	216.33
363.91	216.67
364.29	216.71
364.67	214.88
365.05	214.93
365.43	215.17
365.81	215.48
366.19	215.19
366.57	216.17
366.95	216.26
367.33	215.83
367.71	215.74
368.09	216.19
368.47	216.12
368.85	216.17
369.23	216.69
369.61	216.14
369.99	216.57
370.37	216.71
370.75	217.76
371.13	217.50
371.51	217.38
371.89	217.26
372.27	217.33
372.65	217.62
373.03	217.55
373.41	217.55
373.78	217.64
374.16	216.62
374.54	215.98
374.92	215.81
375.30	215.90
375.68	215.71
376.06	215.86
376.44	215.60
376.82	215.74
377.19	215.31
377.57	215.12
377.95	214.64
378.33	214.36
378.71	213.02
379.09	213.21
379.47	213.33
379.84	213.31
380.22	213.12
380.60	212.79
380.98	212.67
381.36	212.40
381.73	211.69
382.11	212.29
382.49	212.17
382.87	211.90
383.25	212.02
383.62	214.38
384.00	213.95
384.38	214.29
384.76	214.79
385.13	216.00
385.51	216.24
385.89	216.10
386.27	216.14
386.64	216.48
387.02	216.31
387.40	216.12
387.78	216.00
388.15	216.33
388.53	216.31
388.91	216.43
389.29	216.48
389.66	217.00
390.04	216.50
390.42	217.17
390.79	217.38
391.17	217.21
391.55	214.83
391.92	214.86
392.30	215.02
392.68	214.40
393.05	214.12
393.43	214.14
393.81	214.38
394.18	214.17
394.56	214.31
394.94	215.00
395.31	215.00
395.69	215.69
396.06	215.98
396.44	216.05
396.82	216.12
397.19	217.24
397.57	216.93
397.95	217.31
398.32	216.64
398.70	216.71
399.07	217.14
399.45	217.17
399.82	217.02
400.20	216.79
400.58	216.67
400.95	215.79
401.33	216.33
401.70	217.79
402.08	217.98
402.45	217.74
402.83	218.02
403.20	218.43
403.58	218.38
403.95	218.93
404.33	219.43
404.71	219.60
405.08	220.60
405.46	221.02
405.83	221.55
406.21	221.95
406.58	222.64
406.96	222.93
407.33	223.74
407.70	224.64
408.08	226.90
408.45	228.19
408.83	229.33
409.20	229.79
409.58	229.12
409.95	230.81
410.33	232.02
410.70	232.62
411.08	233.74
411.45	234.95
411.82	235.64
412.20	237.50
412.57	240.07
412.95	240.07
413.32	242.07
413.69	243.67
414.07	245.26
414.44	247.26
414.82	249.24
415.19	251.67
415.56	254.10
415.94	255.62
416.31	258.50
416.68	261.24
417.06	264.74
417.43	268.64
417.81	272.07
418.18	276.10
418.55	279.83
418.93	284.07
419.30	288.67
419.67	293.71
420.04	298.17
420.42	302.76
420.79	310.19
421.16	316.17
421.54	323.43
421.91	330.14
422.28	336.88
422.66	344.29
423.03	352.81
423.40	360.36
423.77	368.10
424.15	376.12
424.52	384.45
424.89	394.19
425.26	402.45
425.64	410.90
426.01	419.74
426.38	429.57
426.75	439.81
427.13	450.00
427.50	460.29
427.87	471.26
428.24	482.31
428.61	491.33
428.99	503.64
429.36	515.31
429.73	527.24
430.10	539.02
430.47	551.69
430.85	563.12
431.22	576.40
431.59	592.21
431.96	605.67
432.33	620.81
432.70	635.74
433.08	653.83
433.45	669.90
433.82	686.62
434.19	705.52
434.56	723.17
434.93	739.95
435.30	756.98
435.68	776.76
436.05	795.55
436.42	814.19
436.79	831.17
437.16	849.69
437.53	870.36
437.90	889.88
438.27	909.12
438.64	929.07
439.01	948.57
439.38	963.88
439.75	980.31
440.13	998.90
440.50	1015.79
440.87	1029.43
441.24	1044.07
441.61	1059.60
441.98	1071.17
442.35	1084.69
442.72	1098.40
443.09	1112.83
443.46	1120.71
443.83	1126.90
444.20	1132.40
444.57	1138.93
444.94	1142.29
445.31	1145.60
445.68	1152.24
446.05	1154.31
446.42	1152.67
446.79	1150.40
447.16	1148.57
447.53	1147.33
447.90	1140.02
448.27	1132.67
448.64	1122.60
449.01	1115.33
449.37	1103.79
449.74	1091.26
450.11	1079.33
450.48	1063.62
450.85	1046.36
451.22	1032.57
451.59	1019.17
451.96	1006.31
452.33	989.55
452.70	974.36
453.07	955.83
453.43	934.12
453.80	915.36
454.17	898.45
454.54	881.79
454.91	863.64
455.28	845.83
455.65	830.10
456.02	817.07
456.38	803.31
456.75	787.21
457.12	772.17
457.49	758.33
457.86	742.29
458.23	731.36
458.59	719.17
458.96	705.81
459.33	693.62
459.70	682.24
460.07	672.90
460.43	662.36
460.80	652.88
461.17	644.88
461.54	636.07
461.91	627.33
462.27	618.40
462.64	610.90
463.01	603.07
463.38	595.95
463.74	584.33
464.11	577.55
464.48	571.33
464.85	564.60
465.21	559.90
465.58	554.71
465.95	547.55
466.32	541.55
466.68	536.07
467.05	530.88
467.42	525.07
467.78	519.14
468.15	513.69
468.52	509.50
468.88	503.57
469.25	498.69
469.62	494.95
469.98	490.81
470.35	486.60
470.72	482.64
471.08	477.31
471.45	474.86
471.82	471.86
472.18	467.62
472.55	465.05
472.92	461.19
473.28	457.83
473.65	455.12
474.02	452.76
474.38	450.43
474.75	448.24
475.11	446.00
475.48	444.52
475.85	442.55
476.21	440.48
476.58	439.29
476.94	438.10
477.31	436.67
477.67	435.29
478.04	434.43
478.41	433.93
478.77	435.83
479.14	434.07
479.50	433.17
479.87	432.90
480.23	432.69
480.60	432.24
480.96	432.31
481.33	432.81
481.69	432.74
482.06	432.83
482.42	433.31
482.79	433.48
483.15	433.69
483.52	434.88
483.88	435.21
484.25	435.71
484.61	436.36
484.98	436.69
485.34	438.57
485.71	440.45
486.07	441.48
486.44	440.76
486.80	442.95
487.17	444.79
487.53	447.60
487.90	450.07
488.26	453.29
488.62	456.40
488.99	458.45
489.35	461.21
489.72	464.19
490.08	467.21
490.44	470.36
490.81	474.19
491.17	477.45
491.54	481.36
491.90	485.74
492.26	489.67
492.63	493.95
492.99	497.76
493.36	501.88
493.72	506.62
494.08	511.76
494.45	516.95
494.81	522.60
495.17	527.36
495.54	533.02
495.90	538.10
496.26	543.21
496.63	549.26
496.99	554.95
497.35	561.31
497.72	568.00
498.08	574.57
498.44	580.93
498.80	587.57
499.17	594.60
499.53	601.36
499.89	608.98
500.26	616.74
500.62	623.95
500.98	632.07
501.34	639.62
501.71	647.40
502.07	654.62
502.43	661.64
502.79	669.31
503.16	677.00
503.52	685.07
503.88	692.81
504.24	700.95
504.60	709.81
504.97	719.02
505.33	726.69
505.69	736.60
506.05	745.05
506.41	753.98
506.78	762.43
507.14	771.02
507.50	780.02
507.86	788.64
508.22	797.83
508.59	805.48
508.95	814.48
509.31	823.90
509.67	832.83
510.03	841.74
510.39	850.71
510.75	859.55
511.12	868.05
511.48	877.07
511.84	885.40
512.20	894.00
512.56	901.83
512.92	910.88
513.28	919.26
513.64	928.38
514.00	936.43
514.37	945.24
514.73	953.55
515.09	962.10
515.45	970.33
515.81	978.45
516.17	986.81
516.53	994.74
516.89	1002.29
517.25	1010.74
517.61	1019.05
517.97	1026.12
518.33	1033.64
518.69	1041.71
519.05	1049.83
519.41	1057.79
519.77	1066.40
520.13	1073.48
520.49	1080.38
520.85	1086.83
521.21	1094.48
521.57	1102.02
521.93	1107.76
522.29	1115.14
522.65	1121.05
523.01	1127.48
523.37	1134.12
523.73	1140.93
524.09	1147.12
524.45	1152.81
524.81	1158.79
525.17	1164.69
525.53	1171.83
525.89	1177.38
526.25	1183.33
526.61	1188.45
526.97	1194.33
527.33	1199.55
527.68	1206.83
528.04	1212.50
528.40	1217.60
528.76	1221.88
529.12	1227.19
529.48	1233.83
529.84	1239.12
530.20	1245.64
530.56	1251.43
530.91	1256.55
531.27	1262.48
531.63	1268.26
531.99	1273.45
532.35	1278.38
532.71	1283.02
533.07	1288.07
533.42	1296.12
533.78	1301.33
534.14	1307.50
534.50	1312.95
534.86	1318.69
535.21	1322.57
535.57	1328.40
535.93	1333.67
536.29	1339.79
536.65	1345.02
537.00	1350.12
537.36	1354.86
537.72	1358.60
538.08	1364.02
538.44	1367.90
538.79	1372.12
539.15	1375.93
539.51	1381.26
539.87	1386.24
540.22	1391.83
540.58	1397.17
540.94	1399.62
541.29	1403.74
541.65	1406.79
542.01	1410.88
542.37	1414.12
542.72	1417.29
543.08	1420.36
543.44	1424.52
543.79	1426.98
544.15	1431.90
544.51	1435.86
544.87	1439.69
545.22	1444.57
545.58	1447.76
545.94	1451.88
546.29	1455.79
546.65	1459.79
547.01	1462.24
547.36	1466.17
547.72	1469.50
548.07	1472.14
548.43	1475.05
548.79	1477.98
549.14	1481.10
549.50	1484.93
549.86	1487.57
550.21	1491.52
550.57	1495.50
550.92	1498.29
551.28	1503.26
551.64	1505.36
551.99	1508.98
552.35	1512.52
552.70	1515.76
553.06	1519.26
553.41	1524.02
553.77	1530.00
554.13	1534.50
554.48	1540.71
554.84	1545.74
555.19	1550.48
555.55	1555.64
555.90	1560.38
556.26	1565.62
556.61	1570.36
556.97	1573.64
557.32	1578.71
557.68	1582.86
558.03	1586.90
558.39	1591.93
558.74	1595.90
559.10	1600.14
559.45	1604.64
559.81	1608.95
560.16	1613.12
560.52	1617.52
560.87	1622.00
561.23	1624.02
561.58	1629.74
561.94	1633.00
562.29	1636.36
562.64	1640.71
563.00	1644.33
563.35	1647.83
563.71	1652.64
564.06	1658.62
564.42	1664.10
564.77	1668.86
565.12	1675.17
565.48	1682.38
565.83	1687.83
566.19	1693.07
566.54	1698.95
566.89	1703.45
567.25	1709.52
567.60	1715.83
567.96	1722.88
568.31	1728.33
568.66	1733.86
569.02	1737.60
569.37	1740.79
569.72	1745.71
570.08	1749.60
570.43	1753.52
570.78	1758.69
571.14	1762.57
571.49	1765.90
571.84	1769.88
572.20	1774.19
572.55	1776.95
572.90	1778.29
573.26	1781.00
573.61	1783.14
573.96	1785.86
574.31	1789.36
574.67	1791.93
575.02	1793.76
575.37	1794.26
575.72	1796.12
576.08	1798.33
576.43	1799.29
576.78	1802.02
577.13	1804.17
577.49	1806.00
577.84	1808.74
578.19	1810.79
578.54	1812.79
578.90	1814.71
579.25	1815.40
579.60	1815.95
579.95	1817.12
580.30	1818.90
580.66	1821.38
581.01	1823.81
581.36	1824.67
581.71	1825.02
582.06	1826.81
582.42	1827.62
582.77	1828.36
583.12	1828.45
583.47	1829.00
583.82	1830.43
584.17	1831.12
584.53	1831.50
584.88	1831.07
585.23	1831.86
585.58	1831.52
585.93	1830.57
586.28	1830.57
586.63	1831.48
586.98	1831.64
587.34	1831.98
587.69	1830.52
588.04	1829.21
588.39	1828.64
588.74	1827.05
589.09	1826.98
589.44	1824.48
589.79	1824.14
590.14	1823.43
590.49	1822.79
590.84	1821.21
591.19	1820.00
591.54	1818.71
591.89	1816.40
592.25	1817.79
592.60	1814.93
592.95	1814.21
593.30	1813.74
593.65	1810.38
594.00	1807.86
594.35	1811.48
594.70	1808.57
595.05	1807.05
595.40	1804.48
595.75	1802.07
596.10	1801.40
596.45	1798.83
596.80	1797.52
597.15	1795.36
597.50	1792.12
597.85	1790.29
598.19	1788.40
598.54	1786.45
598.89	1784.57
599.24	1783.31
599.59	1779.60
599.94	1777.83
600.29	1774.69
600.64	1771.98
600.99	1771.10
601.34	1769.05
601.69	1761.17
602.04	1758.40
602.39	1756.48
602.74	1755.21
603.08	1752.05
603.43	1749.93
603.78	1747.55
604.13	1744.71
604.48	1741.40
604.83	1740.14
605.18	1737.14
605.53	1733.83
605.87	1730.07
606.22	1726.98
606.57	1723.38
606.92	1720.50
607.27	1717.31
607.62	1715.14
607.96	1711.81
608.31	1708.57
608.66	1704.86
609.01	1700.36
609.36	1697.29
609.70	1693.26
610.05	1688.26
610.40	1685.10
610.75	1680.05
611.10	1675.40
611.44	1670.24
611.79	1665.24
612.14	1659.93
612.49	1654.90
612.83	1649.62
613.18	1645.40
613.53	1640.81
613.88	1634.79
614.22	1628.71
614.57	1622.36
614.92	1616.36
615.27	1610.64
615.61	1604.81
615.96	1599.12
616.31	1593.98
616.65	1589.24
617.00	1583.50
617.35	1577.57
617.70	1571.67
618.04	1565.81
618.39	1559.00
618.74	1553.17
619.08	1546.95
619.43	1542.07
619.78	1535.43
620.12	1530.88
620.47	1525.26
620.82	1518.38
621.16	1512.60
621.51	1507.29
621.85	1501.83
622.20	1495.24
622.55	1488.98
622.89	1482.95
623.24	1477.79
623.59	1472.52
623.93	1466.07
624.28	1460.95
624.62	1458.36
624.97	1453.48
625.32	1449.10
625.66	1444.43
626.01	1438.55
626.35	1433.71
626.70	1427.43
627.04	1423.69
627.39	1417.90
627.73	1412.83
628.08	1408.79
628.43	1404.26
628.77	1398.40
629.12	1393.02
629.46	1388.10
629.81	1382.55
630.15	1376.81
630.50	1370.07
630.84	1364.05
631.19	1357.76
631.53	1351.21
631.88	1342.07
632.22	1335.26
632.57	1328.43
632.91	1321.52
633.26	1316.43
633.60	1309.98
633.95	1303.76
634.29	1296.48
634.64	1290.43
634.98	1283.38
635.32	1277.00
635.67	1270.62
636.01	1264.88
636.36	1258.60
636.70	1253.26
637.05	1247.00
637.39	1240.90
637.73	1235.31
638.08	1230.43
638.42	1224.98
638.77	1220.07
639.11	1214.62
639.45	1208.64
639.80	1202.00
640.14	1196.57
640.49	1190.21
640.83	1184.19
641.17	1178.12
641.52	1171.83
641.86	1164.95
642.20	1159.33
642.55	1152.14
642.89	1146.05
643.23	1138.81
643.58	1133.48
643.92	1125.38
644.26	1119.40
644.61	1112.74
644.95	1106.48
645.29	1099.00
645.64	1092.81
645.98	1085.33
646.32	1079.00
646.66	1071.33
647.01	1064.64
647.35	1058.50
647.69	1051.60
648.04	1045.48
648.38	1039.33
648.72	1033.24
649.06	1026.52
649.41	1019.60
649.75	1013.45
650.09	1006.79
650.43	1000.90
650.78	993.48
651.12	988.14
651.46	981.76
651.80	976.07
652.14	969.19
652.49	963.12
652.83	956.67
653.17	950.45
653.51	944.02
653.85	938.29
654.20	932.43
654.54	926.12
654.88	919.69
655.22	913.60
655.56	907.05
655.90	900.02
656.25	893.93
656.59	888.45
656.93	882.62
657.27	877.29
657.61	871.24
657.95	865.67
658.29	858.95
658.64	853.29
658.98	847.02
659.32	841.14
659.66	834.71
660.00	828.76
660.34	822.81
660.68	816.74
661.02	811.10
661.36	805.43
661.70	799.95
662.05	794.79
662.39	789.45
662.73	784.67
663.07	780.62
663.41	775.60
663.75	769.10
664.09	763.98
664.43	757.74
664.77	752.48
665.11	746.81
665.45	742.24
665.79	736.88
666.13	731.19
666.47	726.38
666.81	721.60
667.15	716.26
667.49	711.62
667.83	707.55
668.17	702.60
668.51	697.74
668.85	693.02
669.19	689.00
669.53	683.19
669.87	677.17
670.21	671.88
670.55	667.43
670.89	663.88
671.23	658.81
671.57	654.71
671.91	650.02
672.25	646.26
672.58	642.33
672.92	637.62
673.26	633.52
673.60	629.48
673.94	625.00
674.28	621.17
674.62	617.19
674.96	612.57
675.30	608.69
675.64	604.33
675.97	599.95
676.31	595.19
676.65	591.17
676.99	588.31
677.33	583.83
677.67	579.69
678.01	575.31
678.34	571.48
678.68	567.74
679.02	563.62
679.36	559.36
679.70	554.95
680.04	551.55
680.37	547.93
680.71	543.69
681.05	540.19
681.39	536.60
681.73	532.64
682.06	528.76
682.40	525.05
682.74	521.83
683.08	518.52
683.42	515.02
683.75	511.62
684.09	507.45
684.43	504.19
684.77	500.07
685.10	496.50
685.44	493.19
685.78	489.29
686.12	486.00
686.45	482.64
686.79	478.83
687.13	475.62
687.46	472.10
687.80	469.81
688.14	466.45
688.48	463.31
688.81	460.45
689.15	457.88
689.49	454.79
689.82	452.21
690.16	448.52
690.50	445.31
690.83	442.24
691.17	439.40
691.51	436.83
691.84	435.12
692.18	432.12
692.52	429.31
692.85	427.36
693.19	425.69
693.52	423.07
693.86	420.69
694.20	417.86
694.53	415.67
694.87	412.81
695.21	410.17
695.54	407.43
695.88	404.36
696.21	401.17
696.55	398.67
696.88	395.57
697.22	393.45
697.56	391.60
697.89	389.21
698.23	387.43
698.56	384.76
698.90	382.21
699.23	379.79
699.57	377.62
699.90	374.71
700.24	371.74
700.58	369.71
700.91	368.00
701.25	367.64
701.58	366.33
701.92	364.60
702.25	363.10
702.59	361.02
702.92	359.00
703.26	357.10
703.59	355.33
703.93	355.55
704.26	354.10
704.60	352.05
704.93	350.50
705.26	348.38
705.60	347.31
705.93	345.36
706.27	344.33
706.60	343.05
706.94	342.69
707.27	341.19
707.61	339.90
707.94	338.10
708.27	334.90
708.61	332.60
708.94	330.71
709.28	329.05
709.61	327.60
709.94	326.31
710.28	324.93
710.61	323.57
710.95	320.10
711.28	319.88
711.61	318.43
711.95	317.79
712.28	316.29
712.61	314.76
712.95	314.69
713.28	314.40
713.61	312.88
713.95	310.86
714.28	309.71
714.61	308.36
714.95	306.81
715.28	305.38
715.61	304.26
715.95	303.33
716.28	301.95
716.61	301.31
716.95	299.93
717.28	299.07
717.61	298.00
717.94	297.40
718.28	294.88
718.61	294.10
718.94	292.36
719.27	291.52
719.61	290.60
719.94	288.83
720.27	286.67
720.60	285.52
720.94	284.55
721.27	283.71
721.60	282.98
721.93	282.55
722.27	282.64
722.60	282.19
722.93	281.36
723.26	280.62
723.59	279.45
723.93	279.02
724.26	278.40
724.59	277.40
724.92	276.26
725.25	276.14
725.59	275.12
725.92	275.02
726.25	274.17
726.58	273.79
726.91	273.05
727.24	272.57
727.57	271.90
727.91	270.88
728.24	270.33
728.57	269.64
728.90	269.38
729.23	268.02
729.56	268.26
729.89	267.50
730.22	266.98
730.55	266.40
730.89	265.93
731.22	265.43
731.55	264.93
731.88	264.83
732.21	263.98
732.54	263.05
732.87	262.26
733.20	261.69
733.53	261.14
733.86	260.74
734.19	260.10
734.52	260.05
734.85	261.10
735.18	260.33
735.51	260.24
735.84	259.48
736.17	259.38
736.50	257.60
736.83	259.33
737.16	258.83
737.49	258.43
737.82	257.81
738.15	257.55
738.48	256.98
738.81	256.21
739.14	255.62
739.47	255.48
739.80	254.71
740.13	254.74
740.46	253.55
740.79	252.98
741.12	252.48
741.45	251.43
741.78	250.12
742.11	250.31
742.44	249.40
742.77	249.29
743.10	248.48
743.43	247.95
743.75	245.50
744.08	247.76
744.41	247.29
744.74	246.90
745.07	246.12
745.40	246.05
745.73	246.67
746.06	246.24
746.39	246.17
746.71	245.69
747.04	245.05
747.37	244.90
747.70	245.00
748.03	245.14
748.36	245.19
748.68	244.48
749.01	243.50
749.34	242.98
749.67	242.64
750.00	243.00
750.33	244.36
750.65	244.19
750.98	241.45
751.31	241.10
751.64	241.00
751.97	241.93
752.29	241.50
752.62	240.12
752.95	239.88
753.28	239.36
753.60	239.14
753.93	239.55
754.26	239.60
754.59	238.60
754.91	237.76
755.24	237.52
755.57	237.29
755.90	237.05
756.22	236.95
756.55	236.21
756.88	235.48
757.20	233.90
757.53	233.12
757.86	232.90
758.19	233.10
758.51	232.79
758.84	231.21
759.17	230.93
759.49	231.07
759.82	231.98
760.15	231.86
760.47	231.50
760.80	230.45
761.13	230.33
761.45	230.14
761.78	230.05
762.11	229.74
762.43	229.33
762.76	229.26
763.08	229.17
763.41	229.26
763.74	229.21
764.06	229.21
764.39	229.40
764.71	229.02
765.04	228.60
765.37	228.19
765.69	228.40
766.02	228.21
766.34	227.69
766.67	226.57
767.00	226.69
767.32	227.95
767.65	229.14
767.97	228.69
768.30	228.57
768.62	228.45
768.95	228.02
769.27	227.90
769.60	227.81
769.92	227.31
770.25	226.74
770.57	226.36
770.90	225.93
771.22	225.50
771.55	225.45
771.87	225.12
772.20	224.98
772.52	226.48
772.85	228.88
773.17	228.86
773.50	228.76
773.82	228.48
774.15	227.19
774.47	225.81
774.80	225.69
775.12	225.57
775.45	225.52
775.77	225.45
776.09	225.69
776.42	225.64
776.74	226.38
777.07	226.24
777.39	226.14
777.72	225.88
778.04	226.12
778.36	225.90
778.69	225.79
779.01	226.00
779.33	224.12
779.66	221.60
779.98	221.33
780.31	221.19
780.63	221.86
780.95	222.29
781.28	222.17
781.60	222.12
781.92	221.90
782.25	221.69
782.57	222.07
782.89	221.60
783.22	221.60
783.54	220.95
783.86	221.19
784.19	220.93
784.51	221.62
784.83	221.14
785.16	221.29
785.48	221.24
