SpectraSuite Data File
++++++++++++++++++++++++++++++++++++
Date: Tue Apr 02 18:41:10 EDT 2013
User: group
Dark Spectrum Present: No
Reference Spectrum Present: No
Number of Sampled Component Spectra: 1
Spectrometers: USB2E7196
Integration Time (usec): 580000 (USB2E7196)
Spectra Averaged: 2 (USB2E7196)
Boxcar Smoothing: 10 (USB2E7196)
Correct for Electrical Dark: No (USB2E7196)
Strobe/Lamp Enabled: No (USB2E7196)
Correct for Detector Non-linearity: No (USB2E7196)
Correct for Stray Light: No (USB2E7196)
Number of Pixels in Processed Spectrum: 2048
>>>>>Begin Processed Spectral Data<<<<<
339.09	0.00
339.48	192.00
339.86	193.50
340.24	191.50
340.63	195.00
341.01	228.50
341.39	199.00
341.78	204.50
342.16	206.50
342.54	202.50
342.93	196.19
343.31	205.79
343.69	206.33
344.07	207.00
344.46	208.10
344.84	208.76
345.22	207.62
345.60	208.26
345.99	208.55
346.37	208.52
346.75	208.90
347.13	209.00
347.52	209.02
347.90	209.86
348.28	209.95
348.66	210.62
349.05	210.10
349.43	210.57
349.81	210.88
350.19	210.88
350.57	211.24
350.96	211.69
351.34	211.88
351.72	212.21
352.10	212.29
352.48	211.83
352.87	211.88
353.25	212.17
353.63	211.98
354.01	211.98
354.39	212.43
354.77	212.55
355.15	213.43
355.54	213.38
355.92	212.71
356.30	212.81
356.68	214.07
357.06	214.40
357.44	214.14
357.82	214.05
358.20	215.19
358.58	215.12
358.97	215.17
359.35	215.98
359.73	216.33
360.11	216.60
360.49	217.07
360.87	217.17
361.25	217.38
361.63	218.31
362.01	218.62
362.39	218.55
362.77	218.71
363.15	218.43
363.53	218.60
363.91	218.95
364.29	218.93
364.67	216.83
365.05	216.83
365.43	216.90
365.81	217.07
366.19	217.02
366.57	217.86
366.95	217.62
367.33	217.17
367.71	217.12
368.09	217.43
368.47	217.33
368.85	217.38
369.23	217.64
369.61	216.67
369.99	217.38
370.37	217.60
370.75	218.43
371.13	217.88
371.51	217.48
371.89	217.57
372.27	217.83
372.65	218.02
373.03	217.88
373.41	217.81
373.78	217.86
374.16	216.95
374.54	216.24
374.92	216.14
375.30	216.02
375.68	215.57
376.06	215.48
376.44	215.24
376.82	215.05
377.19	214.95
377.57	214.86
377.95	213.90
378.33	213.52
378.71	212.21
379.09	212.57
379.47	212.98
379.84	212.76
380.22	212.43
380.60	212.26
380.98	212.31
381.36	212.05
381.73	211.62
382.11	211.93
382.49	212.07
382.87	211.83
383.25	211.83
383.62	214.29
384.00	213.83
384.38	213.88
384.76	214.40
385.13	214.98
385.51	215.10
385.89	214.88
386.27	215.19
386.64	215.52
387.02	215.33
387.40	215.02
387.78	215.12
388.15	215.05
388.53	214.81
388.91	214.69
389.29	214.71
389.66	215.14
390.04	214.60
390.42	214.69
390.79	215.02
391.17	215.10
391.55	212.93
391.92	213.05
392.30	213.36
392.68	213.14
393.05	212.98
393.43	213.26
393.81	213.48
394.18	213.14
394.56	213.31
394.94	213.62
395.31	213.45
395.69	213.93
396.06	214.40
396.44	214.57
396.82	214.52
397.19	215.38
397.57	215.05
397.95	215.60
398.32	215.19
398.70	215.17
399.07	215.69
399.45	215.48
399.82	215.55
400.20	215.45
400.58	215.14
400.95	214.71
401.33	214.98
401.70	216.52
402.08	216.62
402.45	216.50
402.83	217.00
403.20	217.38
403.58	217.07
403.95	217.31
404.33	217.88
404.71	218.17
405.08	219.64
405.46	220.19
405.83	220.50
406.21	220.98
406.58	221.50
406.96	221.64
407.33	222.62
407.70	223.17
408.08	225.26
408.45	226.43
408.83	227.38
409.20	227.74
409.58	227.05
409.95	228.31
410.33	229.36
410.70	229.86
411.08	231.14
411.45	232.43
411.82	233.48
412.20	234.90
412.57	237.36
412.95	237.12
413.32	238.90
413.69	240.36
414.07	241.88
414.44	243.79
414.82	245.71
415.19	247.86
415.56	250.29
415.94	251.88
416.31	254.74
416.68	257.67
417.06	261.14
417.43	265.00
417.81	268.43
418.18	272.40
418.55	276.29
418.93	280.26
419.30	284.43
419.67	288.90
420.04	293.79
420.42	298.10
420.79	305.40
421.16	311.10
421.54	318.40
421.91	324.71
422.28	330.93
422.66	337.95
423.03	345.98
423.40	353.17
423.77	360.14
424.15	367.38
424.52	375.36
424.89	384.02
425.26	392.14
425.64	400.17
426.01	408.74
426.38	418.02
426.75	427.79
427.13	437.52
427.50	447.21
427.87	457.62
428.24	468.36
428.61	476.88
428.99	488.29
429.36	499.05
429.73	511.19
430.10	523.33
430.47	535.33
430.85	546.69
431.22	559.81
431.59	575.29
431.96	588.52
432.33	602.57
432.70	616.81
433.08	633.50
433.45	648.50
433.82	664.12
434.19	681.64
434.56	699.07
434.93	715.24
435.30	732.17
435.68	750.45
436.05	768.45
436.42	786.40
436.79	802.74
437.16	820.29
437.53	838.69
437.90	856.45
438.27	875.64
438.64	894.29
439.01	911.90
439.38	926.10
439.75	941.86
440.13	960.12
440.50	976.21
440.87	989.60
441.24	1004.67
441.61	1019.79
441.98	1030.90
442.35	1043.52
442.72	1056.79
443.09	1070.43
443.46	1078.14
443.83	1083.14
444.20	1087.57
444.57	1094.62
444.94	1098.14
445.31	1101.74
445.68	1107.93
446.05	1108.36
446.42	1107.29
446.79	1105.64
447.16	1103.93
447.53	1102.67
447.90	1095.14
448.27	1089.12
448.64	1080.00
449.01	1073.38
449.37	1062.31
449.74	1051.43
450.11	1039.64
450.48	1024.64
450.85	1007.76
451.22	994.33
451.59	982.02
451.96	970.45
452.33	954.55
452.70	939.60
453.07	922.45
453.43	902.71
453.80	886.00
454.17	869.67
454.54	853.90
454.91	837.19
455.28	820.36
455.65	805.52
456.02	793.29
456.38	780.02
456.75	763.79
457.12	749.57
457.49	735.76
457.86	720.83
458.23	710.86
458.59	699.60
458.96	687.48
459.33	676.40
459.70	665.67
460.07	655.95
460.43	646.02
460.80	636.36
461.17	628.10
461.54	619.67
461.91	611.10
462.27	602.38
462.64	594.81
463.01	587.19
463.38	580.36
463.74	569.21
464.11	562.19
464.48	556.12
464.85	549.98
465.21	545.79
465.58	540.62
465.95	533.40
466.32	528.07
466.68	522.55
467.05	517.05
467.42	511.74
467.78	506.67
468.15	501.93
468.52	498.48
468.88	492.95
469.25	487.76
469.62	484.31
469.98	480.48
470.35	476.74
470.72	473.14
471.08	468.48
471.45	465.79
471.82	463.02
472.18	459.40
472.55	456.83
472.92	452.52
473.28	449.48
473.65	446.67
474.02	443.71
474.38	441.74
474.75	439.95
475.11	437.50
475.48	435.74
475.85	433.76
476.21	431.60
476.58	430.45
476.94	429.90
477.31	428.43
477.67	426.79
478.04	425.86
478.41	424.90
478.77	426.10
479.14	424.31
479.50	423.50
479.87	423.40
480.23	422.93
480.60	422.79
480.96	422.60
481.33	422.98
481.69	422.86
482.06	423.07
482.42	423.29
482.79	423.43
483.15	423.50
483.52	424.74
483.88	424.93
484.25	425.38
484.61	425.67
484.98	426.24
485.34	428.36
485.71	430.05
486.07	431.45
486.44	430.88
486.80	432.83
487.17	434.33
487.53	436.62
487.90	439.07
488.26	441.88
488.62	444.31
488.99	446.50
489.35	449.31
489.72	451.88
490.08	454.55
490.44	457.60
490.81	461.36
491.17	464.05
491.54	468.19
491.90	472.38
492.26	476.43
492.63	480.43
492.99	483.69
493.36	487.43
493.72	491.90
494.08	496.40
494.45	501.31
494.81	506.55
495.17	510.74
495.54	515.76
495.90	520.50
496.26	525.93
496.63	532.00
496.99	537.60
497.35	543.31
497.72	549.55
498.08	555.64
498.44	561.55
498.80	568.64
499.17	574.81
499.53	581.07
499.89	587.55
500.26	594.29
500.62	601.60
500.98	609.45
501.34	616.43
501.71	624.14
502.07	631.24
502.43	637.95
502.79	645.17
503.16	652.31
503.52	659.79
503.88	667.02
504.24	674.60
504.60	682.81
504.97	691.17
505.33	699.33
505.69	708.67
506.05	716.43
506.41	723.81
506.78	731.83
507.14	740.00
507.50	748.10
507.86	756.52
508.22	764.69
508.59	772.55
508.95	781.33
509.31	790.12
509.67	798.55
510.03	807.40
510.39	816.17
510.75	824.57
511.12	833.31
511.48	842.07
511.84	849.26
512.20	856.69
512.56	864.57
512.92	872.19
513.28	878.76
513.64	886.50
514.00	894.50
514.37	902.00
514.73	909.21
515.09	917.31
515.45	924.71
515.81	931.40
516.17	938.64
516.53	945.33
516.89	951.50
517.25	957.90
517.61	965.29
517.97	971.36
518.33	977.98
518.69	983.95
519.05	990.71
519.41	998.60
519.77	1006.93
520.13	1013.38
520.49	1019.17
520.85	1026.05
521.21	1034.00
521.57	1040.40
521.93	1045.98
522.29	1052.19
522.65	1057.36
523.01	1063.10
523.37	1069.69
523.73	1074.79
524.09	1080.00
524.45	1085.38
524.81	1090.90
525.17	1096.05
525.53	1101.71
525.89	1106.62
526.25	1112.48
526.61	1115.95
526.97	1120.67
527.33	1124.12
527.68	1130.57
528.04	1135.33
528.40	1139.00
528.76	1142.05
529.12	1145.95
529.48	1151.50
529.84	1155.79
530.20	1161.40
530.56	1166.38
530.91	1170.55
531.27	1175.45
531.63	1180.79
531.99	1184.98
532.35	1189.45
532.71	1193.19
533.07	1197.86
533.42	1205.29
533.78	1209.43
534.14	1214.81
534.50	1218.67
534.86	1224.14
535.21	1226.19
535.57	1231.88
535.93	1236.69
536.29	1242.29
536.65	1247.45
537.00	1251.60
537.36	1255.55
537.72	1258.36
538.08	1262.57
538.44	1266.24
538.79	1270.29
539.15	1272.76
539.51	1277.71
539.87	1282.60
540.22	1286.79
540.58	1290.26
540.94	1291.00
541.29	1294.38
541.65	1297.76
542.01	1301.95
542.37	1304.38
542.72	1307.52
543.08	1310.55
543.44	1314.00
543.79	1315.43
544.15	1319.24
544.51	1322.81
544.87	1327.07
545.22	1331.55
545.58	1334.57
545.94	1338.95
546.29	1342.45
546.65	1346.81
547.01	1348.88
547.36	1352.07
547.72	1355.17
548.07	1359.12
548.43	1362.64
548.79	1366.05
549.14	1369.02
549.50	1371.98
549.86	1374.76
550.21	1378.45
550.57	1381.52
550.92	1383.93
551.28	1388.52
551.64	1391.17
551.99	1393.76
552.35	1396.02
552.70	1398.26
553.06	1401.71
553.41	1404.71
553.77	1408.83
554.13	1412.52
554.48	1417.93
554.84	1421.71
555.19	1426.43
555.55	1431.40
555.90	1435.40
556.26	1440.02
556.61	1444.71
556.97	1447.90
557.32	1452.33
557.68	1456.43
558.03	1461.48
558.39	1466.24
558.74	1470.10
559.10	1474.88
559.45	1479.93
559.81	1485.95
560.16	1490.67
560.52	1495.60
560.87	1500.93
561.23	1505.12
561.58	1511.50
561.94	1515.50
562.29	1520.50
562.64	1525.50
563.00	1529.79
563.35	1534.64
563.71	1539.31
564.06	1544.79
564.42	1550.90
564.77	1557.33
565.12	1564.29
565.48	1571.29
565.83	1577.74
566.19	1584.05
566.54	1588.93
566.89	1594.83
567.25	1600.52
567.60	1608.38
567.96	1615.79
568.31	1622.00
568.66	1627.52
569.02	1632.24
569.37	1638.07
569.72	1643.29
570.08	1647.64
570.43	1652.24
570.78	1658.24
571.14	1664.14
571.49	1669.24
571.84	1674.52
572.20	1678.24
572.55	1682.52
572.90	1684.55
573.26	1688.40
573.61	1692.24
573.96	1697.29
574.31	1701.55
574.67	1705.19
575.02	1707.26
575.37	1708.76
575.72	1710.74
576.08	1714.48
576.43	1717.45
576.78	1720.29
577.13	1723.79
577.49	1727.67
577.84	1730.57
578.19	1733.38
578.54	1735.95
578.90	1739.40
579.25	1742.31
579.60	1745.67
579.95	1747.12
580.30	1749.88
580.66	1753.52
581.01	1756.36
581.36	1758.29
581.71	1760.05
582.06	1762.83
582.42	1765.69
582.77	1767.93
583.12	1770.71
583.47	1773.10
583.82	1774.76
584.17	1777.88
584.53	1779.81
584.88	1781.76
585.23	1784.79
585.58	1786.40
585.93	1788.14
586.28	1789.33
586.63	1790.95
586.98	1793.02
587.34	1796.69
587.69	1798.40
588.04	1799.64
588.39	1801.29
588.74	1801.55
589.09	1803.07
589.44	1803.10
589.79	1803.62
590.14	1804.76
590.49	1805.05
590.84	1805.19
591.19	1806.52
591.54	1806.40
591.89	1806.00
592.25	1807.83
592.60	1807.67
592.95	1808.36
593.30	1808.93
593.65	1809.07
594.00	1807.67
594.35	1812.19
594.70	1810.19
595.05	1810.86
595.40	1809.52
595.75	1809.33
596.10	1809.76
596.45	1809.69
596.80	1810.26
597.15	1810.67
597.50	1810.48
597.85	1811.36
598.19	1811.00
598.54	1810.24
598.89	1809.38
599.24	1810.52
599.59	1808.55
599.94	1807.52
600.29	1806.24
600.64	1805.12
600.99	1803.17
601.34	1804.36
601.69	1798.62
602.04	1797.17
602.39	1794.90
602.74	1794.88
603.08	1792.81
603.43	1792.93
603.78	1791.48
604.13	1789.62
604.48	1787.12
604.83	1785.40
605.18	1783.48
605.53	1781.90
605.87	1780.12
606.22	1777.69
606.57	1774.50
606.92	1772.36
607.27	1771.02
607.62	1769.19
607.96	1767.14
608.31	1766.95
608.66	1763.64
609.01	1760.95
609.36	1759.69
609.70	1757.10
610.05	1753.38
610.40	1750.36
610.75	1745.74
611.10	1742.57
611.44	1738.76
611.79	1735.26
612.14	1732.00
612.49	1727.81
612.83	1723.64
613.18	1719.12
613.53	1715.21
613.88	1710.67
614.22	1705.86
614.57	1700.45
614.92	1696.14
615.27	1692.12
615.61	1685.55
615.96	1681.00
616.31	1676.07
616.65	1671.95
617.00	1667.45
617.35	1663.33
617.70	1659.12
618.04	1654.71
618.39	1649.24
618.74	1644.31
619.08	1639.69
619.43	1634.62
619.78	1629.21
620.12	1625.19
620.47	1620.71
620.82	1615.45
621.16	1610.21
621.51	1606.52
621.85	1601.38
622.20	1595.43
622.55	1589.40
622.89	1585.17
623.24	1580.31
623.59	1575.48
623.93	1569.48
624.28	1564.26
624.62	1561.55
624.97	1557.71
625.32	1553.07
625.66	1548.88
626.01	1543.38
626.35	1539.31
626.70	1533.93
627.04	1530.69
627.39	1525.12
627.73	1521.48
628.08	1517.74
628.43	1513.55
628.77	1507.45
629.12	1503.67
629.46	1499.14
629.81	1494.40
630.15	1489.21
630.50	1483.33
630.84	1478.00
631.19	1472.69
631.53	1467.67
631.88	1459.14
632.22	1451.86
632.57	1446.71
632.91	1440.93
633.26	1436.52
633.60	1430.12
633.95	1424.69
634.29	1418.07
634.64	1412.55
634.98	1405.50
635.32	1400.45
635.67	1396.14
636.01	1391.88
636.36	1385.60
636.70	1380.86
637.05	1375.60
637.39	1370.10
637.73	1364.95
638.08	1360.12
638.42	1354.86
638.77	1350.02
639.11	1344.48
639.45	1339.17
639.80	1332.05
640.14	1325.86
640.49	1319.76
640.83	1313.60
641.17	1308.07
641.52	1302.26
641.86	1296.57
642.20	1291.88
642.55	1284.64
642.89	1277.50
643.23	1269.83
643.58	1264.74
643.92	1257.88
644.26	1251.17
644.61	1244.60
644.95	1238.19
645.29	1231.14
645.64	1225.48
645.98	1218.45
646.32	1213.05
646.66	1206.50
647.01	1200.93
647.35	1195.10
647.69	1188.95
648.04	1183.76
648.38	1177.48
648.72	1171.02
649.06	1164.67
649.41	1156.81
649.75	1150.55
650.09	1143.17
650.43	1136.93
650.78	1128.95
651.12	1121.79
651.46	1114.88
651.80	1108.67
652.14	1102.10
652.49	1095.98
652.83	1088.36
653.17	1081.50
653.51	1073.95
653.85	1067.45
654.20	1060.93
654.54	1053.71
654.88	1046.74
655.22	1040.24
655.56	1033.00
655.90	1026.64
656.25	1019.69
656.59	1013.95
656.93	1007.40
657.27	1002.86
657.61	996.21
657.95	990.64
658.29	985.05
658.64	979.24
658.98	972.74
659.32	966.45
659.66	960.10
660.00	954.62
660.34	948.38
660.68	942.33
661.02	936.52
661.36	930.19
661.70	924.38
662.05	918.45
662.39	912.57
662.73	907.83
663.07	902.26
663.41	896.64
663.75	890.00
664.09	884.14
664.43	876.88
664.77	871.21
665.11	864.86
665.45	859.62
665.79	854.45
666.13	849.07
666.47	843.33
666.81	837.74
667.15	831.71
667.49	826.45
667.83	821.93
668.17	816.07
668.51	810.45
668.85	805.52
669.19	801.43
669.53	795.17
669.87	788.81
670.21	783.05
670.55	777.55
670.89	773.33
671.23	768.40
671.57	763.26
671.91	758.62
672.25	754.02
672.58	748.76
672.92	742.98
673.26	737.86
673.60	733.45
673.94	728.48
674.28	723.69
674.62	719.29
674.96	714.02
675.30	709.79
675.64	705.67
675.97	700.62
676.31	695.26
676.65	690.76
676.99	687.64
677.33	683.29
677.67	679.21
678.01	673.95
678.34	669.64
678.68	666.17
679.02	661.48
679.36	656.83
679.70	652.10
680.04	647.69
680.37	643.48
680.71	638.74
681.05	634.55
681.39	630.33
681.73	625.74
682.06	621.57
682.40	616.95
682.74	612.79
683.08	609.36
683.42	604.40
683.75	600.40
684.09	595.05
684.43	590.60
684.77	585.76
685.10	581.81
685.44	577.69
685.78	573.00
686.12	569.00
686.45	564.62
686.79	560.10
687.13	556.57
687.46	552.71
687.80	549.57
688.14	545.50
688.48	541.81
688.81	538.10
689.15	535.12
689.49	531.10
689.82	527.43
690.16	522.90
690.50	519.57
690.83	515.67
691.17	511.71
691.51	508.26
691.84	504.93
692.18	501.48
692.52	497.93
692.85	494.98
693.19	492.14
693.52	489.02
693.86	485.86
694.20	482.19
694.53	478.31
694.87	474.24
695.21	470.83
695.54	467.48
695.88	463.88
696.21	459.29
696.55	456.31
696.88	452.98
697.22	449.81
697.56	447.05
697.89	443.67
698.23	441.24
698.56	437.93
698.90	435.24
699.23	431.93
699.57	428.98
699.90	425.40
700.24	422.24
700.58	419.45
700.91	417.24
701.25	416.21
701.58	414.71
701.92	413.07
702.25	410.69
702.59	408.05
702.92	405.69
703.26	403.90
703.59	402.07
703.93	401.55
704.26	399.45
704.60	397.00
704.93	395.00
705.26	392.62
705.60	391.00
705.93	388.50
706.27	387.02
706.60	385.33
706.94	384.48
707.27	382.24
707.61	380.60
707.94	378.57
708.27	375.17
708.61	372.57
708.94	370.00
709.28	368.02
709.61	365.98
709.94	364.33
710.28	362.14
710.61	360.21
710.95	356.48
711.28	356.36
711.61	354.57
711.95	353.40
712.28	351.50
712.61	349.45
712.95	348.76
713.28	347.95
713.61	345.90
713.95	343.50
714.28	342.10
714.61	340.05
714.95	338.43
715.28	336.57
715.61	334.67
715.95	333.55
716.28	331.88
716.61	330.57
716.95	328.81
717.28	327.64
717.61	325.83
717.94	324.31
718.28	321.24
718.61	319.93
718.94	317.86
719.27	316.57
719.61	315.17
719.94	313.48
720.27	310.69
720.60	309.48
720.94	308.07
721.27	306.86
721.60	306.14
721.93	304.67
722.27	304.26
722.60	303.67
722.93	301.69
723.26	300.62
723.59	299.02
723.93	298.45
724.26	297.45
724.59	296.33
724.92	295.71
725.25	295.36
725.59	294.43
725.92	293.90
726.25	293.07
726.58	292.36
726.91	291.24
727.24	291.02
727.57	289.95
727.91	288.83
728.24	288.00
728.57	286.62
728.90	286.10
729.23	284.57
729.56	284.52
729.89	284.24
730.22	283.43
730.55	283.00
730.89	281.83
731.22	281.00
731.55	280.19
731.88	279.26
732.21	277.86
732.54	276.93
732.87	276.64
733.20	275.90
733.53	275.02
733.86	274.69
734.19	273.62
734.52	273.14
734.85	274.02
735.18	273.24
735.51	273.50
735.84	272.95
736.17	272.90
736.50	271.21
736.83	273.02
737.16	272.31
737.49	271.60
737.82	270.86
738.15	270.38
738.48	270.00
738.81	269.40
739.14	268.48
739.47	267.86
739.80	266.83
740.13	266.36
740.46	265.90
740.79	264.95
741.12	264.21
741.45	263.67
741.78	261.86
742.11	261.83
742.44	260.86
742.77	260.55
743.10	259.69
743.43	259.19
743.75	256.24
744.08	258.57
744.41	257.98
744.74	257.38
745.07	256.57
745.40	256.36
745.73	256.69
746.06	256.45
746.39	256.29
746.71	255.71
747.04	254.93
747.37	254.33
747.70	254.29
748.03	254.21
748.36	253.90
748.68	253.71
749.01	252.52
749.34	251.83
749.67	251.29
750.00	250.95
750.33	252.02
750.65	251.93
750.98	248.71
751.31	248.45
751.64	248.21
751.97	249.07
752.29	248.62
752.62	247.36
752.95	246.90
753.28	246.21
753.60	245.76
753.93	246.07
754.26	245.81
754.59	244.95
754.91	244.29
755.24	243.81
755.57	243.24
755.90	243.00
756.22	242.33
756.55	241.64
756.88	241.17
757.20	239.26
757.53	238.14
757.86	237.98
758.19	237.81
758.51	237.62
758.84	236.17
759.17	235.52
759.49	235.38
759.82	236.17
760.15	236.17
760.47	236.05
760.80	235.05
761.13	234.81
761.45	234.29
761.78	233.95
762.11	233.67
762.43	233.24
762.76	232.79
763.08	233.02
763.41	233.02
763.74	232.74
764.06	232.81
764.39	232.83
764.71	232.33
765.04	231.93
765.37	231.40
765.69	231.21
766.02	231.10
766.34	230.60
766.67	229.74
767.00	229.69
767.32	230.40
767.65	231.69
767.97	231.38
768.30	231.33
768.62	231.29
768.95	231.02
769.27	231.10
769.60	231.24
769.92	230.76
770.25	230.10
770.57	229.79
770.90	229.33
771.22	229.02
771.55	229.26
771.87	229.14
772.20	228.90
772.52	230.31
772.85	232.57
773.17	232.50
773.50	232.26
773.82	231.67
774.15	230.52
774.47	228.93
774.80	228.76
775.12	228.55
775.45	228.19
775.77	227.95
776.09	227.81
776.42	227.69
776.74	228.55
777.07	228.38
777.39	228.24
777.72	228.10
778.04	228.10
778.36	227.43
778.69	227.26
779.01	227.36
779.33	225.60
779.66	223.02
779.98	222.62
780.31	222.55
780.63	223.55
780.95	223.79
781.28	223.67
781.60	223.31
781.92	223.19
782.25	223.21
782.57	223.31
782.89	223.05
783.22	222.90
783.54	221.93
783.86	222.21
784.19	222.00
784.51	222.33
784.83	221.98
785.16	222.00
