SpectraSuite Data File
++++++++++++++++++++++++++++++++++++
Date: Tue Apr 02 18:38:38 EDT 2013
User: group
Dark Spectrum Present: No
Reference Spectrum Present: No
Number of Sampled Component Spectra: 1
Spectrometers: USB2E7196
Integration Time (usec): 580000 (USB2E7196)
Spectra Averaged: 2 (USB2E7196)
Boxcar Smoothing: 10 (USB2E7196)
Correct for Electrical Dark: No (USB2E7196)
Strobe/Lamp Enabled: No (USB2E7196)
Correct for Detector Non-linearity: No (USB2E7196)
Correct for Stray Light: No (USB2E7196)
Number of Pixels in Processed Spectrum: 2048
>>>>>Begin Processed Spectral Data<<<<<
339.09	0.00
339.48	193.50
339.86	195.00
340.24	191.50
340.63	197.00
341.01	228.00
341.39	199.00
341.78	205.00
342.16	211.50
342.54	203.00
342.93	196.05
343.31	205.67
343.69	206.02
344.07	206.55
344.46	207.55
344.84	208.14
345.22	207.05
345.60	207.60
345.99	207.90
346.37	207.71
346.75	207.81
347.13	208.07
347.52	207.98
347.90	208.69
348.28	208.67
348.66	209.12
349.05	208.62
349.43	208.88
349.81	209.50
350.19	209.74
350.57	209.93
350.96	210.07
351.34	210.62
351.72	210.86
352.10	211.05
352.48	210.71
352.87	210.86
353.25	210.98
353.63	211.10
354.01	211.21
354.39	211.67
354.77	211.71
355.15	212.38
355.54	212.55
355.92	211.83
356.30	212.29
356.68	213.74
357.06	214.07
357.44	213.88
357.82	213.60
358.20	214.60
358.58	214.48
358.97	214.93
359.35	215.29
359.73	215.86
360.11	215.90
360.49	216.33
360.87	216.21
361.25	216.74
361.63	217.38
362.01	217.48
362.39	217.38
362.77	218.00
363.15	217.71
363.53	217.60
363.91	217.88
364.29	217.90
364.67	215.79
365.05	215.93
365.43	216.36
365.81	216.57
366.19	216.62
366.57	217.67
366.95	217.50
367.33	217.00
367.71	217.02
368.09	217.40
368.47	217.40
368.85	217.38
369.23	217.93
369.61	216.88
369.99	217.48
370.37	217.74
370.75	218.67
371.13	218.29
371.51	218.29
371.89	218.62
372.27	218.69
372.65	219.12
373.03	219.10
373.41	218.64
373.78	218.74
374.16	217.81
374.54	217.10
374.92	216.74
375.30	217.10
375.68	216.83
376.06	216.93
376.44	216.60
376.82	216.76
377.19	216.24
377.57	216.45
377.95	215.81
378.33	215.52
378.71	214.14
379.09	214.38
379.47	214.67
379.84	214.38
380.22	214.31
380.60	213.95
380.98	213.86
381.36	213.86
381.73	213.38
382.11	213.67
382.49	213.74
382.87	213.67
383.25	213.57
383.62	215.88
384.00	215.57
384.38	215.88
384.76	216.38
385.13	217.31
385.51	217.33
385.89	217.12
386.27	217.00
386.64	217.26
387.02	217.26
387.40	216.88
387.78	216.95
388.15	216.88
388.53	216.79
388.91	216.81
389.29	216.76
389.66	217.00
390.04	216.57
390.42	217.02
390.79	217.14
391.17	216.93
391.55	214.60
391.92	214.48
392.30	214.74
392.68	214.26
393.05	213.71
393.43	213.90
393.81	214.19
394.18	214.21
394.56	214.14
394.94	214.43
395.31	214.45
395.69	215.02
396.06	215.19
396.44	215.38
396.82	215.14
397.19	216.33
397.57	216.26
397.95	216.81
398.32	216.02
398.70	216.40
399.07	217.02
399.45	217.00
399.82	217.07
400.20	216.76
400.58	216.62
400.95	216.12
401.33	216.60
401.70	217.90
402.08	218.10
402.45	218.19
402.83	218.74
403.20	219.05
403.58	218.88
403.95	219.48
404.33	219.90
404.71	220.52
405.08	221.43
405.46	221.83
405.83	222.24
406.21	222.81
406.58	223.36
406.96	223.62
407.33	224.24
407.70	225.12
408.08	227.17
408.45	228.29
408.83	229.52
409.20	229.93
409.58	229.64
409.95	230.71
410.33	232.00
410.70	232.43
411.08	233.88
411.45	235.10
411.82	236.14
412.20	238.17
412.57	240.69
412.95	240.69
413.32	242.79
413.69	244.67
414.07	246.76
414.44	248.76
414.82	251.17
415.19	253.90
415.56	256.55
415.94	258.69
416.31	262.14
416.68	265.45
417.06	269.36
417.43	273.40
417.81	277.40
418.18	281.62
418.55	286.12
418.93	290.55
419.30	295.57
419.67	301.12
420.04	306.19
420.42	311.40
420.79	319.76
421.16	325.93
421.54	333.57
421.91	340.69
422.28	348.00
422.66	355.81
423.03	364.95
423.40	373.19
423.77	381.64
424.15	389.81
424.52	398.14
424.89	407.88
425.26	417.10
425.64	426.12
426.01	435.81
426.38	446.60
426.75	458.02
427.13	468.86
427.50	479.69
427.87	491.40
428.24	503.24
428.61	513.88
428.99	527.14
429.36	539.83
429.73	553.10
430.10	566.33
430.47	579.76
430.85	592.86
431.22	607.52
431.59	624.33
431.96	639.10
432.33	656.98
432.70	673.57
433.08	692.50
433.45	710.55
433.82	728.74
434.19	748.33
434.56	767.81
434.93	786.76
435.30	805.45
435.68	826.31
436.05	846.86
436.42	866.05
436.79	884.33
437.16	904.81
437.53	926.05
437.90	947.45
438.27	968.88
438.64	990.76
439.01	1011.14
439.38	1027.67
439.75	1045.48
440.13	1065.14
440.50	1083.29
440.87	1099.00
441.24	1115.29
441.61	1132.57
441.98	1145.83
442.35	1160.48
442.72	1175.90
443.09	1192.31
443.46	1201.17
443.83	1207.86
444.20	1214.26
444.57	1222.40
444.94	1225.76
445.31	1230.26
445.68	1236.90
446.05	1238.24
446.42	1236.24
446.79	1234.02
447.16	1232.50
447.53	1231.21
447.90	1222.69
448.27	1215.38
448.64	1204.71
449.01	1197.14
449.37	1184.24
449.74	1170.93
450.11	1156.24
450.48	1138.50
450.85	1119.38
451.22	1104.93
451.59	1090.14
451.96	1075.79
452.33	1057.21
452.70	1040.17
453.07	1019.79
453.43	996.79
453.80	977.55
454.17	958.57
454.54	941.36
454.91	921.55
455.28	902.62
455.65	885.55
456.02	871.00
456.38	855.93
456.75	837.40
457.12	821.71
457.49	806.10
457.86	790.00
458.23	777.95
458.59	764.31
458.96	749.88
459.33	736.79
459.70	724.76
460.07	714.69
460.43	703.55
460.80	693.07
461.17	683.90
461.54	673.90
461.91	664.71
462.27	654.29
462.64	645.76
463.01	637.10
463.38	628.83
463.74	617.19
464.11	609.10
464.48	602.52
464.85	594.88
465.21	589.86
465.58	584.29
465.95	576.67
466.32	570.55
466.68	564.00
467.05	558.29
467.42	552.14
467.78	545.98
468.15	539.88
468.52	535.36
468.88	528.74
469.25	523.40
469.62	519.55
469.98	515.24
470.35	511.50
470.72	507.33
471.08	502.45
471.45	498.98
471.82	496.02
472.18	491.76
472.55	488.67
472.92	484.52
473.28	480.79
473.65	477.38
474.02	474.38
474.38	472.67
474.75	470.69
475.11	468.17
475.48	466.10
475.85	464.45
476.21	462.24
476.58	460.74
476.94	459.57
477.31	457.64
477.67	456.05
478.04	454.95
478.41	453.71
478.77	455.19
479.14	453.93
479.50	452.88
479.87	452.36
480.23	452.00
480.60	451.55
480.96	451.57
481.33	452.55
481.69	452.86
482.06	452.76
482.42	452.98
482.79	453.40
483.15	453.67
483.52	455.21
483.88	455.71
484.25	456.83
484.61	457.52
484.98	458.38
485.34	460.50
485.71	462.24
486.07	464.05
486.44	463.71
486.80	465.71
487.17	467.93
487.53	471.02
487.90	473.60
488.26	477.24
488.62	481.07
488.99	483.45
489.35	486.55
489.72	489.88
490.08	493.02
490.44	496.48
490.81	500.79
491.17	503.95
491.54	508.64
491.90	513.14
492.26	518.00
492.63	523.17
492.99	527.60
493.36	532.26
493.72	537.83
494.08	543.83
494.45	550.52
494.81	557.02
495.17	562.83
495.54	570.07
495.90	576.21
496.26	581.95
496.63	589.00
496.99	596.02
497.35	603.45
497.72	611.26
498.08	618.83
498.44	626.48
498.80	634.98
499.17	642.93
499.53	651.50
499.89	660.12
500.26	668.79
500.62	677.64
500.98	686.95
501.34	695.64
501.71	705.02
502.07	713.71
502.43	722.10
502.79	731.10
503.16	739.79
503.52	749.31
503.88	758.93
504.24	768.55
504.60	778.71
504.97	789.07
505.33	798.71
505.69	810.10
506.05	820.05
506.41	830.36
506.78	840.81
507.14	850.62
507.50	860.90
507.86	871.17
508.22	881.36
508.59	891.60
508.95	903.17
509.31	914.05
509.67	924.07
510.03	935.21
510.39	946.19
510.75	956.74
511.12	967.21
511.48	977.57
511.84	988.55
512.20	999.05
512.56	1009.17
512.92	1020.45
513.28	1030.81
513.64	1041.86
514.00	1052.45
514.37	1063.48
514.73	1074.81
515.09	1086.21
515.45	1096.95
515.81	1107.55
516.17	1118.17
516.53	1127.05
516.89	1136.69
517.25	1147.45
517.61	1157.86
517.97	1167.43
518.33	1177.48
518.69	1187.79
519.05	1198.43
519.41	1208.33
519.77	1219.26
520.13	1229.02
520.49	1238.10
520.85	1247.10
521.21	1256.93
521.57	1265.45
521.93	1273.43
522.29	1281.67
522.65	1288.86
523.01	1297.19
523.37	1305.86
523.73	1314.17
524.09	1323.19
524.45	1331.17
524.81	1339.14
525.17	1346.62
525.53	1355.14
525.89	1363.19
526.25	1371.50
526.61	1378.29
526.97	1385.33
527.33	1392.00
527.68	1400.86
528.04	1408.33
528.40	1415.10
528.76	1421.79
529.12	1429.33
529.48	1437.98
529.84	1445.14
530.20	1452.45
530.56	1460.07
530.91	1467.21
531.27	1474.67
531.63	1481.17
531.99	1486.95
532.35	1493.50
532.71	1500.36
533.07	1507.79
533.42	1516.98
533.78	1523.48
534.14	1530.62
534.50	1536.50
534.86	1544.07
535.21	1548.83
535.57	1555.69
535.93	1561.29
536.29	1568.19
536.65	1574.81
537.00	1579.24
537.36	1585.12
537.72	1590.69
538.08	1596.05
538.44	1601.52
538.79	1606.79
539.15	1611.71
539.51	1618.02
539.87	1623.67
540.22	1628.62
540.58	1633.02
540.94	1635.57
541.29	1639.05
541.65	1642.29
542.01	1647.79
542.37	1650.33
542.72	1653.48
543.08	1656.12
543.44	1661.67
543.79	1664.12
544.15	1668.36
544.51	1673.00
544.87	1676.02
545.22	1680.93
545.58	1684.74
545.94	1688.21
546.29	1691.00
546.65	1694.71
547.01	1698.05
547.36	1700.76
547.72	1703.43
548.07	1706.26
548.43	1708.26
548.79	1711.07
549.14	1714.02
549.50	1716.19
549.86	1718.60
550.21	1720.86
550.57	1724.14
550.92	1725.98
551.28	1729.17
551.64	1730.57
551.99	1732.19
552.35	1735.52
552.70	1736.10
553.06	1737.81
553.41	1739.05
553.77	1742.24
554.13	1744.88
554.48	1747.48
554.84	1750.43
555.19	1753.02
555.55	1756.00
555.90	1758.17
556.26	1760.36
556.61	1762.86
556.97	1764.64
557.32	1766.40
557.68	1769.67
558.03	1771.02
558.39	1772.10
558.74	1773.38
559.10	1775.36
559.45	1777.48
559.81	1778.07
560.16	1779.69
560.52	1781.10
560.87	1783.38
561.23	1784.14
561.58	1786.81
561.94	1787.19
562.29	1787.21
562.64	1788.02
563.00	1787.57
563.35	1788.74
563.71	1790.38
564.06	1792.05
564.42	1793.45
564.77	1794.76
565.12	1796.10
565.48	1799.14
565.83	1800.83
566.19	1802.26
566.54	1803.48
566.89	1804.17
567.25	1806.52
567.60	1809.33
567.96	1812.45
568.31	1813.79
568.66	1814.81
569.02	1814.02
569.37	1814.93
569.72	1815.55
570.08	1816.31
570.43	1817.10
570.78	1817.98
571.14	1818.90
571.49	1818.90
571.84	1819.14
572.20	1819.67
572.55	1819.50
572.90	1817.50
573.26	1816.52
573.61	1815.17
573.96	1813.79
574.31	1813.05
574.67	1811.19
575.02	1809.57
575.37	1806.57
575.72	1804.38
576.08	1803.10
576.43	1801.07
576.78	1799.17
577.13	1797.29
577.49	1795.45
577.84	1793.45
578.19	1791.48
578.54	1788.83
578.90	1786.05
579.25	1782.95
579.60	1779.50
579.95	1775.19
580.30	1772.88
580.66	1770.81
581.01	1767.83
581.36	1765.24
581.71	1762.71
582.06	1761.26
582.42	1757.62
582.77	1752.81
583.12	1749.24
583.47	1745.76
583.82	1742.81
584.17	1739.05
584.53	1736.64
584.88	1732.14
585.23	1728.29
585.58	1723.17
585.93	1718.21
586.28	1713.93
586.63	1710.12
586.98	1706.67
587.34	1704.19
587.69	1698.86
588.04	1693.74
588.39	1690.10
588.74	1684.50
589.09	1679.95
589.44	1672.67
589.79	1667.69
590.14	1664.24
590.49	1658.60
590.84	1652.76
591.19	1647.45
591.54	1643.52
591.89	1637.69
592.25	1634.69
592.60	1629.88
592.95	1626.07
593.30	1621.71
593.65	1616.52
594.00	1611.38
594.35	1611.52
594.70	1604.79
595.05	1600.33
595.40	1595.31
595.75	1589.24
596.10	1584.98
596.45	1579.43
596.80	1576.17
597.15	1571.52
597.50	1565.79
597.85	1561.88
598.19	1557.12
598.54	1551.50
598.89	1545.14
599.24	1539.31
599.59	1532.74
599.94	1526.31
600.29	1520.55
600.64	1515.07
600.99	1510.26
601.34	1505.31
601.69	1494.45
602.04	1489.17
602.39	1483.19
602.74	1478.95
603.08	1473.17
603.43	1467.90
603.78	1462.45
604.13	1455.93
604.48	1449.38
604.83	1443.74
605.18	1438.02
605.53	1431.67
605.87	1426.74
606.22	1421.10
606.57	1416.02
606.92	1410.60
607.27	1405.50
607.62	1400.24
607.96	1394.40
608.31	1389.31
608.66	1383.05
609.01	1377.14
609.36	1372.69
609.70	1366.74
610.05	1360.02
610.40	1354.36
610.75	1348.12
611.10	1342.10
611.44	1335.36
611.79	1329.02
612.14	1322.79
612.49	1315.83
612.83	1309.76
613.18	1302.69
613.53	1296.12
613.88	1289.52
614.22	1281.79
614.57	1275.60
614.92	1268.38
615.27	1261.57
615.61	1254.45
615.96	1248.10
616.31	1241.52
616.65	1235.07
617.00	1229.24
617.35	1222.07
617.70	1215.79
618.04	1208.69
618.39	1202.40
618.74	1196.79
619.08	1190.57
619.43	1185.17
619.78	1179.31
620.12	1173.48
620.47	1167.76
620.82	1161.79
621.16	1155.00
621.51	1150.67
621.85	1143.83
622.20	1137.64
622.55	1131.36
622.89	1124.95
623.24	1119.40
623.59	1113.45
623.93	1107.19
624.28	1101.00
624.62	1097.57
624.97	1093.21
625.32	1088.07
625.66	1082.07
626.01	1076.02
626.35	1071.21
626.70	1065.14
627.04	1059.48
627.39	1053.12
627.73	1048.21
628.08	1043.02
628.43	1037.62
628.77	1030.71
629.12	1025.50
629.46	1020.86
629.81	1015.79
630.15	1010.24
630.50	1003.52
630.84	997.24
631.19	991.31
631.53	985.52
631.88	976.83
632.22	969.67
632.57	963.93
632.91	957.67
633.26	952.26
633.60	945.40
633.95	939.14
634.29	932.98
634.64	927.62
634.98	920.57
635.32	915.19
635.67	909.38
636.01	904.33
636.36	898.43
636.70	892.90
637.05	886.93
637.39	881.38
637.73	876.31
638.08	871.62
638.42	866.00
638.77	861.29
639.11	856.83
639.45	851.86
639.80	845.76
640.14	840.86
640.49	835.38
640.83	830.52
641.17	825.60
641.52	820.86
641.86	815.83
642.20	812.17
642.55	806.14
642.89	801.12
643.23	795.67
643.58	790.67
643.92	784.64
644.26	779.60
644.61	774.79
644.95	769.64
645.29	764.14
645.64	759.45
645.98	753.71
646.32	748.48
646.66	742.76
647.01	738.26
647.35	733.48
647.69	728.81
648.04	724.74
648.38	719.40
648.72	714.55
649.06	709.50
649.41	703.71
649.75	698.79
650.09	694.50
650.43	689.95
650.78	685.43
651.12	680.60
651.46	675.21
651.80	670.29
652.14	665.31
652.49	661.33
652.83	656.21
653.17	651.86
653.51	647.07
653.85	643.29
654.20	638.71
654.54	633.60
654.88	627.90
655.22	623.40
655.56	618.79
655.90	614.29
656.25	610.02
656.59	605.48
656.93	601.64
657.27	597.76
657.61	592.74
657.95	588.95
658.29	585.38
658.64	582.26
658.98	578.17
659.32	574.33
659.66	570.19
660.00	566.69
660.34	562.83
660.68	559.21
661.02	555.40
661.36	551.36
661.70	548.02
662.05	545.33
662.39	541.55
662.73	538.98
663.07	536.26
663.41	532.79
663.75	529.79
664.09	526.43
664.43	522.36
664.77	519.48
665.11	515.48
665.45	511.81
665.79	508.86
666.13	505.55
666.47	502.45
666.81	499.26
667.15	495.79
667.49	492.98
667.83	490.38
668.17	486.86
668.51	483.95
668.85	480.88
669.19	478.79
669.53	475.26
669.87	471.81
670.21	468.74
670.55	466.07
670.89	463.88
671.23	460.71
671.57	457.95
671.91	455.93
672.25	453.83
672.58	451.98
672.92	448.69
673.26	446.60
673.60	444.48
673.94	442.10
674.28	439.74
674.62	437.26
674.96	434.31
675.30	432.31
675.64	430.19
675.97	428.21
676.31	425.00
676.65	422.71
676.99	421.10
677.33	418.24
677.67	416.05
678.01	412.83
678.34	411.10
678.68	409.79
679.02	406.83
679.36	404.40
679.70	401.45
680.04	399.43
680.37	397.17
680.71	394.62
681.05	392.67
681.39	390.95
681.73	388.69
682.06	386.88
682.40	384.98
682.74	383.19
683.08	381.74
683.42	379.45
683.75	377.95
684.09	375.43
684.43	373.74
684.77	371.67
685.10	370.24
685.44	368.36
685.78	366.07
686.12	364.29
686.45	362.76
686.79	361.05
687.13	359.86
687.46	358.10
687.80	356.98
688.14	354.95
688.48	353.36
688.81	351.98
689.15	350.95
689.49	349.24
689.82	347.79
690.16	345.33
690.50	344.02
690.83	342.21
691.17	340.50
691.51	338.98
691.84	337.95
692.18	336.33
692.52	334.71
692.85	333.81
693.19	333.48
693.52	331.95
693.86	330.45
694.20	328.98
694.53	327.88
694.87	326.29
695.21	324.86
695.54	323.45
695.88	321.83
696.21	319.74
696.55	318.33
696.88	317.21
697.22	316.17
697.56	315.38
697.89	314.17
698.23	313.62
698.56	312.48
698.90	311.17
699.23	309.69
699.57	308.67
699.90	306.93
700.24	305.31
700.58	304.29
700.91	303.52
701.25	303.90
701.58	303.55
701.92	303.05
702.25	302.10
702.59	300.95
702.92	300.17
703.26	299.60
703.59	298.76
703.93	299.19
704.26	298.29
704.60	297.62
704.93	296.71
705.26	295.50
705.60	294.74
705.93	293.69
706.27	293.81
706.60	293.55
706.94	293.79
707.27	292.76
707.61	291.71
707.94	290.93
708.27	288.71
708.61	286.76
708.94	285.60
709.28	284.93
709.61	283.76
709.94	283.07
710.28	282.21
710.61	281.60
710.95	279.17
711.28	279.74
711.61	278.52
711.95	278.52
712.28	277.57
712.61	276.88
712.95	277.45
713.28	277.33
713.61	276.12
713.95	274.64
714.28	274.17
714.61	273.62
714.95	272.79
715.28	271.64
715.61	271.19
715.95	270.62
716.28	269.81
716.61	269.76
716.95	268.52
717.28	267.98
717.61	267.17
717.94	266.86
718.28	264.38
718.61	263.98
718.94	262.69
719.27	262.24
719.61	261.62
719.94	260.21
720.27	258.48
720.60	257.90
720.94	257.69
721.27	257.21
721.60	257.17
721.93	256.83
722.27	257.38
722.60	257.19
722.93	256.57
723.26	256.45
723.59	255.64
723.93	255.69
724.26	255.26
724.59	254.71
724.92	254.14
725.25	254.79
725.59	254.24
725.92	253.90
726.25	253.40
726.58	253.24
726.91	252.43
727.24	252.48
727.57	252.17
727.91	251.40
728.24	251.14
728.57	250.31
728.90	250.02
729.23	248.67
729.56	249.10
729.89	248.81
730.22	248.38
730.55	247.98
730.89	247.64
731.22	247.31
731.55	247.00
731.88	246.90
732.21	246.17
732.54	245.57
732.87	245.38
733.20	245.21
733.53	244.88
733.86	245.00
734.19	244.19
734.52	244.07
734.85	244.86
735.18	244.12
735.51	244.36
735.84	244.31
736.17	244.83
736.50	243.62
736.83	245.62
737.16	245.26
737.49	245.21
737.82	244.86
738.15	244.79
738.48	244.67
738.81	244.10
739.14	243.62
739.47	243.21
739.80	242.79
740.13	242.81
740.46	242.02
740.79	241.60
741.12	241.45
741.45	240.71
741.78	239.57
742.11	239.86
742.44	239.45
742.77	239.31
743.10	238.62
743.43	238.00
743.75	235.64
744.08	237.93
744.41	237.36
744.74	237.14
745.07	236.33
745.40	236.17
745.73	236.88
746.06	236.74
746.39	237.00
746.71	236.50
747.04	235.64
747.37	235.62
747.70	235.60
748.03	235.48
748.36	235.74
748.68	235.52
749.01	234.83
749.34	234.36
749.67	233.98
750.00	233.98
750.33	235.62
750.65	235.57
750.98	232.79
751.31	232.79
751.64	232.62
751.97	233.93
752.29	233.88
752.62	232.57
752.95	232.38
753.28	231.64
753.60	231.60
753.93	232.31
754.26	232.12
754.59	231.43
754.91	231.14
755.24	231.02
755.57	230.95
755.90	230.67
756.22	230.50
756.55	230.19
756.88	229.79
757.20	228.14
757.53	227.38
757.86	227.43
758.19	227.52
758.51	227.33
758.84	225.74
759.17	225.21
759.49	225.19
759.82	226.02
760.15	226.29
760.47	226.19
760.80	225.14
761.13	225.60
761.45	225.50
761.78	225.45
762.11	225.00
762.43	224.52
762.76	224.62
763.08	224.67
763.41	224.71
763.74	224.69
764.06	224.57
764.39	224.69
764.71	224.26
765.04	223.86
765.37	223.67
765.69	223.69
766.02	223.69
766.34	223.62
766.67	222.45
767.00	222.86
767.32	223.74
767.65	225.33
767.97	224.60
768.30	224.62
768.62	224.52
768.95	224.60
769.27	224.48
769.60	224.57
769.92	224.07
770.25	223.57
770.57	223.05
770.90	222.98
771.22	222.52
771.55	222.62
771.87	223.00
772.20	222.74
772.52	224.67
772.85	227.14
773.17	226.90
773.50	227.12
773.82	226.38
774.15	225.45
774.47	223.88
774.80	223.90
775.12	223.69
775.45	223.64
775.77	223.31
776.09	223.67
776.42	223.50
776.74	224.24
777.07	224.10
777.39	224.38
777.72	224.17
778.04	224.45
778.36	224.26
778.69	223.88
779.01	223.90
779.33	221.98
779.66	219.52
779.98	219.52
780.31	219.26
780.63	220.21
780.95	220.55
781.28	220.55
781.60	220.38
781.92	220.45
782.25	220.31
782.57	220.40
782.89	220.00
783.22	219.86
783.54	219.05
783.86	219.12
784.19	218.98
784.51	219.60
784.83	219.43
785.16	219.17
785.48	219.12
785.80	219.24
786.12	219.29
