SpectraSuite Data File
++++++++++++++++++++++++++++++++++++
Date: Tue Apr 02 18:41:09 EDT 2013
User: group
Dark Spectrum Present: No
Reference Spectrum Present: No
Number of Sampled Component Spectra: 1
Spectrometers: USB2E7196
Integration Time (usec): 580000 (USB2E7196)
Spectra Averaged: 2 (USB2E7196)
Boxcar Smoothing: 10 (USB2E7196)
Correct for Electrical Dark: No (USB2E7196)
Strobe/Lamp Enabled: No (USB2E7196)
Correct for Detector Non-linearity: No (USB2E7196)
Correct for Stray Light: No (USB2E7196)
Number of Pixels in Processed Spectrum: 2048
>>>>>Begin Processed Spectral Data<<<<<
339.09	0.00
339.48	192.00
339.86	194.50
340.24	196.00
340.63	199.50
341.01	231.50
341.39	201.00
341.78	202.00
342.16	212.00
342.54	206.50
342.93	197.40
343.31	207.10
343.69	207.69
344.07	208.19
344.46	208.83
344.84	209.36
345.22	208.00
345.60	208.31
345.99	208.69
346.37	208.62
346.75	208.88
347.13	208.88
347.52	209.02
347.90	209.88
348.28	210.14
348.66	210.62
349.05	209.93
349.43	210.05
349.81	210.07
350.19	209.98
350.57	209.86
350.96	209.98
351.34	210.45
351.72	210.52
352.10	210.69
352.48	210.55
352.87	210.33
353.25	210.52
353.63	210.48
354.01	210.43
354.39	210.64
354.77	210.60
355.15	211.26
355.54	211.19
355.92	210.33
356.30	210.02
356.68	211.17
357.06	211.50
357.44	211.38
357.82	211.52
358.20	212.60
358.58	212.60
358.97	212.60
359.35	212.71
359.73	213.21
360.11	213.38
360.49	213.62
360.87	213.74
361.25	214.12
361.63	214.95
362.01	215.17
362.39	214.67
362.77	214.86
363.15	214.33
363.53	214.29
363.91	214.57
364.29	214.64
364.67	212.76
365.05	212.93
365.43	213.21
365.81	213.43
366.19	213.74
366.57	214.60
366.95	214.64
367.33	214.43
367.71	214.38
368.09	214.71
368.47	214.79
368.85	214.86
369.23	215.26
369.61	214.71
369.99	215.43
370.37	215.95
370.75	217.12
371.13	217.05
371.51	217.00
371.89	217.10
372.27	217.33
372.65	217.64
373.03	217.55
373.41	217.48
373.78	217.48
374.16	216.43
374.54	215.69
374.92	215.48
375.30	215.50
375.68	215.07
376.06	214.98
376.44	214.55
376.82	214.74
377.19	214.69
377.57	214.40
377.95	213.67
378.33	213.55
378.71	212.07
379.09	212.45
379.47	212.71
379.84	212.62
380.22	212.31
380.60	211.98
380.98	211.86
381.36	211.69
381.73	211.26
382.11	211.55
382.49	211.81
382.87	211.76
383.25	211.74
383.62	214.19
384.00	213.90
384.38	214.43
384.76	214.76
385.13	215.29
385.51	215.43
385.89	215.24
386.27	215.38
386.64	215.67
387.02	215.38
387.40	215.12
387.78	215.31
388.15	215.48
388.53	215.60
388.91	215.60
389.29	215.52
389.66	215.74
390.04	215.43
390.42	215.71
390.79	215.93
391.17	215.98
391.55	213.83
391.92	214.05
392.30	214.07
392.68	213.40
393.05	213.29
393.43	213.17
393.81	213.38
394.18	213.02
394.56	213.02
394.94	213.50
395.31	213.38
395.69	213.90
396.06	214.14
396.44	214.21
396.82	214.17
397.19	215.26
397.57	215.19
397.95	215.55
398.32	215.19
398.70	215.31
399.07	215.67
399.45	215.36
399.82	215.12
400.20	214.86
400.58	215.02
400.95	214.17
401.33	214.81
401.70	216.33
402.08	216.45
402.45	216.60
402.83	216.93
403.20	217.21
403.58	217.05
403.95	217.76
404.33	218.26
404.71	218.55
405.08	219.57
405.46	220.14
405.83	220.45
406.21	220.57
406.58	220.90
406.96	221.24
407.33	222.43
407.70	223.07
408.08	225.52
408.45	226.57
408.83	227.88
409.20	228.26
409.58	227.69
409.95	229.14
410.33	230.21
410.70	230.57
411.08	231.67
411.45	232.69
411.82	233.33
412.20	234.86
412.57	237.52
412.95	237.29
413.32	239.05
413.69	240.74
414.07	242.43
414.44	244.60
414.82	246.45
415.19	248.71
415.56	251.17
415.94	252.50
416.31	255.26
416.68	258.05
417.06	261.52
417.43	265.12
417.81	268.48
418.18	272.24
418.55	276.24
418.93	280.76
419.30	285.50
419.67	290.31
420.04	295.10
420.42	299.33
420.79	306.67
421.16	312.38
421.54	319.38
421.91	325.81
422.28	332.19
422.66	339.26
423.03	347.48
423.40	354.88
423.77	362.36
424.15	369.71
424.52	377.71
424.89	386.36
425.26	394.21
425.64	402.33
426.01	411.38
426.38	420.48
426.75	429.93
427.13	439.45
427.50	449.62
427.87	459.43
428.24	469.98
428.61	478.83
428.99	490.24
429.36	501.05
429.73	512.55
430.10	524.14
430.47	536.55
430.85	547.19
431.22	559.86
431.59	574.50
431.96	588.17
432.33	602.07
432.70	616.48
433.08	633.12
433.45	648.67
433.82	663.69
434.19	681.52
434.56	699.33
434.93	715.33
435.30	731.45
435.68	749.88
436.05	767.90
436.42	785.43
436.79	801.86
437.16	820.12
437.53	839.79
437.90	858.64
438.27	876.74
438.64	895.55
439.01	913.48
439.38	927.74
439.75	942.36
440.13	960.86
440.50	976.55
440.87	989.76
441.24	1004.07
441.61	1019.69
441.98	1030.62
442.35	1042.83
442.72	1056.31
443.09	1069.76
443.46	1078.48
443.83	1083.90
444.20	1089.43
444.57	1095.86
444.94	1099.21
445.31	1102.67
445.68	1108.43
446.05	1111.31
446.42	1110.10
446.79	1108.55
447.16	1107.07
447.53	1106.57
447.90	1099.36
448.27	1093.76
448.64	1084.67
449.01	1077.95
449.37	1066.17
449.74	1054.74
450.11	1042.93
450.48	1027.50
450.85	1011.52
451.22	997.95
451.59	985.64
451.96	974.00
452.33	957.79
452.70	942.74
453.07	924.57
453.43	903.62
453.80	885.24
454.17	869.05
454.54	853.40
454.91	836.98
455.28	820.07
455.65	805.00
456.02	792.36
456.38	779.74
456.75	763.45
457.12	749.57
457.49	736.38
457.86	721.69
458.23	711.93
458.59	699.90
458.96	687.17
459.33	675.43
459.70	663.60
460.07	655.10
460.43	645.05
460.80	635.74
461.17	628.81
461.54	620.10
461.91	611.79
462.27	602.83
462.64	595.21
463.01	587.74
463.38	580.79
463.74	569.69
464.11	562.62
464.48	556.52
464.85	549.74
465.21	545.00
465.58	539.74
465.95	532.55
466.32	527.21
466.68	521.86
467.05	516.60
467.42	511.64
467.78	505.81
468.15	500.60
468.52	496.67
468.88	490.64
469.25	485.88
469.62	482.10
469.98	478.17
470.35	474.21
470.72	470.43
471.08	465.43
471.45	462.74
471.82	459.76
472.18	456.24
472.55	454.14
472.92	450.62
473.28	447.67
473.65	444.76
474.02	441.93
474.38	439.83
474.75	438.05
475.11	435.31
475.48	433.79
475.85	432.24
476.21	430.43
476.58	428.95
476.94	427.71
477.31	426.10
477.67	424.93
478.04	423.88
478.41	422.81
478.77	424.60
479.14	423.43
479.50	422.69
479.87	422.40
480.23	421.93
480.60	421.69
480.96	421.21
481.33	422.10
481.69	422.29
482.06	422.19
482.42	422.21
482.79	422.71
483.15	422.83
483.52	423.60
483.88	424.00
484.25	424.48
484.61	425.07
484.98	426.21
485.34	428.17
485.71	429.76
486.07	431.17
486.44	430.26
486.80	431.67
487.17	433.57
487.53	435.86
487.90	437.86
488.26	440.76
488.62	443.48
488.99	445.31
489.35	448.00
489.72	450.98
490.08	453.86
490.44	456.81
490.81	459.90
491.17	462.95
491.54	466.90
491.90	471.14
492.26	474.88
492.63	478.19
492.99	481.62
493.36	485.62
493.72	490.48
494.08	495.19
494.45	500.24
494.81	505.69
495.17	510.40
495.54	516.21
495.90	520.74
496.26	526.36
496.63	531.83
496.99	537.60
497.35	543.38
497.72	549.50
498.08	555.45
498.44	561.95
498.80	569.10
499.17	575.29
499.53	581.17
499.89	588.71
500.26	596.36
500.62	603.00
500.98	610.83
501.34	617.83
501.71	625.79
502.07	632.48
502.43	639.31
502.79	646.40
503.16	653.19
503.52	660.60
503.88	668.07
504.24	675.40
504.60	683.05
504.97	691.31
505.33	699.29
505.69	708.69
506.05	716.76
506.41	724.21
506.78	732.29
507.14	740.45
507.50	747.83
507.86	755.83
508.22	764.74
508.59	772.21
508.95	780.90
509.31	789.36
509.67	797.88
510.03	805.10
510.39	813.64
510.75	822.12
511.12	830.71
511.48	839.33
511.84	847.71
512.20	855.60
512.56	863.26
512.92	870.93
513.28	878.17
513.64	886.05
514.00	893.64
514.37	901.24
514.73	909.05
515.09	917.52
515.45	924.64
515.81	931.48
516.17	938.00
516.53	944.40
516.89	950.62
517.25	957.76
517.61	965.83
517.97	972.93
518.33	979.17
518.69	986.24
519.05	991.88
519.41	998.48
519.77	1006.43
520.13	1012.88
520.49	1019.71
520.85	1025.36
521.21	1032.40
521.57	1039.05
521.93	1044.76
522.29	1051.36
522.65	1056.38
523.01	1062.88
523.37	1068.38
523.73	1075.07
524.09	1080.62
524.45	1085.95
524.81	1091.93
525.17	1096.79
525.53	1101.69
525.89	1107.52
526.25	1112.43
526.61	1117.45
526.97	1122.17
527.33	1126.21
527.68	1132.07
528.04	1136.86
528.40	1141.38
528.76	1145.71
529.12	1149.71
529.48	1155.07
529.84	1159.45
530.20	1164.50
530.56	1168.55
530.91	1173.83
531.27	1178.76
531.63	1183.86
531.99	1188.36
532.35	1192.33
532.71	1197.00
533.07	1201.81
533.42	1209.45
533.78	1213.86
534.14	1219.12
534.50	1224.50
534.86	1229.81
535.21	1233.40
535.57	1238.69
535.93	1243.79
536.29	1248.95
536.65	1253.45
537.00	1256.93
537.36	1261.48
537.72	1265.55
538.08	1270.29
538.44	1273.14
538.79	1276.38
539.15	1279.83
539.51	1284.17
539.87	1288.24
540.22	1292.52
540.58	1297.05
540.94	1298.36
541.29	1301.90
541.65	1304.55
542.01	1307.62
542.37	1310.19
542.72	1313.48
543.08	1315.52
543.44	1319.05
543.79	1320.90
544.15	1324.93
544.51	1329.69
544.87	1332.33
545.22	1335.45
545.58	1338.24
545.94	1342.57
546.29	1345.93
546.65	1348.26
547.01	1350.95
547.36	1354.05
547.72	1356.79
548.07	1359.24
548.43	1361.12
548.79	1364.29
549.14	1367.17
549.50	1370.86
549.86	1373.57
550.21	1376.40
550.57	1379.48
550.92	1381.48
551.28	1385.38
551.64	1388.02
551.99	1390.45
552.35	1393.57
552.70	1396.52
553.06	1400.86
553.41	1404.76
553.77	1410.26
554.13	1414.79
554.48	1420.19
554.84	1424.71
555.19	1429.38
555.55	1435.36
555.90	1439.31
556.26	1443.52
556.61	1448.29
556.97	1451.76
557.32	1456.17
557.68	1461.05
558.03	1466.40
558.39	1470.90
558.74	1474.76
559.10	1479.50
559.45	1484.19
559.81	1489.14
560.16	1494.14
560.52	1497.83
560.87	1502.62
561.23	1505.40
561.58	1512.43
561.94	1516.19
562.29	1521.05
562.64	1525.64
563.00	1528.95
563.35	1534.93
563.71	1540.05
564.06	1545.21
564.42	1550.79
564.77	1557.86
565.12	1564.52
565.48	1570.90
565.83	1577.93
566.19	1583.93
566.54	1589.64
566.89	1595.95
567.25	1603.12
567.60	1610.71
567.96	1618.71
568.31	1624.86
568.66	1632.45
569.02	1636.07
569.37	1641.26
569.72	1646.29
570.08	1650.88
570.43	1655.83
570.78	1660.29
571.14	1665.74
571.49	1670.86
571.84	1676.14
572.20	1679.21
572.55	1683.21
572.90	1686.81
573.26	1690.52
573.61	1693.98
573.96	1698.26
574.31	1701.83
574.67	1704.26
575.02	1706.71
575.37	1708.50
575.72	1710.62
576.08	1712.74
576.43	1715.33
576.78	1718.67
577.13	1722.26
577.49	1725.74
577.84	1729.86
578.19	1734.17
578.54	1738.14
578.90	1741.86
579.25	1744.48
579.60	1746.95
579.95	1749.05
580.30	1751.50
580.66	1754.52
581.01	1757.83
581.36	1760.57
581.71	1762.48
582.06	1766.86
582.42	1770.43
582.77	1772.67
583.12	1775.45
583.47	1777.64
583.82	1780.40
584.17	1782.79
584.53	1784.36
584.88	1786.21
585.23	1788.31
585.58	1789.29
585.93	1790.36
586.28	1792.07
586.63	1794.48
586.98	1797.10
587.34	1799.48
587.69	1800.29
588.04	1801.86
588.39	1803.50
588.74	1803.38
589.09	1804.69
589.44	1802.93
589.79	1803.45
590.14	1805.31
590.49	1805.90
590.84	1806.40
591.19	1807.83
591.54	1808.29
591.89	1809.05
592.25	1812.38
592.60	1811.50
592.95	1812.17
593.30	1812.17
593.65	1811.02
594.00	1809.83
594.35	1815.57
594.70	1813.88
595.05	1814.12
595.40	1812.86
595.75	1811.88
596.10	1812.74
596.45	1812.69
596.80	1813.69
597.15	1813.43
597.50	1811.36
597.85	1811.95
598.19	1811.10
598.54	1810.43
598.89	1808.71
599.24	1808.64
599.59	1805.90
599.94	1804.88
600.29	1803.93
600.64	1802.33
600.99	1802.12
601.34	1801.71
601.69	1794.71
602.04	1793.40
602.39	1792.29
602.74	1792.38
603.08	1791.62
603.43	1791.00
603.78	1788.79
604.13	1787.07
604.48	1784.43
604.83	1784.12
605.18	1781.55
605.53	1779.90
605.87	1777.29
606.22	1776.10
606.57	1773.33
606.92	1770.12
607.27	1768.24
607.62	1766.43
607.96	1764.76
608.31	1763.93
608.66	1761.17
609.01	1758.21
609.36	1756.76
609.70	1753.52
610.05	1749.26
610.40	1746.88
610.75	1743.00
611.10	1740.69
611.44	1736.81
611.79	1733.55
612.14	1729.81
612.49	1725.50
612.83	1722.26
613.18	1718.36
613.53	1714.14
613.88	1709.00
614.22	1704.98
614.57	1700.33
614.92	1695.60
615.27	1690.79
615.61	1684.31
615.96	1679.45
616.31	1674.74
616.65	1670.19
617.00	1666.64
617.35	1662.40
617.70	1656.79
618.04	1651.02
618.39	1645.88
618.74	1641.19
619.08	1635.74
619.43	1630.69
619.78	1626.02
620.12	1621.07
620.47	1617.05
620.82	1612.79
621.16	1608.19
621.51	1605.17
621.85	1599.76
622.20	1594.29
622.55	1588.98
622.89	1584.24
623.24	1579.95
623.59	1574.98
623.93	1569.90
624.28	1564.33
624.62	1561.24
624.97	1557.86
625.32	1554.02
625.66	1549.21
626.01	1544.17
626.35	1539.90
626.70	1534.86
627.04	1531.76
627.39	1526.17
627.73	1522.17
628.08	1517.21
628.43	1512.48
628.77	1506.62
629.12	1502.71
629.46	1498.14
629.81	1493.60
630.15	1488.12
630.50	1482.00
630.84	1476.76
631.19	1471.48
631.53	1465.83
631.88	1457.90
632.22	1450.29
632.57	1444.74
632.91	1439.12
633.26	1433.83
633.60	1427.90
633.95	1421.69
634.29	1413.67
634.64	1409.33
634.98	1402.33
635.32	1397.26
635.67	1393.38
636.01	1387.79
636.36	1381.60
636.70	1376.40
637.05	1370.40
637.39	1365.38
637.73	1360.98
638.08	1356.31
638.42	1351.12
638.77	1346.81
639.11	1341.67
639.45	1337.12
639.80	1330.52
640.14	1324.71
640.49	1318.88
640.83	1312.90
641.17	1307.52
641.52	1302.26
641.86	1295.98
642.20	1291.10
642.55	1284.10
642.89	1276.83
643.23	1269.98
643.58	1264.95
643.92	1257.90
644.26	1251.93
644.61	1245.98
644.95	1238.88
645.29	1231.74
645.64	1225.36
645.98	1218.26
646.32	1212.69
646.66	1205.33
647.01	1199.19
647.35	1193.36
647.69	1187.83
648.04	1181.81
648.38	1175.62
648.72	1169.45
649.06	1162.17
649.41	1153.86
649.75	1146.38
650.09	1139.38
650.43	1132.90
650.78	1125.36
651.12	1118.81
651.46	1112.26
651.80	1105.31
652.14	1098.83
652.49	1092.64
652.83	1085.50
653.17	1078.69
653.51	1071.36
653.85	1065.43
654.20	1058.71
654.54	1051.33
654.88	1043.55
655.22	1037.64
655.56	1030.71
655.90	1024.24
656.25	1018.29
656.59	1012.76
656.93	1007.40
657.27	1002.76
657.61	996.43
657.95	990.17
658.29	984.33
658.64	979.00
658.98	972.62
659.32	966.48
659.66	960.17
660.00	953.98
660.34	947.79
660.68	942.21
661.02	935.76
661.36	929.90
661.70	924.52
662.05	919.24
662.39	913.31
662.73	908.24
663.07	903.67
663.41	897.81
663.75	891.79
664.09	886.31
664.43	878.43
664.77	872.36
665.11	866.43
665.45	860.36
665.79	853.98
666.13	848.05
666.47	841.88
666.81	836.26
667.15	830.64
667.49	825.62
667.83	820.60
668.17	815.43
668.51	810.19
668.85	804.64
669.19	800.00
669.53	793.62
669.87	787.19
670.21	780.88
670.55	775.17
670.89	770.52
671.23	765.31
671.57	761.52
671.91	756.88
672.25	752.12
672.58	748.24
672.92	743.17
673.26	738.50
673.60	734.10
673.94	728.83
674.28	724.05
674.62	719.62
674.96	714.12
675.30	709.71
675.64	705.07
675.97	700.57
676.31	695.38
676.65	690.55
676.99	687.26
677.33	682.26
677.67	678.05
678.01	672.88
678.34	668.31
678.68	663.50
679.02	658.81
679.36	654.19
679.70	649.29
680.04	644.86
680.37	640.48
680.71	636.17
681.05	632.26
681.39	628.10
681.73	623.24
682.06	619.07
682.40	614.14
682.74	610.05
683.08	606.48
683.42	601.55
683.75	598.40
684.09	593.29
684.43	589.57
684.77	585.33
685.10	581.40
685.44	577.40
685.78	573.26
686.12	569.62
686.45	565.71
686.79	561.19
687.13	557.50
687.46	553.69
687.80	550.38
688.14	546.64
688.48	542.98
688.81	539.31
689.15	536.10
689.49	532.50
689.82	528.83
690.16	524.05
690.50	520.81
690.83	516.40
691.17	512.40
691.51	508.50
691.84	504.81
692.18	501.05
692.52	497.81
692.85	494.57
693.19	491.33
693.52	487.98
693.86	484.36
694.20	480.76
694.53	477.36
694.87	473.29
695.21	469.83
695.54	466.69
695.88	462.79
696.21	458.55
696.55	455.36
696.88	452.33
697.22	449.45
697.56	446.38
697.89	443.24
698.23	441.26
698.56	438.05
698.90	435.79
699.23	432.90
699.57	430.12
699.90	427.14
700.24	424.36
700.58	421.71
700.91	419.48
701.25	418.76
701.58	416.64
701.92	414.90
702.25	412.43
702.59	409.36
702.92	407.21
703.26	405.48
703.59	403.24
703.93	402.67
704.26	400.62
704.60	398.79
704.93	396.71
705.26	393.57
705.60	391.93
705.93	388.98
706.27	387.57
706.60	385.57
706.94	384.40
707.27	381.81
707.61	380.10
707.94	378.19
708.27	374.40
708.61	371.81
708.94	369.67
709.28	367.76
709.61	366.02
709.94	364.17
710.28	362.21
710.61	360.48
710.95	356.48
711.28	355.95
711.61	354.07
711.95	352.69
712.28	351.21
712.61	349.21
712.95	348.76
713.28	348.02
713.61	346.02
713.95	343.62
714.28	342.60
714.61	340.60
714.95	338.86
715.28	337.14
715.61	335.71
715.95	334.02
716.28	332.38
716.61	331.33
716.95	329.67
717.28	327.81
717.61	326.24
717.94	324.83
718.28	322.14
718.61	320.45
718.94	318.64
719.27	317.29
719.61	315.98
719.94	314.14
720.27	311.69
720.60	310.31
720.94	308.81
721.27	307.40
721.60	306.67
721.93	305.67
722.27	305.07
722.60	304.14
722.93	302.67
723.26	301.64
723.59	299.98
723.93	299.29
724.26	298.79
724.59	297.43
724.92	296.79
725.25	296.29
725.59	295.36
725.92	294.76
726.25	293.71
726.58	292.76
726.91	291.83
727.24	290.86
727.57	289.79
727.91	288.93
728.24	288.02
728.57	286.79
728.90	286.02
729.23	284.33
729.56	284.31
729.89	283.88
730.22	282.88
730.55	282.19
730.89	281.52
731.22	280.62
731.55	280.05
731.88	279.26
732.21	277.86
732.54	276.95
732.87	275.90
733.20	275.31
733.53	275.02
733.86	274.60
734.19	273.60
734.52	273.48
734.85	274.26
735.18	273.52
735.51	273.48
735.84	272.90
736.17	273.19
736.50	271.48
736.83	273.05
737.16	272.62
737.49	272.26
737.82	271.40
738.15	270.74
738.48	270.14
738.81	269.50
739.14	268.83
739.47	268.07
739.80	267.45
740.13	267.12
740.46	266.05
740.79	265.02
741.12	264.62
741.45	263.67
741.78	261.88
742.11	261.90
742.44	261.05
742.77	260.62
743.10	259.74
743.43	259.00
743.75	256.19
744.08	258.17
744.41	257.38
744.74	256.81
745.07	255.95
745.40	255.81
745.73	256.10
746.06	255.90
746.39	255.81
746.71	255.52
747.04	254.93
747.37	254.45
747.70	254.10
748.03	253.79
748.36	253.52
748.68	252.76
749.01	251.45
749.34	250.64
749.67	250.19
750.00	250.02
750.33	251.26
750.65	251.43
750.98	248.64
751.31	248.31
751.64	248.02
751.97	248.83
752.29	248.26
752.62	246.90
752.95	246.24
753.28	245.76
753.60	244.98
753.93	245.05
754.26	244.79
754.59	243.90
754.91	243.33
755.24	242.90
755.57	242.50
755.90	242.17
756.22	241.71
756.55	241.19
756.88	240.17
757.20	238.50
757.53	237.14
757.86	236.69
758.19	236.76
758.51	236.36
758.84	235.14
759.17	234.79
759.49	234.71
759.82	235.57
760.15	235.31
760.47	235.19
760.80	234.40
761.13	234.19
761.45	233.95
761.78	233.69
762.11	233.52
762.43	233.40
762.76	233.31
763.08	233.31
763.41	232.79
763.74	232.74
764.06	232.52
764.39	232.48
764.71	232.10
765.04	231.55
765.37	231.17
765.69	230.88
766.02	230.57
766.34	230.07
766.67	228.86
767.00	229.21
767.32	230.14
767.65	231.02
767.97	230.90
768.30	230.88
768.62	230.50
768.95	229.95
769.27	229.81
769.60	229.81
769.92	229.24
770.25	228.98
770.57	228.60
770.90	228.38
771.22	228.17
771.55	228.19
771.87	227.93
772.20	227.67
772.52	229.07
772.85	231.12
773.17	231.31
773.50	231.10
773.82	230.36
774.15	229.10
774.47	227.79
774.80	227.48
775.12	227.19
775.45	227.10
775.77	227.17
776.09	227.07
776.42	227.00
776.74	227.69
777.07	227.55
777.39	227.45
777.72	227.02
778.04	227.14
778.36	226.67
778.69	226.76
779.01	226.86
779.33	225.21
779.66	223.05
779.98	222.74
780.31	222.83
780.63	223.52
780.95	223.55
781.28	223.26
781.60	223.17
781.92	223.21
782.25	223.02
782.57	222.93
782.89	222.52
783.22	222.19
783.54	221.74
783.86	221.93
784.19	221.76
784.51	222.40
784.83	221.90
785.16	221.88
