SpectraSuite Data File
++++++++++++++++++++++++++++++++++++
Date: Tue Apr 02 18:40:23 EDT 2013
User: group
Dark Spectrum Present: No
Reference Spectrum Present: No
Number of Sampled Component Spectra: 1
Spectrometers: USB2E7196
Integration Time (usec): 580000 (USB2E7196)
Spectra Averaged: 2 (USB2E7196)
Boxcar Smoothing: 10 (USB2E7196)
Correct for Electrical Dark: No (USB2E7196)
Strobe/Lamp Enabled: No (USB2E7196)
Correct for Detector Non-linearity: No (USB2E7196)
Correct for Stray Light: No (USB2E7196)
Number of Pixels in Processed Spectrum: 2048
>>>>>Begin Processed Spectral Data<<<<<
339.09	0.00
339.48	193.50
339.86	194.50
340.24	197.50
340.63	198.50
341.01	230.00
341.39	201.00
341.78	207.00
342.16	212.00
342.54	207.50
342.93	198.02
343.31	207.95
343.69	208.60
344.07	209.05
344.46	209.88
344.84	210.81
345.22	209.74
345.60	210.36
345.99	210.64
346.37	210.57
346.75	210.79
347.13	211.17
347.52	211.26
347.90	211.79
348.28	211.86
348.66	212.38
349.05	211.74
349.43	211.98
349.81	212.29
350.19	212.17
350.57	212.48
350.96	212.83
351.34	212.98
351.72	213.24
352.10	213.50
352.48	213.31
352.87	212.93
353.25	213.14
353.63	213.12
354.01	213.24
354.39	213.40
354.77	213.31
355.15	213.86
355.54	213.74
355.92	213.26
356.30	213.50
356.68	214.76
357.06	214.95
357.44	214.83
357.82	214.57
358.20	215.81
358.58	215.52
358.97	215.48
359.35	215.88
359.73	216.17
360.11	216.17
360.49	216.17
360.87	215.93
361.25	216.07
361.63	216.60
362.01	216.55
362.39	216.48
362.77	216.76
363.15	216.57
363.53	216.52
363.91	216.50
364.29	216.26
364.67	214.26
365.05	214.21
365.43	214.26
365.81	214.64
366.19	214.64
366.57	215.36
366.95	215.60
367.33	215.00
367.71	214.88
368.09	215.36
368.47	215.48
368.85	215.55
369.23	215.90
369.61	215.19
369.99	215.76
370.37	215.93
370.75	216.69
371.13	216.24
371.51	216.10
371.89	216.50
372.27	216.81
372.65	216.88
373.03	216.74
373.41	216.64
373.78	216.64
374.16	215.48
374.54	214.95
374.92	214.50
375.30	214.88
375.68	214.48
376.06	214.33
376.44	214.00
376.82	214.33
377.19	214.21
377.57	214.14
377.95	213.55
378.33	213.50
378.71	212.38
379.09	212.67
379.47	213.00
379.84	212.81
380.22	212.40
380.60	212.14
380.98	212.31
381.36	212.29
381.73	211.81
382.11	212.33
382.49	212.38
382.87	212.29
383.25	212.12
383.62	214.38
384.00	213.98
384.38	214.26
384.76	214.60
385.13	215.40
385.51	215.43
385.89	215.02
386.27	215.00
386.64	215.31
387.02	215.19
387.40	214.93
387.78	214.93
388.15	215.29
388.53	215.21
388.91	215.43
389.29	215.43
389.66	215.90
390.04	215.57
390.42	215.93
390.79	215.98
391.17	215.98
391.55	214.07
391.92	214.24
392.30	214.33
392.68	213.88
393.05	213.64
393.43	213.71
393.81	214.17
394.18	213.74
394.56	213.71
394.94	214.31
395.31	214.19
395.69	214.83
396.06	215.02
396.44	215.36
396.82	215.00
397.19	216.00
397.57	215.90
397.95	216.36
398.32	215.86
398.70	215.98
399.07	216.55
399.45	216.33
399.82	216.38
400.20	216.17
400.58	216.19
400.95	215.31
401.33	215.67
401.70	216.98
402.08	217.24
402.45	217.48
402.83	217.86
403.20	218.26
403.58	218.17
403.95	218.57
404.33	218.83
404.71	219.12
405.08	220.14
405.46	220.17
405.83	220.40
406.21	220.79
406.58	221.40
406.96	221.55
407.33	222.17
407.70	222.98
408.08	225.19
408.45	226.17
408.83	227.52
409.20	228.02
409.58	227.76
409.95	229.05
410.33	229.90
410.70	230.19
411.08	231.40
411.45	232.43
411.82	233.40
412.20	235.36
412.57	237.81
412.95	237.88
413.32	239.98
413.69	241.60
414.07	243.31
414.44	245.31
414.82	247.19
415.19	249.64
415.56	251.76
415.94	253.40
416.31	256.33
416.68	258.95
417.06	262.69
417.43	266.33
417.81	269.93
418.18	273.74
418.55	277.71
418.93	281.67
419.30	286.14
419.67	290.79
420.04	295.31
420.42	299.90
420.79	306.95
421.16	313.00
421.54	320.19
421.91	327.07
422.28	333.52
422.66	341.07
423.03	349.36
423.40	356.90
423.77	364.21
424.15	371.74
424.52	380.02
424.89	388.79
425.26	397.24
425.64	405.38
426.01	414.38
426.38	423.69
426.75	434.02
427.13	444.12
427.50	454.52
427.87	465.10
428.24	475.62
428.61	485.00
428.99	496.86
429.36	507.98
429.73	519.69
430.10	532.02
430.47	544.40
430.85	556.02
431.22	569.48
431.59	585.21
431.96	599.43
432.33	614.05
432.70	628.40
433.08	645.40
433.45	661.79
433.82	677.55
434.19	695.98
434.56	713.45
434.93	729.76
435.30	746.36
435.68	765.17
436.05	783.71
436.42	801.79
436.79	818.90
437.16	837.40
437.53	856.17
437.90	874.57
438.27	893.14
438.64	912.36
439.01	930.79
439.38	945.33
439.75	960.88
440.13	979.76
440.50	996.29
440.87	1009.93
441.24	1024.43
441.61	1040.14
441.98	1052.05
442.35	1065.38
442.72	1079.36
443.09	1093.55
443.46	1101.74
443.83	1108.12
444.20	1113.40
444.57	1119.55
444.94	1123.05
445.31	1127.31
445.68	1133.48
446.05	1135.10
446.42	1133.07
446.79	1131.81
447.16	1130.36
447.53	1128.88
447.90	1121.19
448.27	1114.71
448.64	1105.38
449.01	1098.48
449.37	1087.05
449.74	1075.02
450.11	1062.12
450.48	1046.05
450.85	1029.36
451.22	1015.12
451.59	1001.81
451.96	989.33
452.33	972.26
452.70	957.14
453.07	938.71
453.43	917.98
453.80	900.10
454.17	883.64
454.54	866.81
454.91	849.12
455.28	832.00
455.65	816.24
456.02	803.88
456.38	790.38
456.75	773.69
457.12	759.48
457.49	745.57
457.86	730.43
458.23	720.33
458.59	707.86
458.96	695.64
459.33	683.93
459.70	672.45
460.07	663.90
460.43	653.40
460.80	644.10
461.17	636.31
461.54	627.83
461.91	619.10
462.27	610.05
462.64	602.60
463.01	594.81
463.38	587.88
463.74	576.33
464.11	569.12
464.48	563.43
464.85	556.21
465.21	551.60
465.58	546.71
465.95	539.48
466.32	534.36
466.68	529.17
467.05	523.57
467.42	518.40
467.78	512.60
468.15	507.40
468.52	503.95
468.88	497.95
469.25	493.00
469.62	489.95
469.98	485.81
470.35	481.55
470.72	477.55
471.08	472.74
471.45	470.29
471.82	467.21
472.18	463.38
472.55	461.36
472.92	457.31
473.28	454.60
473.65	451.36
474.02	448.19
474.38	445.98
474.75	444.31
475.11	441.57
475.48	439.81
475.85	437.79
476.21	435.29
476.58	434.50
476.94	433.33
477.31	431.60
477.67	430.67
478.04	429.90
478.41	429.29
478.77	430.43
479.14	429.02
479.50	428.52
479.87	427.93
480.23	427.38
480.60	427.21
480.96	426.83
481.33	428.02
481.69	428.29
482.06	428.26
482.42	428.67
482.79	429.33
483.15	429.50
483.52	430.67
483.88	430.74
484.25	431.02
484.61	431.62
484.98	432.40
485.34	434.21
485.71	435.98
486.07	437.33
486.44	437.52
486.80	438.88
487.17	440.43
487.53	443.19
487.90	445.71
488.26	448.67
488.62	451.36
488.99	453.10
489.35	455.98
489.72	458.60
490.08	460.93
490.44	463.88
490.81	467.45
491.17	470.52
491.54	475.10
491.90	478.64
492.26	482.62
492.63	487.05
492.99	490.69
493.36	495.14
493.72	499.62
494.08	504.05
494.45	509.60
494.81	514.79
495.17	519.45
495.54	524.55
495.90	529.55
496.26	534.64
496.63	540.12
496.99	545.24
497.35	551.79
497.72	558.52
498.08	564.74
498.44	571.40
498.80	578.21
499.17	584.67
499.53	591.57
499.89	598.98
500.26	606.12
500.62	613.52
500.98	621.38
501.34	628.86
501.71	636.88
502.07	644.36
502.43	651.76
502.79	658.93
503.16	666.43
503.52	674.05
503.88	681.26
504.24	689.50
504.60	698.79
504.97	707.07
505.33	714.95
505.69	724.43
506.05	732.69
506.41	740.95
506.78	748.98
507.14	756.83
507.50	764.83
507.86	772.86
508.22	781.14
508.59	788.40
508.95	796.74
509.31	805.90
509.67	814.36
510.03	823.48
510.39	832.17
510.75	841.55
511.12	849.90
511.48	859.21
511.84	867.55
512.20	875.29
512.56	882.55
512.92	891.45
513.28	898.95
513.64	906.62
514.00	915.17
514.37	923.69
514.73	932.86
515.09	942.14
515.45	950.02
515.81	957.81
516.17	965.64
516.53	972.81
516.89	979.21
517.25	986.64
517.61	993.67
517.97	1001.07
518.33	1007.07
518.69	1014.38
519.05	1021.24
519.41	1028.74
519.77	1036.12
520.13	1043.64
520.49	1049.83
520.85	1056.90
521.21	1065.17
521.57	1071.86
521.93	1077.76
522.29	1083.88
522.65	1088.60
523.01	1095.43
523.37	1100.74
523.73	1107.36
524.09	1113.88
524.45	1119.86
524.81	1125.64
525.17	1131.14
525.53	1136.69
525.89	1142.98
526.25	1148.21
526.61	1153.64
526.97	1158.74
527.33	1164.74
527.68	1171.98
528.04	1177.52
528.40	1182.29
528.76	1186.74
529.12	1191.79
529.48	1197.00
529.84	1201.98
530.20	1207.67
530.56	1212.95
530.91	1218.88
531.27	1223.71
531.63	1229.05
531.99	1233.24
532.35	1238.05
532.71	1242.57
533.07	1248.07
533.42	1255.12
533.78	1260.76
534.14	1266.31
534.50	1271.52
534.86	1276.24
535.21	1279.31
535.57	1284.40
535.93	1288.76
536.29	1293.79
536.65	1298.52
537.00	1303.10
537.36	1307.60
537.72	1311.48
538.08	1315.55
538.44	1319.36
538.79	1323.83
539.15	1326.57
539.51	1331.60
539.87	1335.71
540.22	1340.74
540.58	1344.29
540.94	1346.45
541.29	1350.26
541.65	1353.36
542.01	1357.40
542.37	1360.64
542.72	1363.79
543.08	1366.74
543.44	1370.69
543.79	1373.62
544.15	1377.69
544.51	1382.12
544.87	1385.90
545.22	1389.76
545.58	1393.45
545.94	1396.76
546.29	1400.40
546.65	1405.26
547.01	1408.83
547.36	1413.12
547.72	1416.21
548.07	1420.76
548.43	1423.24
548.79	1426.40
549.14	1429.86
549.50	1433.81
549.86	1436.60
550.21	1440.17
550.57	1444.24
550.92	1447.33
551.28	1451.64
551.64	1454.45
551.99	1457.19
552.35	1460.26
552.70	1463.88
553.06	1467.86
553.41	1471.69
553.77	1476.60
554.13	1480.86
554.48	1485.38
554.84	1490.48
555.19	1495.26
555.55	1500.81
555.90	1505.67
556.26	1510.14
556.61	1514.81
556.97	1518.02
557.32	1523.21
557.68	1527.76
558.03	1532.62
558.39	1537.64
558.74	1541.24
559.10	1546.07
559.45	1551.45
559.81	1556.69
560.16	1560.36
560.52	1564.95
560.87	1570.55
561.23	1573.64
561.58	1579.00
561.94	1582.76
562.29	1586.12
562.64	1591.33
563.00	1594.67
563.35	1599.40
563.71	1604.26
564.06	1609.40
564.42	1614.95
564.77	1620.40
565.12	1626.33
565.48	1633.31
565.83	1639.31
566.19	1645.69
566.54	1650.38
566.89	1655.52
567.25	1661.71
567.60	1669.36
567.96	1675.93
568.31	1682.14
568.66	1688.60
569.02	1693.00
569.37	1697.74
569.72	1703.12
570.08	1707.12
570.43	1711.26
570.78	1716.07
571.14	1721.33
571.49	1726.38
571.84	1730.36
572.20	1734.17
572.55	1738.17
572.90	1739.24
573.26	1741.93
573.61	1744.55
573.96	1748.36
574.31	1752.45
574.67	1755.60
575.02	1758.00
575.37	1759.62
575.72	1760.71
576.08	1763.14
576.43	1765.21
576.78	1768.83
577.13	1770.86
577.49	1772.90
577.84	1775.29
578.19	1778.50
578.54	1781.86
578.90	1783.98
579.25	1786.38
579.60	1787.26
579.95	1788.43
580.30	1791.60
580.66	1794.10
581.01	1796.83
581.36	1798.05
581.71	1799.40
582.06	1801.43
582.42	1803.69
582.77	1804.57
583.12	1806.43
583.47	1808.05
583.82	1810.81
584.17	1811.21
584.53	1813.55
584.88	1815.62
585.23	1816.81
585.58	1817.21
585.93	1816.62
586.28	1818.14
586.63	1819.29
586.98	1820.86
587.34	1822.93
587.69	1822.74
588.04	1822.93
588.39	1822.64
588.74	1821.74
589.09	1821.79
589.44	1819.95
589.79	1819.90
590.14	1820.52
590.49	1820.26
590.84	1819.14
591.19	1817.83
591.54	1818.50
591.89	1817.07
592.25	1818.33
592.60	1817.67
592.95	1818.07
593.30	1818.02
593.65	1815.19
594.00	1813.38
594.35	1818.90
594.70	1815.95
595.05	1815.57
595.40	1814.71
595.75	1813.67
596.10	1814.76
596.45	1813.48
596.80	1813.45
597.15	1812.02
597.50	1811.14
597.85	1811.48
598.19	1810.17
598.54	1809.07
598.89	1806.67
599.24	1805.93
599.59	1801.98
599.94	1800.17
600.29	1797.60
600.64	1794.90
600.99	1794.81
601.34	1793.60
601.69	1785.64
602.04	1784.17
602.39	1781.43
602.74	1779.83
603.08	1778.33
603.43	1776.62
603.78	1774.64
604.13	1772.86
604.48	1769.76
604.83	1767.31
605.18	1764.33
605.53	1761.95
605.87	1758.48
606.22	1756.81
606.57	1753.38
606.92	1751.24
607.27	1749.64
607.62	1746.62
607.96	1744.74
608.31	1741.60
608.66	1738.67
609.01	1735.00
609.36	1732.05
609.70	1728.29
610.05	1724.38
610.40	1720.26
610.75	1715.83
611.10	1711.36
611.44	1707.29
611.79	1703.93
612.14	1699.95
612.49	1694.26
612.83	1689.74
613.18	1685.21
613.53	1679.57
613.88	1674.45
614.22	1669.38
614.57	1662.95
614.92	1657.74
615.27	1652.19
615.61	1646.26
615.96	1640.95
616.31	1635.74
616.65	1631.43
617.00	1627.64
617.35	1623.14
617.70	1618.07
618.04	1612.31
618.39	1607.10
618.74	1601.14
619.08	1595.45
619.43	1589.19
619.78	1584.79
620.12	1579.90
620.47	1575.81
620.82	1570.93
621.16	1565.24
621.51	1560.83
621.85	1555.52
622.20	1550.31
622.55	1544.57
622.89	1539.64
623.24	1535.14
623.59	1529.55
623.93	1524.14
624.28	1518.83
624.62	1515.21
624.97	1510.60
625.32	1505.95
625.66	1500.67
626.01	1494.83
626.35	1489.90
626.70	1485.24
627.04	1480.07
627.39	1474.57
627.73	1469.86
628.08	1465.12
628.43	1461.36
628.77	1454.90
629.12	1451.02
629.46	1446.40
629.81	1440.95
630.15	1434.95
630.50	1428.93
630.84	1424.33
631.19	1417.69
631.53	1411.40
631.88	1403.14
632.22	1395.90
632.57	1391.48
632.91	1385.33
633.26	1380.21
633.60	1373.40
633.95	1367.00
634.29	1360.90
634.64	1355.55
634.98	1348.86
635.32	1343.10
635.67	1336.62
636.01	1331.86
636.36	1324.76
636.70	1319.45
637.05	1313.64
637.39	1308.02
637.73	1301.48
638.08	1296.07
638.42	1291.12
638.77	1285.93
639.11	1280.21
639.45	1275.00
639.80	1266.98
640.14	1261.10
640.49	1254.29
640.83	1248.52
641.17	1242.60
641.52	1236.52
641.86	1229.95
642.20	1224.90
642.55	1217.79
642.89	1211.40
643.23	1204.40
643.58	1198.43
643.92	1190.62
644.26	1184.64
644.61	1178.76
644.95	1172.38
645.29	1164.95
645.64	1158.67
645.98	1151.55
646.32	1145.21
646.66	1138.05
647.01	1131.98
647.35	1125.79
647.69	1120.26
648.04	1114.24
648.38	1108.05
648.72	1101.62
649.06	1094.62
649.41	1087.24
649.75	1080.29
650.09	1074.19
650.43	1067.57
650.78	1060.17
651.12	1053.43
651.46	1046.36
651.80	1039.60
652.14	1033.57
652.49	1027.83
652.83	1020.48
653.17	1013.55
653.51	1006.83
653.85	1000.52
654.20	993.50
654.54	986.71
654.88	980.12
655.22	974.12
655.56	967.10
655.90	960.57
656.25	954.90
656.59	948.48
656.93	942.48
657.27	936.64
657.61	930.36
657.95	925.40
658.29	919.40
658.64	914.05
658.98	907.57
659.32	900.74
659.66	894.38
660.00	888.86
660.34	883.12
660.68	877.14
661.02	871.40
661.36	866.14
661.70	860.86
662.05	854.88
662.39	849.55
662.73	844.83
663.07	840.14
663.41	834.31
663.75	828.69
664.09	823.62
664.43	816.88
664.77	810.93
665.11	804.64
665.45	799.24
665.79	793.71
666.13	788.10
666.47	783.24
666.81	777.93
667.15	772.19
667.49	767.52
667.83	762.93
668.17	757.38
668.51	752.14
668.85	746.98
669.19	742.83
669.53	736.45
669.87	730.74
670.21	725.02
670.55	719.48
670.89	714.60
671.23	709.83
671.57	705.43
671.91	700.79
672.25	696.40
672.58	692.48
672.92	687.14
673.26	682.43
673.60	677.86
673.94	673.29
674.28	669.24
674.62	665.12
674.96	659.79
675.30	655.64
675.64	650.76
675.97	646.90
676.31	641.57
676.65	637.31
676.99	633.81
677.33	629.19
677.67	625.62
678.01	620.64
678.34	616.55
678.68	612.83
679.02	608.12
679.36	603.67
679.70	598.86
680.04	594.98
680.37	591.02
680.71	586.81
681.05	582.52
681.39	578.12
681.73	573.33
682.06	569.43
682.40	565.67
682.74	562.33
683.08	558.67
683.42	554.10
683.75	550.52
684.09	545.81
684.43	541.81
684.77	537.74
685.10	534.31
685.44	530.36
685.78	526.05
686.12	522.71
686.45	519.38
686.79	515.33
687.13	511.79
687.46	508.10
687.80	505.07
688.14	501.45
688.48	498.40
688.81	494.76
689.15	492.12
689.49	488.33
689.82	485.19
690.16	481.05
690.50	478.10
690.83	474.19
691.17	470.88
691.51	467.90
691.84	464.71
692.18	461.33
692.52	458.07
692.85	455.45
693.19	453.31
693.52	449.90
693.86	447.21
694.20	444.31
694.53	441.76
694.87	438.67
695.21	435.26
695.54	432.10
695.88	428.69
696.21	425.10
696.55	422.62
696.88	419.57
697.22	416.50
697.56	413.98
697.89	411.69
698.23	409.33
698.56	406.64
698.90	404.48
699.23	401.93
699.57	399.48
699.90	396.40
700.24	393.36
700.58	391.21
700.91	389.14
701.25	388.50
701.58	386.86
701.92	385.00
702.25	383.21
702.59	381.10
702.92	379.43
703.26	377.57
703.59	375.67
703.93	375.45
704.26	373.88
704.60	372.17
704.93	370.10
705.26	367.90
705.60	366.62
705.93	364.17
706.27	363.02
706.60	361.60
706.94	361.05
707.27	359.17
707.61	357.33
707.94	355.45
708.27	351.95
708.61	349.50
708.94	347.31
709.28	345.76
709.61	343.93
709.94	342.40
710.28	340.60
710.61	338.71
710.95	335.02
711.28	334.86
711.61	333.29
711.95	332.31
712.28	330.60
712.61	328.60
712.95	328.33
713.28	327.38
713.61	326.07
713.95	323.83
714.28	322.57
714.61	321.29
714.95	320.00
715.28	318.43
715.61	317.12
715.95	315.93
716.28	314.45
716.61	313.64
716.95	312.02
717.28	310.55
717.61	309.38
717.94	308.36
718.28	305.36
718.61	304.05
718.94	302.33
719.27	301.12
719.61	300.29
719.94	298.74
720.27	296.64
720.60	294.98
720.94	293.88
721.27	293.12
721.60	292.48
721.93	291.40
722.27	291.38
722.60	290.45
722.93	289.19
723.26	288.69
723.59	287.48
723.93	287.05
724.26	286.64
724.59	285.67
724.92	285.00
725.25	284.81
725.59	283.86
725.92	283.38
726.25	282.93
726.58	282.07
726.91	281.10
727.24	280.60
727.57	280.05
727.91	279.26
728.24	278.43
728.57	276.95
728.90	276.57
729.23	275.21
729.56	275.45
729.89	274.86
730.22	273.88
730.55	272.83
730.89	272.02
731.22	270.95
731.55	270.33
731.88	269.83
732.21	268.95
732.54	268.14
732.87	267.50
733.20	267.14
733.53	266.52
733.86	266.05
734.19	265.36
734.52	265.00
734.85	265.48
735.18	264.79
735.51	265.29
735.84	264.64
736.17	264.55
736.50	262.98
736.83	264.74
737.16	264.24
737.49	264.24
737.82	263.55
738.15	263.40
738.48	262.74
738.81	261.95
739.14	261.19
739.47	260.57
739.80	260.05
740.13	259.45
740.46	258.36
740.79	257.69
741.12	257.19
741.45	256.55
741.78	255.24
742.11	255.36
742.44	254.17
742.77	254.02
743.10	253.26
743.43	252.83
743.75	250.43
744.08	252.55
744.41	251.71
744.74	251.33
745.07	250.50
745.40	250.62
745.73	251.05
746.06	250.69
746.39	250.48
746.71	249.64
747.04	248.81
747.37	248.62
747.70	248.57
748.03	248.33
748.36	248.05
748.68	247.52
749.01	246.29
749.34	245.95
749.67	245.45
750.00	245.45
750.33	246.52
750.65	246.33
750.98	243.50
751.31	243.33
751.64	243.07
751.97	244.10
752.29	243.45
752.62	242.21
752.95	241.83
753.28	241.43
753.60	241.26
753.93	241.76
754.26	241.74
754.59	240.74
754.91	240.31
755.24	239.83
755.57	239.45
755.90	239.14
756.22	238.90
756.55	238.31
756.88	237.52
757.20	235.79
757.53	234.98
757.86	234.62
758.19	234.38
758.51	234.12
758.84	232.57
759.17	232.43
759.49	232.31
759.82	233.00
760.15	233.07
760.47	232.69
760.80	231.83
761.13	231.74
761.45	231.81
761.78	231.55
762.11	231.19
762.43	230.88
762.76	230.60
763.08	230.48
763.41	230.29
763.74	230.26
764.06	230.43
764.39	230.31
764.71	230.00
765.04	229.67
765.37	229.14
765.69	229.21
766.02	228.76
766.34	228.64
766.67	227.67
767.00	227.93
767.32	228.95
767.65	229.98
767.97	229.62
768.30	229.36
768.62	229.14
768.95	229.19
769.27	228.88
769.60	229.31
769.92	228.83
770.25	228.21
770.57	227.57
770.90	227.26
771.22	226.98
771.55	227.05
771.87	227.19
772.20	227.02
772.52	228.36
772.85	230.60
773.17	230.31
773.50	230.43
773.82	229.69
774.15	228.57
774.47	227.05
774.80	226.90
775.12	226.81
775.45	226.79
775.77	226.55
776.09	226.81
776.42	226.52
776.74	227.14
777.07	227.26
777.39	227.45
777.72	227.10
778.04	227.40
778.36	227.00
778.69	226.86
779.01	227.36
779.33	225.64
779.66	223.43
779.98	223.29
780.31	223.02
780.63	223.98
780.95	224.29
781.28	224.33
781.60	224.10
781.92	224.07
782.25	223.88
782.57	223.76
782.89	223.43
783.22	223.17
783.54	222.57
783.86	222.69
784.19	222.50
784.51	223.00
784.83	222.45
785.16	222.38
