SpectraSuite Data File
++++++++++++++++++++++++++++++++++++
Date: Tue Apr 02 18:44:56 EDT 2013
User: group
Dark Spectrum Present: No
Reference Spectrum Present: No
Number of Sampled Component Spectra: 1
Spectrometers: USB2E7196
Integration Time (usec): 580000 (USB2E7196)
Spectra Averaged: 2 (USB2E7196)
Boxcar Smoothing: 10 (USB2E7196)
Correct for Electrical Dark: No (USB2E7196)
Strobe/Lamp Enabled: No (USB2E7196)
Correct for Detector Non-linearity: No (USB2E7196)
Correct for Stray Light: No (USB2E7196)
Number of Pixels in Processed Spectrum: 2048
>>>>>Begin Processed Spectral Data<<<<<
339.09	0.00
339.48	189.50
339.86	195.50
340.24	196.00
340.63	198.00
341.01	230.50
341.39	202.50
341.78	212.50
342.16	209.50
342.54	210.00
342.93	199.12
343.31	209.07
343.69	210.05
344.07	210.67
344.46	211.52
344.84	212.19
345.22	211.26
345.60	211.83
345.99	211.76
346.37	211.95
346.75	211.76
347.13	211.76
347.52	211.90
347.90	212.64
348.28	212.55
348.66	212.88
349.05	212.36
349.43	212.74
349.81	212.93
350.19	213.19
350.57	213.05
350.96	213.29
351.34	213.62
351.72	213.76
352.10	213.76
352.48	213.64
352.87	213.40
353.25	213.48
353.63	213.26
354.01	213.10
354.39	213.07
354.77	213.07
355.15	213.79
355.54	213.38
355.92	212.62
356.30	212.81
356.68	213.93
357.06	213.95
357.44	213.43
357.82	213.38
358.20	214.17
358.58	214.17
358.97	214.10
359.35	214.07
359.73	214.31
360.11	214.17
360.49	214.00
360.87	214.14
361.25	214.31
361.63	214.67
362.01	214.86
362.39	214.69
362.77	215.07
363.15	214.64
363.53	214.67
363.91	214.88
364.29	214.81
364.67	212.98
365.05	212.76
365.43	212.83
365.81	213.07
366.19	213.24
366.57	213.95
366.95	213.67
367.33	213.31
367.71	213.33
368.09	213.93
368.47	214.14
368.85	214.14
369.23	214.40
369.61	213.81
369.99	214.40
370.37	214.57
370.75	215.29
371.13	214.95
371.51	215.02
371.89	215.21
372.27	215.36
372.65	215.50
373.03	215.60
373.41	215.64
373.78	215.29
374.16	214.33
374.54	213.79
374.92	213.79
375.30	213.79
375.68	213.05
376.06	212.88
376.44	212.57
376.82	212.90
377.19	212.69
377.57	212.81
377.95	212.21
378.33	212.02
378.71	211.14
379.09	211.69
379.47	211.81
379.84	211.83
380.22	211.64
380.60	211.33
380.98	211.14
381.36	210.93
381.73	210.64
382.11	211.02
382.49	211.02
382.87	210.98
383.25	211.00
383.62	213.83
384.00	213.55
384.38	213.79
384.76	213.88
385.13	214.90
385.51	215.05
385.89	214.83
386.27	215.05
386.64	215.26
387.02	214.95
387.40	214.93
387.78	214.83
388.15	215.02
388.53	215.17
388.91	215.38
389.29	215.45
389.66	215.90
390.04	215.71
390.42	215.98
390.79	215.88
391.17	216.00
391.55	213.36
391.92	213.60
392.30	213.79
392.68	213.45
393.05	213.10
393.43	213.29
393.81	213.38
394.18	213.17
394.56	213.29
394.94	213.71
395.31	213.45
395.69	214.07
396.06	214.19
396.44	214.40
396.82	214.21
397.19	215.33
397.57	215.17
397.95	215.50
398.32	215.12
398.70	215.45
399.07	215.83
399.45	215.86
399.82	215.74
400.20	215.60
400.58	215.48
400.95	214.90
401.33	215.00
401.70	216.64
402.08	216.74
402.45	216.76
402.83	217.05
403.20	217.38
403.58	217.12
403.95	217.48
404.33	217.69
404.71	218.19
405.08	219.38
405.46	220.02
405.83	220.17
406.21	220.69
406.58	221.12
406.96	221.45
407.33	222.36
407.70	223.31
408.08	225.67
408.45	226.76
408.83	227.74
409.20	228.29
409.58	227.86
409.95	229.14
410.33	229.74
410.70	230.19
411.08	231.31
411.45	232.48
411.82	233.29
412.20	235.05
412.57	237.57
412.95	237.05
413.32	238.57
413.69	240.21
414.07	241.69
414.44	243.48
414.82	245.43
415.19	247.33
415.56	249.40
415.94	250.48
416.31	253.29
416.68	255.88
417.06	259.52
417.43	263.21
417.81	266.52
418.18	270.52
418.55	274.36
418.93	278.50
419.30	282.50
419.67	287.10
420.04	291.55
420.42	295.98
420.79	303.10
421.16	308.57
421.54	315.10
421.91	321.31
422.28	327.48
422.66	334.02
423.03	342.48
423.40	349.29
423.77	356.14
424.15	363.07
424.52	370.55
424.89	378.74
425.26	386.48
425.64	393.86
426.01	402.29
426.38	411.19
426.75	420.21
427.13	429.45
427.50	438.90
427.87	448.38
428.24	458.10
428.61	466.57
428.99	478.00
429.36	488.64
429.73	499.69
430.10	510.62
430.47	522.31
430.85	532.88
431.22	545.33
431.59	560.00
431.96	573.14
432.33	587.83
432.70	601.52
433.08	616.52
433.45	631.62
433.82	646.86
434.19	663.14
434.56	679.98
434.93	696.00
435.30	711.83
435.68	728.79
436.05	746.19
436.42	763.24
436.79	779.07
437.16	796.02
437.53	814.60
437.90	832.71
438.27	850.74
438.64	868.19
439.01	885.10
439.38	898.74
439.75	912.74
440.13	929.38
440.50	944.79
440.87	958.02
441.24	971.38
441.61	985.48
441.98	996.69
442.35	1008.71
442.72	1021.57
443.09	1035.10
443.46	1043.29
443.83	1048.52
444.20	1052.93
444.57	1058.31
444.94	1061.17
445.31	1064.07
445.68	1070.17
446.05	1072.00
446.42	1071.33
446.79	1070.38
447.16	1068.90
447.53	1068.26
447.90	1061.86
448.27	1054.76
448.64	1046.62
449.01	1040.19
449.37	1028.95
449.74	1017.48
450.11	1006.62
450.48	992.17
450.85	976.26
451.22	963.83
451.59	951.90
451.96	940.71
452.33	925.50
452.70	911.88
453.07	894.24
453.43	874.33
453.80	857.00
454.17	840.90
454.54	825.24
454.91	809.00
455.28	792.62
455.65	777.62
456.02	767.10
456.38	754.02
456.75	739.00
457.12	726.29
457.49	714.26
457.86	700.07
458.23	689.86
458.59	678.67
458.96	666.90
459.33	655.86
459.70	645.76
460.07	637.38
460.43	627.60
460.80	619.57
461.17	612.21
461.54	604.07
461.91	596.07
462.27	588.02
462.64	580.90
463.01	574.02
463.38	567.31
463.74	556.64
464.11	550.43
464.48	544.88
464.85	538.48
465.21	534.17
465.58	529.07
465.95	522.40
466.32	517.21
466.68	511.79
467.05	506.88
467.42	501.31
467.78	496.05
468.15	491.19
468.52	487.81
468.88	482.29
469.25	477.62
469.62	474.43
469.98	470.38
470.35	467.17
470.72	463.33
471.08	458.64
471.45	455.60
471.82	452.90
472.18	449.38
472.55	447.14
472.92	443.17
473.28	439.74
473.65	437.14
474.02	434.86
474.38	433.07
474.75	431.31
475.11	429.21
475.48	427.36
475.85	425.95
476.21	423.88
476.58	422.52
476.94	421.26
477.31	419.48
477.67	418.48
478.04	416.98
478.41	416.33
478.77	417.93
479.14	416.76
479.50	415.95
479.87	415.69
480.23	415.40
480.60	415.12
480.96	414.74
481.33	415.26
481.69	414.71
482.06	414.90
482.42	415.48
482.79	416.14
483.15	416.67
483.52	417.62
483.88	417.90
484.25	419.00
484.61	420.17
484.98	421.31
485.34	423.29
485.71	425.24
486.07	426.38
486.44	426.05
486.80	427.90
487.17	429.31
487.53	431.50
487.90	433.76
488.26	436.93
488.62	440.21
488.99	442.12
489.35	444.64
489.72	446.98
490.08	448.90
490.44	450.98
490.81	454.17
491.17	457.17
491.54	460.83
491.90	464.21
492.26	467.76
492.63	471.60
492.99	474.48
493.36	478.50
493.72	483.24
494.08	487.57
494.45	492.40
494.81	497.36
495.17	501.83
495.54	506.52
495.90	511.10
496.26	515.88
496.63	521.05
496.99	526.24
497.35	531.71
497.72	537.93
498.08	544.48
498.44	550.38
498.80	556.62
499.17	562.52
499.53	568.76
499.89	575.43
500.26	582.10
500.62	588.83
500.98	596.02
501.34	602.76
501.71	610.14
502.07	617.31
502.43	624.14
502.79	631.07
503.16	638.10
503.52	645.02
503.88	652.12
504.24	659.57
504.60	667.69
504.97	675.76
505.33	683.10
505.69	691.21
506.05	699.40
506.41	706.98
506.78	714.74
507.14	722.50
507.50	730.38
507.86	738.24
508.22	746.21
508.59	752.88
508.95	760.74
509.31	769.10
509.67	776.38
510.03	784.12
510.39	792.10
510.75	799.79
511.12	807.60
511.48	815.17
511.84	823.19
512.20	830.67
512.56	838.12
512.92	846.00
513.28	853.79
513.64	860.98
514.00	868.10
514.37	875.24
514.73	882.24
515.09	889.67
515.45	896.64
515.81	903.38
516.17	910.74
516.53	917.10
516.89	922.86
517.25	929.38
517.61	936.45
517.97	942.52
518.33	949.38
518.69	956.31
519.05	963.00
519.41	969.05
519.77	976.21
520.13	982.50
520.49	987.38
520.85	992.43
521.21	999.24
521.57	1005.10
521.93	1010.07
522.29	1015.79
522.65	1020.48
523.01	1025.74
523.37	1030.86
523.73	1035.90
524.09	1041.17
524.45	1045.90
524.81	1050.90
525.17	1055.31
525.53	1060.36
525.89	1065.02
526.25	1068.93
526.61	1072.71
526.97	1076.62
527.33	1080.81
527.68	1086.31
528.04	1090.93
528.40	1094.60
528.76	1097.50
529.12	1101.43
529.48	1106.95
529.84	1111.38
530.20	1115.71
530.56	1119.29
530.91	1123.95
531.27	1128.38
531.63	1132.55
531.99	1136.93
532.35	1140.55
532.71	1144.45
533.07	1148.76
533.42	1154.50
533.78	1159.00
534.14	1163.93
534.50	1168.45
534.86	1172.74
535.21	1174.90
535.57	1179.48
535.93	1184.12
536.29	1189.00
536.65	1193.45
537.00	1196.02
537.36	1199.33
537.72	1202.57
538.08	1206.93
538.44	1210.02
538.79	1214.36
539.15	1217.29
539.51	1220.40
539.87	1223.95
540.22	1227.38
540.58	1230.74
540.94	1231.64
541.29	1234.21
541.65	1236.52
542.01	1239.14
542.37	1240.83
542.72	1243.50
543.08	1245.62
543.44	1247.71
543.79	1248.60
544.15	1250.95
544.51	1254.31
544.87	1257.64
545.22	1261.38
545.58	1264.00
545.94	1266.38
546.29	1268.45
546.65	1271.55
547.01	1274.12
547.36	1277.14
547.72	1280.07
548.07	1282.26
548.43	1284.38
548.79	1286.90
549.14	1290.17
549.50	1292.24
549.86	1294.67
550.21	1297.95
550.57	1301.36
550.92	1304.02
551.28	1308.05
551.64	1311.10
551.99	1314.62
552.35	1317.12
552.70	1319.19
553.06	1321.67
553.41	1324.95
553.77	1329.12
554.13	1332.76
554.48	1336.79
554.84	1340.79
555.19	1343.57
555.55	1348.26
555.90	1352.17
556.26	1356.02
556.61	1359.14
556.97	1363.40
557.32	1367.00
557.68	1371.19
558.03	1374.93
558.39	1379.12
558.74	1382.45
559.10	1385.74
559.45	1389.55
559.81	1393.67
560.16	1397.64
560.52	1402.50
560.87	1407.64
561.23	1410.17
561.58	1415.52
561.94	1419.76
562.29	1424.19
562.64	1429.76
563.00	1433.67
563.35	1438.93
563.71	1443.14
564.06	1447.64
564.42	1453.02
564.77	1460.07
565.12	1466.00
565.48	1473.29
565.83	1479.69
566.19	1486.74
566.54	1492.83
566.89	1498.71
567.25	1505.21
567.60	1512.69
567.96	1520.05
568.31	1526.67
568.66	1533.62
569.02	1537.95
569.37	1542.38
569.72	1547.60
570.08	1551.95
570.43	1556.40
570.78	1561.69
571.14	1568.52
571.49	1574.57
571.84	1580.43
572.20	1584.19
572.55	1588.17
572.90	1591.12
573.26	1595.71
573.61	1598.79
573.96	1603.36
574.31	1607.19
574.67	1609.93
575.02	1613.02
575.37	1615.14
575.72	1617.26
576.08	1621.07
576.43	1624.50
576.78	1629.40
577.13	1632.74
577.49	1637.69
577.84	1643.52
578.19	1647.24
578.54	1650.64
578.90	1654.90
579.25	1658.12
579.60	1660.86
579.95	1664.33
580.30	1667.83
580.66	1670.02
581.01	1673.81
581.36	1676.62
581.71	1679.98
582.06	1685.02
582.42	1689.38
582.77	1692.86
583.12	1697.19
583.47	1700.24
583.82	1704.76
584.17	1707.86
584.53	1712.40
584.88	1714.38
585.23	1717.10
585.58	1720.33
585.93	1722.86
586.28	1725.31
586.63	1728.60
586.98	1731.74
587.34	1735.64
587.69	1738.45
588.04	1742.02
588.39	1744.55
588.74	1746.48
589.09	1748.81
589.44	1749.14
589.79	1750.02
590.14	1752.93
590.49	1753.76
590.84	1754.62
591.19	1756.05
591.54	1758.50
591.89	1758.79
592.25	1762.50
592.60	1762.69
592.95	1764.17
593.30	1766.21
593.65	1767.45
594.00	1766.95
594.35	1774.83
594.70	1774.00
595.05	1775.19
595.40	1775.24
595.75	1775.67
596.10	1777.45
596.45	1778.79
596.80	1780.95
597.15	1781.62
597.50	1781.36
597.85	1782.64
598.19	1783.38
598.54	1783.98
598.89	1783.52
599.24	1784.40
599.59	1784.21
599.94	1784.05
600.29	1783.71
600.64	1783.19
600.99	1784.17
601.34	1785.71
601.69	1779.71
602.04	1779.55
602.39	1778.88
602.74	1780.10
603.08	1779.60
603.43	1780.24
603.78	1779.76
604.13	1778.64
604.48	1777.40
604.83	1777.29
605.18	1776.98
605.53	1777.12
605.87	1775.93
606.22	1774.62
606.57	1773.55
606.92	1771.38
607.27	1770.90
607.62	1770.26
607.96	1769.98
608.31	1767.95
608.66	1766.26
609.01	1764.12
609.36	1763.19
609.70	1761.60
610.05	1758.36
610.40	1757.45
610.75	1755.24
611.10	1752.98
611.44	1751.00
611.79	1749.83
612.14	1747.45
612.49	1744.07
612.83	1741.02
613.18	1738.52
613.53	1736.17
613.88	1733.10
614.22	1729.74
614.57	1726.50
614.92	1723.14
615.27	1718.93
615.61	1714.31
615.96	1710.29
616.31	1706.90
616.65	1704.64
617.00	1702.40
617.35	1700.98
617.70	1697.74
618.04	1693.55
618.39	1689.50
618.74	1686.02
619.08	1681.64
619.43	1678.05
619.78	1674.95
620.12	1672.29
620.47	1668.90
620.82	1665.14
621.16	1660.98
621.51	1658.69
621.85	1654.60
622.20	1650.67
622.55	1646.52
622.89	1643.98
623.24	1640.81
623.59	1636.81
623.93	1631.90
624.28	1627.02
624.62	1623.81
624.97	1620.62
625.32	1617.05
625.66	1613.10
626.01	1609.00
626.35	1606.19
626.70	1602.02
627.04	1598.67
627.39	1593.71
627.73	1590.57
628.08	1587.45
628.43	1584.14
628.77	1578.62
629.12	1575.98
629.46	1572.24
629.81	1569.05
630.15	1564.29
630.50	1558.83
630.84	1554.95
631.19	1549.83
631.53	1545.10
631.88	1537.45
632.22	1530.98
632.57	1526.50
632.91	1521.69
633.26	1516.88
633.60	1511.95
633.95	1506.90
634.29	1501.50
634.64	1497.05
634.98	1490.67
635.32	1486.83
635.67	1483.07
636.01	1479.00
636.36	1473.50
636.70	1469.02
637.05	1463.60
637.39	1459.55
637.73	1456.43
638.08	1452.88
638.42	1449.67
638.77	1445.36
639.11	1441.83
639.45	1437.48
639.80	1432.33
640.14	1428.93
640.49	1424.40
640.83	1418.83
641.17	1414.86
641.52	1409.86
641.86	1405.00
642.20	1401.40
642.55	1394.67
642.89	1388.43
643.23	1383.83
643.58	1379.05
643.92	1372.79
644.26	1368.07
644.61	1362.40
644.95	1356.81
645.29	1350.26
645.64	1344.79
645.98	1338.98
646.32	1333.88
646.66	1328.12
647.01	1322.21
647.35	1315.43
647.69	1309.67
648.04	1304.83
648.38	1298.76
648.72	1293.45
649.06	1287.69
649.41	1281.48
649.75	1275.19
650.09	1269.40
650.43	1262.33
650.78	1256.07
651.12	1249.83
651.46	1243.00
651.80	1237.45
652.14	1231.12
652.49	1225.64
652.83	1219.38
653.17	1213.36
653.51	1206.98
653.85	1201.43
654.20	1195.40
654.54	1189.64
654.88	1182.48
655.22	1175.98
655.56	1169.36
655.90	1162.45
656.25	1155.90
656.59	1149.17
656.93	1143.48
657.27	1138.33
657.61	1132.14
657.95	1126.26
658.29	1121.07
658.64	1115.74
658.98	1108.45
659.32	1101.86
659.66	1094.90
660.00	1087.76
660.34	1081.02
660.68	1074.07
661.02	1067.86
661.36	1061.24
661.70	1055.07
662.05	1049.86
662.39	1043.90
662.73	1038.21
663.07	1033.57
663.41	1027.26
663.75	1020.76
664.09	1014.74
664.43	1007.31
664.77	1001.86
665.11	995.33
665.45	989.14
665.79	982.90
666.13	976.98
666.47	971.19
666.81	965.45
667.15	959.86
667.49	954.93
667.83	950.40
668.17	944.10
668.51	938.74
668.85	933.00
669.19	928.02
669.53	922.02
669.87	915.62
670.21	909.31
670.55	903.62
670.89	898.90
671.23	893.10
671.57	887.57
671.91	881.86
672.25	876.64
672.58	871.79
672.92	865.64
673.26	860.81
673.60	855.71
673.94	850.52
674.28	845.50
674.62	840.50
674.96	834.57
675.30	830.05
675.64	825.29
675.97	820.19
676.31	814.79
676.65	809.74
676.99	805.95
677.33	800.62
677.67	796.24
678.01	790.90
678.34	786.64
678.68	782.67
679.02	777.40
679.36	772.60
679.70	767.26
680.04	763.07
680.37	757.55
680.71	752.93
681.05	747.98
681.39	743.12
681.73	737.48
682.06	732.76
682.40	728.05
682.74	723.19
683.08	719.10
683.42	713.74
683.75	709.02
684.09	703.31
684.43	698.45
684.77	693.64
685.10	688.90
685.44	683.98
685.78	678.71
686.12	674.60
686.45	669.50
686.79	664.76
687.13	660.45
687.46	656.24
687.80	651.55
688.14	647.48
688.48	643.31
688.81	639.12
689.15	635.50
689.49	630.95
689.82	626.24
690.16	621.29
690.50	617.29
690.83	612.71
691.17	608.69
691.51	604.69
691.84	600.36
692.18	595.95
692.52	591.79
692.85	588.33
693.19	584.90
693.52	581.07
693.86	576.43
694.20	572.45
694.53	568.71
694.87	564.86
695.21	560.12
695.54	556.29
695.88	552.14
696.21	547.48
696.55	543.26
696.88	540.21
697.22	535.93
697.56	532.40
697.89	529.14
698.23	525.43
698.56	521.50
698.90	518.29
699.23	514.60
699.57	510.98
699.90	507.07
700.24	503.12
700.58	499.86
700.91	497.17
701.25	495.19
701.58	492.71
701.92	489.98
702.25	486.88
702.59	483.45
702.92	480.67
703.26	477.64
703.59	474.81
703.93	472.71
704.26	470.55
704.60	467.64
704.93	464.29
705.26	461.10
705.60	458.38
705.93	454.79
706.27	452.52
706.60	450.02
706.94	447.90
707.27	444.86
707.61	441.86
707.94	439.05
708.27	434.43
708.61	430.83
708.94	427.71
709.28	425.62
709.61	422.62
709.94	420.14
710.28	417.26
710.61	414.98
710.95	410.98
711.28	409.71
711.61	407.05
711.95	405.05
712.28	403.19
712.61	400.95
712.95	399.88
713.28	398.43
713.61	396.07
713.95	393.19
714.28	390.95
714.61	388.74
714.95	386.52
715.28	384.60
715.61	382.36
715.95	380.24
716.28	378.40
716.61	376.76
716.95	374.12
717.28	372.36
717.61	370.05
717.94	367.95
718.28	364.24
718.61	362.24
718.94	360.19
719.27	357.95
719.61	356.33
719.94	354.05
720.27	351.12
720.60	349.00
720.94	347.31
721.27	346.07
721.60	344.98
721.93	343.43
722.27	342.64
722.60	341.26
722.93	339.52
723.26	337.31
723.59	335.52
723.93	334.62
724.26	333.45
724.59	331.79
724.92	330.76
725.25	330.21
725.59	329.14
725.92	327.81
726.25	326.36
726.58	324.79
726.91	323.38
727.24	322.45
727.57	321.45
727.91	319.67
728.24	318.50
728.57	316.90
728.90	315.60
729.23	313.57
729.56	313.48
729.89	312.67
730.22	311.71
730.55	310.64
730.89	309.52
731.22	307.98
731.55	307.33
731.88	306.05
732.21	304.48
732.54	303.12
732.87	302.21
733.20	301.40
733.53	300.40
733.86	299.43
734.19	297.88
734.52	296.86
734.85	297.52
735.18	296.38
735.51	296.17
735.84	295.79
736.17	295.40
736.50	293.83
736.83	295.14
737.16	294.40
737.49	293.81
737.82	293.02
738.15	292.48
738.48	291.50
738.81	290.52
739.14	289.43
739.47	288.50
739.80	287.69
740.13	287.00
740.46	286.00
740.79	284.88
741.12	284.40
741.45	283.62
741.78	281.74
742.11	281.14
742.44	279.90
742.77	279.38
743.10	278.14
743.43	277.07
743.75	274.21
744.08	276.10
744.41	275.00
744.74	274.02
745.07	272.86
745.40	272.50
745.73	272.95
746.06	272.57
746.39	272.00
746.71	271.21
747.04	270.48
747.37	270.12
747.70	269.74
748.03	269.17
748.36	268.81
748.68	268.07
749.01	266.76
749.34	266.05
749.67	265.31
750.00	265.24
750.33	266.02
750.65	265.36
750.98	262.19
751.31	261.76
751.64	261.38
751.97	262.26
752.29	261.62
752.62	259.95
752.95	259.29
753.28	258.64
753.60	257.83
753.93	257.86
754.26	257.26
754.59	256.40
754.91	255.57
755.24	254.57
755.57	254.00
755.90	253.74
756.22	253.00
756.55	252.33
756.88	251.26
757.20	249.55
757.53	248.55
757.86	247.74
758.19	247.48
758.51	246.98
758.84	245.36
759.17	244.45
759.49	244.12
759.82	244.60
760.15	244.29
760.47	243.95
760.80	242.90
761.13	242.83
761.45	242.36
761.78	242.00
762.11	241.81
762.43	241.60
762.76	241.14
763.08	241.31
763.41	240.93
763.74	240.60
764.06	240.14
764.39	239.95
764.71	239.81
765.04	238.93
765.37	238.43
765.69	238.02
766.02	237.74
766.34	237.40
766.67	236.14
767.00	236.24
767.32	236.98
767.65	237.83
767.97	237.29
768.30	237.12
768.62	236.76
768.95	236.33
769.27	235.90
769.60	236.17
769.92	235.26
770.25	234.57
770.57	234.05
770.90	233.69
771.22	233.21
771.55	233.00
771.87	232.95
772.20	232.60
772.52	233.88
772.85	236.31
773.17	236.02
773.50	236.02
773.82	235.36
774.15	234.14
774.47	232.52
774.80	232.12
775.12	231.79
775.45	231.64
775.77	231.60
776.09	231.57
776.42	231.10
776.74	231.69
777.07	231.38
777.39	231.33
777.72	231.05
778.04	231.33
778.36	230.93
778.69	230.86
779.01	231.02
779.33	229.33
779.66	226.71
779.98	226.40
780.31	226.17
780.63	226.90
780.95	227.07
781.28	227.00
781.60	227.00
781.92	226.79
782.25	226.79
782.57	226.40
782.89	225.88
783.22	225.69
783.54	225.12
783.86	225.21
784.19	224.90
784.51	225.48
784.83	225.00
785.16	224.81
