SpectraSuite Data File
++++++++++++++++++++++++++++++++++++
Date: Tue Apr 02 18:39:57 EDT 2013
User: group
Dark Spectrum Present: No
Reference Spectrum Present: No
Number of Sampled Component Spectra: 1
Spectrometers: USB2E7196
Integration Time (usec): 580000 (USB2E7196)
Spectra Averaged: 2 (USB2E7196)
Boxcar Smoothing: 10 (USB2E7196)
Correct for Electrical Dark: No (USB2E7196)
Strobe/Lamp Enabled: No (USB2E7196)
Correct for Detector Non-linearity: No (USB2E7196)
Correct for Stray Light: No (USB2E7196)
Number of Pixels in Processed Spectrum: 2048
>>>>>Begin Processed Spectral Data<<<<<
339.09	0.00
339.48	189.50
339.86	192.50
340.24	196.50
340.63	196.00
341.01	229.50
341.39	198.50
341.78	205.50
342.16	210.00
342.54	205.00
342.93	196.38
343.31	206.17
343.69	206.83
344.07	207.55
344.46	208.38
344.84	208.98
345.22	207.95
345.60	208.48
345.99	208.60
346.37	208.50
346.75	208.67
347.13	208.71
347.52	208.83
347.90	209.76
348.28	209.67
348.66	210.40
349.05	209.79
349.43	209.98
349.81	210.29
350.19	210.45
350.57	210.71
350.96	211.10
351.34	211.31
351.72	211.40
352.10	211.48
352.48	211.24
352.87	211.29
353.25	211.40
353.63	211.29
354.01	211.17
354.39	211.33
354.77	211.48
355.15	211.95
355.54	211.86
355.92	211.00
356.30	211.12
356.68	212.40
357.06	212.83
357.44	212.67
357.82	212.69
358.20	213.55
358.58	213.64
358.97	213.55
359.35	213.90
359.73	214.69
360.11	214.76
360.49	214.88
360.87	215.07
361.25	215.36
361.63	216.29
362.01	216.74
362.39	216.62
362.77	216.86
363.15	216.98
363.53	217.12
363.91	217.29
364.29	217.45
364.67	215.62
365.05	215.69
365.43	215.88
365.81	216.40
366.19	216.64
366.57	217.45
366.95	217.45
367.33	217.33
367.71	217.26
368.09	217.81
368.47	217.86
368.85	217.62
369.23	218.14
369.61	217.43
369.99	217.98
370.37	218.29
370.75	219.10
371.13	218.50
371.51	218.07
371.89	218.52
372.27	218.48
372.65	218.76
373.03	218.67
373.41	218.69
373.78	218.40
374.16	217.55
374.54	216.98
374.92	216.90
375.30	216.62
375.68	216.07
376.06	215.79
376.44	215.57
376.82	216.00
377.19	215.74
377.57	215.67
377.95	215.05
378.33	215.07
378.71	214.14
379.09	214.50
379.47	214.90
379.84	214.67
380.22	214.67
380.60	214.17
380.98	214.02
381.36	213.86
381.73	213.69
382.11	213.93
382.49	213.88
382.87	213.71
383.25	213.95
383.62	216.26
384.00	216.00
384.38	216.21
384.76	216.38
385.13	216.90
385.51	216.79
385.89	216.60
386.27	216.48
386.64	216.43
387.02	216.19
387.40	216.00
387.78	215.74
388.15	215.62
388.53	215.55
388.91	215.67
389.29	215.74
389.66	215.95
390.04	215.76
390.42	216.14
390.79	216.24
391.17	215.98
391.55	213.86
391.92	213.83
392.30	214.05
392.68	213.67
393.05	213.74
393.43	214.00
393.81	214.05
394.18	214.05
394.56	213.93
394.94	214.50
395.31	214.29
395.69	215.07
396.06	215.50
396.44	215.48
396.82	215.26
397.19	215.98
397.57	215.83
397.95	215.88
398.32	215.07
398.70	215.24
399.07	215.98
399.45	215.93
399.82	216.07
400.20	215.76
400.58	215.90
400.95	214.88
401.33	215.24
401.70	216.83
402.08	216.76
402.45	216.88
402.83	217.43
403.20	217.76
403.58	217.50
403.95	217.83
404.33	218.60
404.71	219.10
405.08	220.40
405.46	220.64
405.83	221.33
406.21	221.93
406.58	222.14
406.96	222.24
407.33	222.86
407.70	223.64
408.08	226.02
408.45	226.69
408.83	227.88
409.20	228.60
409.58	228.26
409.95	229.62
410.33	230.88
410.70	231.29
411.08	232.40
411.45	233.69
411.82	234.74
412.20	236.50
412.57	238.93
412.95	238.71
413.32	240.71
413.69	242.29
414.07	243.90
414.44	245.88
414.82	248.05
415.19	250.31
415.56	252.74
415.94	254.26
416.31	257.38
416.68	260.24
417.06	263.79
417.43	267.24
417.81	270.81
418.18	274.74
418.55	278.60
418.93	283.19
419.30	287.55
419.67	292.10
420.04	296.55
420.42	300.88
420.79	308.26
421.16	314.00
421.54	321.43
421.91	328.52
422.28	335.21
422.66	342.26
423.03	350.62
423.40	358.02
423.77	365.55
424.15	373.17
424.52	381.31
424.89	390.14
425.26	398.81
425.64	407.05
426.01	415.79
426.38	425.21
426.75	435.60
427.13	446.14
427.50	456.43
427.87	467.24
428.24	478.21
428.61	487.83
428.99	499.95
429.36	511.55
429.73	523.74
430.10	536.69
430.47	549.52
430.85	561.60
431.22	575.43
431.59	591.17
431.96	604.90
432.33	620.88
432.70	635.83
433.08	653.26
433.45	669.79
433.82	685.90
434.19	704.05
434.56	722.02
434.93	738.21
435.30	755.74
435.68	775.38
436.05	794.36
436.42	812.57
436.79	830.38
437.16	848.26
437.53	867.05
437.90	886.00
438.27	905.43
438.64	925.45
439.01	944.24
439.38	959.57
439.75	976.21
440.13	993.76
440.50	1011.05
440.87	1024.95
441.24	1040.10
441.61	1056.95
441.98	1069.57
442.35	1082.33
442.72	1097.02
443.09	1111.43
443.46	1119.83
443.83	1126.12
444.20	1131.26
444.57	1137.26
444.94	1141.26
445.31	1145.69
445.68	1151.69
446.05	1152.57
446.42	1151.40
446.79	1149.05
447.16	1146.93
447.53	1145.40
447.90	1138.76
448.27	1131.36
448.64	1121.95
449.01	1114.81
449.37	1102.36
449.74	1090.05
450.11	1077.74
450.48	1061.55
450.85	1044.21
451.22	1030.21
451.59	1017.02
451.96	1004.33
452.33	987.48
452.70	971.93
453.07	953.69
453.43	933.10
453.80	915.90
454.17	898.17
454.54	882.12
454.91	864.36
455.28	846.76
455.65	830.31
456.02	817.71
456.38	803.64
456.75	786.36
457.12	771.93
457.49	757.95
457.86	742.24
458.23	731.40
458.59	718.76
458.96	705.52
459.33	693.02
459.70	681.81
460.07	672.76
460.43	662.31
460.80	652.40
461.17	643.83
461.54	634.50
461.91	625.36
462.27	616.31
462.64	608.98
463.01	601.10
463.38	593.86
463.74	582.67
464.11	575.48
464.48	569.64
464.85	562.64
465.21	557.98
465.58	553.07
465.95	545.48
466.32	540.48
466.68	534.86
467.05	529.88
467.42	524.36
467.78	518.48
468.15	513.31
468.52	508.95
468.88	502.74
469.25	497.74
469.62	493.90
469.98	489.52
470.35	485.62
470.72	481.98
471.08	477.21
471.45	473.98
471.82	470.93
472.18	467.17
472.55	464.79
472.92	460.62
473.28	457.36
473.65	454.81
474.02	451.57
474.38	449.21
474.75	446.79
475.11	443.95
475.48	442.29
475.85	440.40
476.21	438.60
476.58	437.55
476.94	436.31
477.31	434.93
477.67	433.76
478.04	432.48
478.41	431.52
478.77	433.00
479.14	431.64
479.50	431.10
479.87	430.45
480.23	429.71
480.60	429.50
480.96	429.36
481.33	429.98
481.69	430.38
482.06	430.74
482.42	431.19
482.79	432.26
483.15	432.76
483.52	433.76
483.88	434.21
484.25	434.60
484.61	435.62
484.98	436.86
485.34	438.88
485.71	440.95
486.07	442.26
486.44	442.19
486.80	444.48
487.17	445.93
487.53	448.60
487.90	451.21
488.26	454.12
488.62	457.07
488.99	459.24
489.35	462.12
489.72	465.05
490.08	467.57
490.44	470.05
490.81	473.69
491.17	476.55
491.54	480.67
491.90	484.67
492.26	488.38
492.63	492.50
492.99	495.79
493.36	499.67
493.72	504.45
494.08	509.02
494.45	514.29
494.81	519.79
495.17	524.52
495.54	530.05
495.90	535.05
496.26	539.81
496.63	546.12
496.99	551.60
497.35	557.29
497.72	564.14
498.08	570.79
498.44	576.98
498.80	583.74
499.17	590.43
499.53	597.33
499.89	605.31
500.26	612.57
500.62	619.93
500.98	628.19
501.34	635.76
501.71	643.88
502.07	650.81
502.43	658.05
502.79	666.12
503.16	674.38
503.52	682.90
503.88	691.48
504.24	699.40
504.60	707.67
504.97	716.45
505.33	725.05
505.69	734.55
506.05	743.12
506.41	752.21
506.78	760.38
507.14	768.67
507.50	776.93
507.86	785.69
508.22	794.69
508.59	802.81
508.95	811.76
509.31	821.90
509.67	831.29
510.03	840.67
510.39	849.17
510.75	857.69
511.12	866.19
511.48	875.00
511.84	883.69
512.20	893.05
512.56	901.45
512.92	909.98
513.28	918.24
513.64	927.00
514.00	935.50
514.37	944.36
514.73	953.43
515.09	962.36
515.45	970.69
515.81	978.69
516.17	986.57
516.53	993.67
516.89	999.88
517.25	1007.00
517.61	1014.62
517.97	1022.00
518.33	1029.52
518.69	1037.52
519.05	1045.26
519.41	1052.36
519.77	1060.50
520.13	1067.67
520.49	1074.52
520.85	1081.76
521.21	1089.67
521.57	1096.74
521.93	1103.43
522.29	1110.43
522.65	1116.71
523.01	1123.10
523.37	1130.19
523.73	1136.62
524.09	1143.48
524.45	1149.43
524.81	1155.86
525.17	1162.60
525.53	1168.83
525.89	1174.33
526.25	1179.93
526.61	1185.31
526.97	1191.62
527.33	1196.67
527.68	1204.14
528.04	1209.86
528.40	1214.48
528.76	1218.95
529.12	1224.02
529.48	1230.26
529.84	1235.14
530.20	1240.43
530.56	1245.98
530.91	1250.98
531.27	1256.64
531.63	1262.43
531.99	1268.02
532.35	1272.95
532.71	1278.02
533.07	1284.31
533.42	1292.00
533.78	1297.36
534.14	1303.48
534.50	1308.50
534.86	1314.02
535.21	1317.98
535.57	1324.24
535.93	1329.40
536.29	1336.07
536.65	1341.69
537.00	1346.40
537.36	1351.81
537.72	1355.74
538.08	1360.93
538.44	1365.05
538.79	1370.52
539.15	1375.31
539.51	1379.93
539.87	1384.90
540.22	1389.14
540.58	1393.19
540.94	1396.12
541.29	1400.40
541.65	1403.60
542.01	1407.31
542.37	1410.55
542.72	1413.69
543.08	1416.10
543.44	1420.52
543.79	1422.12
544.15	1425.57
544.51	1430.02
544.87	1434.10
545.22	1438.07
545.58	1441.45
545.94	1445.07
546.29	1448.33
546.65	1451.40
547.01	1454.57
547.36	1458.69
547.72	1462.43
548.07	1466.33
548.43	1469.76
548.79	1473.40
549.14	1477.05
549.50	1481.55
549.86	1485.62
550.21	1490.45
550.57	1495.26
550.92	1498.05
551.28	1502.64
551.64	1506.10
551.99	1509.50
552.35	1512.50
552.70	1516.76
553.06	1520.98
553.41	1525.83
553.77	1530.69
554.13	1534.79
554.48	1540.07
554.84	1544.69
555.19	1549.36
555.55	1554.24
555.90	1558.02
556.26	1562.12
556.61	1566.62
556.97	1569.88
557.32	1573.40
557.68	1576.98
558.03	1580.71
558.39	1585.45
558.74	1590.14
559.10	1594.95
559.45	1598.88
559.81	1603.88
560.16	1607.81
560.52	1611.83
560.87	1616.48
561.23	1619.74
561.58	1626.48
561.94	1630.64
562.29	1634.02
562.64	1638.36
563.00	1641.86
563.35	1646.24
563.71	1651.57
564.06	1656.43
564.42	1661.17
564.77	1666.33
565.12	1672.50
565.48	1679.24
565.83	1684.24
566.19	1689.52
566.54	1694.36
566.89	1699.24
567.25	1704.69
567.60	1711.43
567.96	1719.07
568.31	1725.10
568.66	1730.38
569.02	1732.45
569.37	1735.98
569.72	1741.57
570.08	1746.19
570.43	1750.83
570.78	1756.21
571.14	1759.38
571.49	1763.60
571.84	1768.26
572.20	1771.69
572.55	1774.64
572.90	1775.98
573.26	1779.48
573.61	1782.05
573.96	1784.98
574.31	1788.26
574.67	1790.88
575.02	1792.36
575.37	1791.88
575.72	1792.21
576.08	1794.60
576.43	1797.24
576.78	1800.12
577.13	1801.00
577.49	1802.14
577.84	1804.29
578.19	1805.31
578.54	1807.90
578.90	1809.48
579.25	1811.26
579.60	1812.48
579.95	1812.95
580.30	1814.76
580.66	1815.88
581.01	1816.79
581.36	1817.45
581.71	1818.19
582.06	1820.19
582.42	1821.10
582.77	1821.83
583.12	1823.38
583.47	1823.81
583.82	1824.52
584.17	1824.76
584.53	1825.64
584.88	1826.00
585.23	1826.26
585.58	1826.00
585.93	1825.33
586.28	1824.79
586.63	1824.79
586.98	1825.76
587.34	1826.29
587.69	1825.60
588.04	1825.93
588.39	1826.26
588.74	1824.98
589.09	1824.43
589.44	1821.69
589.79	1820.93
590.14	1821.00
590.49	1818.83
590.84	1816.88
591.19	1816.60
591.54	1815.33
591.89	1813.69
592.25	1814.26
592.60	1811.02
592.95	1811.29
593.30	1810.38
593.65	1808.88
594.00	1806.29
594.35	1809.50
594.70	1806.36
595.05	1804.33
595.40	1801.29
595.75	1798.93
596.10	1798.45
596.45	1796.12
596.80	1795.50
597.15	1794.24
597.50	1790.79
597.85	1790.29
598.19	1788.79
598.54	1785.79
598.89	1783.00
599.24	1781.79
599.59	1777.95
599.94	1776.79
600.29	1773.74
600.64	1771.71
600.99	1769.26
601.34	1768.05
601.69	1760.93
602.04	1757.98
602.39	1755.05
602.74	1754.10
603.08	1751.62
603.43	1749.62
603.78	1747.43
604.13	1743.62
604.48	1740.07
604.83	1738.74
605.18	1735.62
605.53	1732.19
605.87	1728.60
606.22	1726.50
606.57	1723.14
606.92	1719.40
607.27	1716.38
607.62	1712.86
607.96	1709.88
608.31	1707.62
608.66	1703.52
609.01	1699.67
609.36	1697.90
609.70	1695.71
610.05	1690.07
610.40	1686.50
610.75	1681.19
611.10	1676.86
611.44	1672.69
611.79	1667.26
612.14	1661.71
612.49	1656.14
612.83	1651.79
613.18	1647.02
613.53	1641.76
613.88	1635.95
614.22	1630.83
614.57	1625.24
614.92	1619.43
615.27	1613.19
615.61	1606.69
615.96	1600.05
616.31	1593.71
616.65	1588.33
617.00	1582.36
617.35	1577.57
617.70	1571.07
618.04	1565.57
618.39	1559.52
618.74	1554.10
619.08	1548.02
619.43	1542.86
619.78	1537.52
620.12	1532.79
620.47	1527.62
620.82	1521.52
621.16	1515.62
621.51	1511.10
621.85	1505.36
622.20	1499.52
622.55	1493.57
622.89	1488.21
623.24	1483.31
623.59	1477.90
623.93	1472.45
624.28	1466.24
624.62	1462.83
624.97	1458.48
625.32	1453.19
625.66	1448.40
626.01	1442.17
626.35	1438.76
626.70	1432.98
627.04	1427.36
627.39	1420.29
627.73	1415.48
628.08	1410.43
628.43	1405.10
628.77	1398.55
629.12	1393.38
629.46	1387.98
629.81	1382.71
630.15	1376.02
630.50	1369.98
630.84	1363.67
631.19	1357.45
631.53	1352.07
631.88	1343.40
632.22	1335.69
632.57	1329.60
632.91	1322.14
633.26	1316.52
633.60	1309.36
633.95	1303.14
634.29	1296.74
634.64	1291.17
634.98	1283.69
635.32	1277.90
635.67	1272.21
636.01	1266.64
636.36	1259.83
636.70	1254.00
637.05	1247.31
637.39	1241.52
637.73	1235.95
638.08	1231.50
638.42	1224.60
638.77	1218.40
639.11	1212.71
639.45	1207.38
639.80	1200.83
640.14	1195.17
640.49	1188.52
640.83	1182.43
641.17	1176.14
641.52	1169.93
641.86	1163.48
642.20	1158.83
642.55	1152.19
642.89	1145.88
643.23	1138.83
643.58	1133.26
643.92	1126.17
644.26	1119.69
644.61	1114.05
644.95	1106.57
645.29	1098.95
645.64	1093.43
645.98	1086.83
646.32	1080.57
646.66	1073.29
647.01	1066.98
647.35	1060.81
647.69	1054.33
648.04	1048.10
648.38	1042.19
648.72	1036.74
649.06	1030.10
649.41	1022.62
649.75	1016.10
650.09	1009.55
650.43	1003.33
650.78	996.40
651.12	989.90
651.46	983.52
651.80	976.88
652.14	971.17
652.49	965.57
652.83	958.64
653.17	952.52
653.51	945.95
653.85	941.12
654.20	934.52
654.54	927.83
654.88	921.40
655.22	915.64
655.56	909.07
655.90	901.93
656.25	896.33
656.59	890.50
656.93	885.05
657.27	879.69
657.61	873.81
657.95	868.21
658.29	862.60
658.64	856.88
658.98	850.43
659.32	845.40
659.66	839.48
660.00	834.26
660.34	828.55
660.68	823.38
661.02	816.81
661.36	811.43
661.70	806.55
662.05	801.21
662.39	795.67
662.73	790.95
663.07	787.14
663.41	781.60
663.75	775.60
664.09	769.71
664.43	763.29
664.77	757.98
665.11	752.21
665.45	747.33
665.79	742.43
666.13	737.62
666.47	731.69
666.81	726.10
667.15	720.24
667.49	714.50
667.83	709.93
668.17	704.36
668.51	699.48
668.85	694.19
669.19	690.38
669.53	684.67
669.87	679.43
670.21	673.86
670.55	669.12
670.89	665.60
671.23	661.24
671.57	657.26
671.91	652.79
672.25	648.10
672.58	644.07
672.92	639.55
673.26	635.14
673.60	630.38
673.94	625.86
674.28	622.05
674.62	618.62
674.96	613.98
675.30	610.19
675.64	606.26
675.97	602.19
676.31	597.48
676.65	593.60
676.99	590.14
677.33	585.74
677.67	582.10
678.01	577.10
678.34	573.40
678.68	569.74
679.02	565.55
679.36	561.67
679.70	557.26
680.04	553.33
680.37	549.67
680.71	546.24
681.05	543.05
681.39	539.33
681.73	535.48
682.06	531.45
682.40	528.00
682.74	524.74
683.08	522.00
683.42	517.79
683.75	514.48
684.09	510.45
684.43	506.71
684.77	502.50
685.10	499.00
685.44	494.74
685.78	491.10
686.12	488.21
686.45	485.05
686.79	481.17
687.13	478.38
687.46	474.98
687.80	472.50
688.14	469.14
688.48	466.40
688.81	463.29
689.15	461.17
689.49	458.05
689.82	454.83
690.16	450.52
690.50	447.71
690.83	444.52
691.17	441.12
691.51	438.69
691.84	435.93
692.18	433.19
692.52	430.81
692.85	428.17
693.19	426.19
693.52	423.76
693.86	421.43
694.20	418.21
694.53	415.76
694.87	412.71
695.21	409.86
695.54	407.07
695.88	403.83
696.21	400.02
696.55	397.62
696.88	395.02
697.22	393.07
697.56	391.12
697.89	388.74
698.23	386.93
698.56	384.29
698.90	382.74
699.23	380.74
699.57	378.79
699.90	376.45
700.24	373.81
700.58	371.71
700.91	370.02
701.25	369.60
701.58	368.36
701.92	367.19
702.25	365.50
702.59	363.26
702.92	361.98
703.26	360.76
703.59	358.52
703.93	358.55
704.26	356.90
704.60	355.33
704.93	353.64
705.26	351.48
705.60	349.98
705.93	347.74
706.27	346.55
706.60	345.21
706.94	344.64
707.27	342.74
707.61	341.21
707.94	339.88
708.27	336.74
708.61	334.50
708.94	332.38
709.28	330.57
709.61	329.10
709.94	327.90
710.28	326.52
710.61	325.55
710.95	322.29
711.28	322.38
711.61	320.90
711.95	320.00
712.28	318.93
712.61	317.64
712.95	317.36
713.28	316.95
713.61	315.14
713.95	313.12
714.28	311.83
714.61	310.43
714.95	309.07
715.28	307.67
715.61	306.38
715.95	305.48
716.28	304.60
716.61	303.88
716.95	302.31
717.28	300.86
717.61	299.60
717.94	298.45
718.28	296.02
718.61	295.00
718.94	293.48
719.27	292.05
719.61	291.19
719.94	289.69
720.27	287.29
720.60	286.33
720.94	285.21
721.27	284.40
721.60	284.12
721.93	282.93
722.27	282.95
722.60	282.31
722.93	281.14
723.26	280.38
723.59	279.10
723.93	278.57
724.26	277.98
724.59	277.36
724.92	276.83
725.25	276.69
725.59	275.76
725.92	275.57
726.25	274.88
726.58	274.14
726.91	273.40
727.24	273.26
727.57	272.95
727.91	272.48
728.24	271.95
728.57	270.74
728.90	270.38
729.23	269.14
729.56	269.38
729.89	268.93
730.22	268.10
730.55	267.45
730.89	266.88
731.22	266.29
731.55	265.55
731.88	264.83
732.21	263.64
732.54	263.07
732.87	262.45
733.20	262.36
733.53	261.98
733.86	261.67
734.19	260.69
734.52	260.33
734.85	260.93
735.18	260.14
735.51	260.64
735.84	260.33
736.17	260.26
736.50	258.76
736.83	260.50
737.16	260.07
737.49	259.74
737.82	258.95
738.15	258.76
738.48	258.31
738.81	257.93
739.14	257.19
739.47	256.43
739.80	255.93
740.13	255.48
740.46	254.62
740.79	253.64
741.12	253.31
741.45	252.36
741.78	250.81
742.11	251.05
742.44	249.88
742.77	249.50
743.10	248.98
743.43	248.38
743.75	245.95
744.08	248.45
744.41	247.95
744.74	247.57
745.07	246.55
745.40	246.48
745.73	246.95
746.06	246.74
746.39	246.95
746.71	246.36
747.04	245.81
747.37	245.50
747.70	245.40
748.03	245.07
748.36	245.07
748.68	244.90
749.01	243.76
749.34	243.36
749.67	243.14
750.00	243.00
750.33	244.31
750.65	243.93
750.98	240.90
751.31	240.69
751.64	240.36
751.97	241.40
752.29	240.79
752.62	239.50
752.95	239.19
753.28	238.50
753.60	238.05
753.93	238.33
754.26	238.07
754.59	237.57
754.91	237.17
755.24	236.79
755.57	236.29
755.90	236.12
756.22	235.90
756.55	235.14
756.88	234.33
757.20	232.74
757.53	231.88
757.86	231.57
758.19	231.55
758.51	231.50
758.84	230.17
759.17	229.93
759.49	229.86
759.82	230.93
760.15	230.98
760.47	230.76
760.80	229.93
761.13	230.10
761.45	229.69
761.78	229.67
762.11	229.40
762.43	229.19
762.76	229.17
763.08	229.00
763.41	229.02
763.74	228.98
764.06	228.71
764.39	228.93
764.71	228.67
765.04	228.14
765.37	227.60
765.69	227.52
766.02	227.38
766.34	227.02
766.67	225.69
767.00	225.81
767.32	226.81
767.65	227.83
767.97	227.60
768.30	227.79
768.62	227.38
768.95	227.07
769.27	226.76
769.60	226.81
769.92	226.57
770.25	226.14
770.57	225.71
770.90	225.57
771.22	224.98
771.55	225.07
771.87	225.14
772.20	224.93
772.52	226.19
772.85	228.38
773.17	228.50
773.50	228.31
773.82	227.88
774.15	226.64
774.47	225.36
774.80	224.83
775.12	224.67
775.45	224.55
775.77	224.64
776.09	224.50
776.42	224.48
776.74	225.00
777.07	224.74
777.39	224.95
777.72	224.69
778.04	225.12
778.36	224.71
778.69	224.50
779.01	224.76
779.33	223.19
779.66	220.98
779.98	220.55
780.31	220.52
780.63	221.10
780.95	221.48
781.28	221.31
781.60	221.24
781.92	221.14
782.25	221.36
782.57	221.12
782.89	220.88
783.22	220.38
783.54	219.67
783.86	219.98
784.19	219.62
784.51	220.29
784.83	219.86
785.16	219.71
785.48	219.81
