SpectraSuite Data File
++++++++++++++++++++++++++++++++++++
Date: Tue Apr 02 18:39:53 EDT 2013
User: group
Dark Spectrum Present: No
Reference Spectrum Present: No
Number of Sampled Component Spectra: 1
Spectrometers: USB2E7196
Integration Time (usec): 580000 (USB2E7196)
Spectra Averaged: 2 (USB2E7196)
Boxcar Smoothing: 10 (USB2E7196)
Correct for Electrical Dark: No (USB2E7196)
Strobe/Lamp Enabled: No (USB2E7196)
Correct for Detector Non-linearity: No (USB2E7196)
Correct for Stray Light: No (USB2E7196)
Number of Pixels in Processed Spectrum: 2048
>>>>>Begin Processed Spectral Data<<<<<
339.09	0.00
339.48	194.00
339.86	194.50
340.24	193.00
340.63	196.50
341.01	228.50
341.39	201.50
341.78	204.50
342.16	208.00
342.54	204.50
342.93	196.40
343.31	206.24
343.69	206.98
344.07	207.50
344.46	208.48
344.84	209.12
345.22	208.38
345.60	208.95
345.99	209.43
346.37	209.52
346.75	209.69
347.13	209.79
347.52	210.40
347.90	211.48
348.28	211.64
348.66	212.38
349.05	211.86
349.43	212.12
349.81	212.43
350.19	212.48
350.57	212.90
350.96	213.31
351.34	213.76
351.72	213.86
352.10	214.07
352.48	213.93
352.87	213.86
353.25	213.86
353.63	213.86
354.01	213.74
354.39	214.00
354.77	214.10
355.15	214.90
355.54	214.79
355.92	214.00
356.30	214.14
356.68	215.33
357.06	215.83
357.44	215.57
357.82	215.26
358.20	216.38
358.58	216.31
358.97	216.24
359.35	216.33
359.73	216.74
360.11	216.88
360.49	217.10
360.87	217.36
361.25	217.55
361.63	218.10
362.01	218.33
362.39	218.14
362.77	218.43
363.15	218.19
363.53	217.95
363.91	218.26
364.29	218.17
364.67	216.24
365.05	216.05
365.43	216.38
365.81	216.74
366.19	216.74
366.57	217.40
366.95	217.19
367.33	217.05
367.71	216.67
368.09	217.05
368.47	217.10
368.85	217.02
369.23	217.38
369.61	216.62
369.99	217.02
370.37	217.24
370.75	218.10
371.13	217.69
371.51	217.62
371.89	217.60
372.27	217.83
372.65	218.05
373.03	218.10
373.41	217.86
373.78	217.90
374.16	216.79
374.54	216.02
374.92	216.07
375.30	215.79
375.68	215.76
376.06	215.55
376.44	215.10
376.82	215.07
377.19	214.90
377.57	215.00
377.95	214.38
378.33	214.26
378.71	213.17
379.09	213.26
379.47	213.50
379.84	213.38
380.22	213.10
380.60	212.50
380.98	212.21
381.36	212.36
381.73	212.00
382.11	212.33
382.49	212.40
382.87	211.93
383.25	211.90
383.62	214.40
384.00	214.19
384.38	214.36
384.76	215.00
385.13	215.74
385.51	215.71
385.89	215.33
386.27	215.45
386.64	215.74
387.02	215.67
387.40	215.38
387.78	215.40
388.15	215.60
388.53	215.67
388.91	215.88
389.29	215.50
389.66	215.95
390.04	215.86
390.42	216.33
390.79	216.81
391.17	216.83
391.55	214.57
391.92	214.64
392.30	215.14
392.68	214.55
393.05	214.17
393.43	214.05
393.81	214.40
394.18	214.10
394.56	214.26
394.94	214.88
395.31	214.76
395.69	215.43
396.06	215.55
396.44	215.74
396.82	215.52
397.19	216.69
397.57	216.40
397.95	216.76
398.32	216.24
398.70	216.40
399.07	217.10
399.45	216.88
399.82	216.79
400.20	216.43
400.58	216.24
400.95	215.57
401.33	216.05
401.70	217.64
402.08	217.57
402.45	217.31
402.83	217.45
403.20	217.69
403.58	217.52
403.95	217.90
404.33	218.43
404.71	218.76
405.08	220.12
405.46	220.60
405.83	220.95
406.21	221.38
406.58	221.86
406.96	222.10
407.33	222.88
407.70	223.83
408.08	226.12
408.45	227.26
408.83	228.45
409.20	229.02
409.58	228.60
409.95	230.00
410.33	231.14
410.70	231.62
411.08	233.02
411.45	234.07
411.82	235.29
412.20	236.86
412.57	239.38
412.95	238.86
413.32	240.29
413.69	241.86
414.07	243.48
414.44	245.21
414.82	247.33
415.19	249.81
415.56	252.21
415.94	253.52
416.31	256.45
416.68	259.62
417.06	263.07
417.43	266.76
417.81	270.43
418.18	274.40
418.55	278.64
418.93	282.81
419.30	287.69
419.67	292.21
420.04	297.10
420.42	301.81
420.79	309.62
421.16	315.83
421.54	323.17
421.91	329.86
422.28	336.52
422.66	343.88
423.03	352.29
423.40	359.79
423.77	367.62
424.15	375.40
424.52	383.81
424.89	393.10
425.26	401.57
425.64	409.90
426.01	418.69
426.38	427.88
426.75	438.33
427.13	448.40
427.50	458.98
427.87	469.26
428.24	480.07
428.61	489.62
428.99	502.33
429.36	513.81
429.73	525.90
430.10	538.05
430.47	550.90
430.85	562.31
431.22	575.62
431.59	591.36
431.96	605.19
432.33	620.21
432.70	635.60
433.08	652.93
433.45	669.62
433.82	686.60
434.19	705.29
434.56	723.67
434.93	740.38
435.30	757.57
435.68	776.98
436.05	795.88
436.42	813.81
436.79	830.55
437.16	849.05
437.53	869.05
437.90	889.10
438.27	908.48
438.64	928.57
439.01	947.83
439.38	963.67
439.75	979.52
440.13	997.88
440.50	1013.93
440.87	1027.76
441.24	1042.31
441.61	1058.76
441.98	1070.21
442.35	1082.90
442.72	1097.12
443.09	1112.14
443.46	1120.33
443.83	1126.26
444.20	1132.14
444.57	1138.57
444.94	1142.05
445.31	1146.40
445.68	1152.24
446.05	1153.02
446.42	1151.14
446.79	1148.67
447.16	1146.07
447.53	1146.26
447.90	1139.14
448.27	1132.60
448.64	1123.21
449.01	1116.40
449.37	1103.10
449.74	1091.76
450.11	1079.00
450.48	1062.60
450.85	1045.00
451.22	1031.10
451.59	1017.86
451.96	1004.79
452.33	987.83
452.70	972.40
453.07	953.02
453.43	931.79
453.80	914.60
454.17	897.71
454.54	881.36
454.91	863.55
455.28	845.10
455.65	828.79
456.02	816.31
456.38	802.95
456.75	786.14
457.12	772.31
457.49	758.38
457.86	743.29
458.23	732.69
458.59	719.74
458.96	707.26
459.33	695.55
459.70	684.07
460.07	674.83
460.43	664.57
460.80	655.12
461.17	647.17
461.54	637.43
461.91	628.43
462.27	619.71
462.64	612.10
463.01	603.98
463.38	597.02
463.74	585.26
464.11	577.45
464.48	571.48
464.85	564.69
465.21	559.62
465.58	554.50
465.95	547.17
466.32	541.50
466.68	535.55
467.05	530.17
467.42	524.76
467.78	519.02
468.15	513.40
468.52	509.64
468.88	503.31
469.25	498.76
469.62	495.50
469.98	491.36
470.35	487.79
470.72	483.79
471.08	478.86
471.45	475.93
471.82	473.21
472.18	468.62
472.55	465.62
472.92	461.74
473.28	458.21
473.65	455.50
474.02	452.93
474.38	450.83
474.75	448.69
475.11	445.98
475.48	444.29
475.85	442.55
476.21	440.48
476.58	439.12
476.94	437.64
477.31	435.79
477.67	434.38
478.04	432.90
478.41	432.21
478.77	433.07
479.14	431.81
479.50	430.86
479.87	431.19
480.23	430.86
480.60	430.24
480.96	429.95
481.33	430.33
481.69	430.29
482.06	430.26
482.42	430.71
482.79	431.38
483.15	432.10
483.52	433.29
483.88	433.74
484.25	434.43
484.61	435.43
484.98	436.74
485.34	438.40
485.71	440.14
486.07	441.83
486.44	442.19
486.80	444.24
487.17	445.98
487.53	448.31
487.90	450.67
488.26	454.26
488.62	457.17
488.99	459.52
489.35	462.71
489.72	465.69
490.08	468.57
490.44	471.29
490.81	474.64
491.17	477.64
491.54	481.12
491.90	485.52
492.26	489.26
492.63	493.05
492.99	496.93
493.36	501.52
493.72	506.24
494.08	510.83
494.45	516.17
494.81	521.33
495.17	525.98
495.54	531.52
495.90	536.38
496.26	541.71
496.63	547.79
496.99	553.67
497.35	559.90
497.72	566.67
498.08	573.60
498.44	580.40
498.80	587.12
499.17	594.31
499.53	601.26
499.89	608.83
500.26	616.05
500.62	623.50
500.98	631.19
501.34	638.52
501.71	646.57
502.07	653.93
502.43	661.79
502.79	669.88
503.16	678.12
503.52	686.07
503.88	694.55
504.24	702.62
504.60	711.05
504.97	719.88
505.33	728.21
505.69	737.76
506.05	746.74
506.41	755.95
506.78	764.17
507.14	771.95
507.50	780.21
507.86	789.43
508.22	798.62
508.59	806.52
508.95	815.60
509.31	825.26
509.67	833.55
510.03	842.76
510.39	851.48
510.75	859.88
511.12	868.98
511.48	877.71
511.84	886.07
512.20	895.02
512.56	903.43
512.92	911.43
513.28	919.52
513.64	927.43
514.00	935.45
514.37	943.81
514.73	952.40
515.09	962.10
515.45	970.31
515.81	978.19
516.17	986.00
516.53	993.74
516.89	1000.38
517.25	1008.74
517.61	1016.88
517.97	1024.88
518.33	1032.55
518.69	1040.12
519.05	1047.86
519.41	1055.86
519.77	1064.43
520.13	1071.76
520.49	1078.90
520.85	1085.95
521.21	1093.86
521.57	1101.31
521.93	1107.67
522.29	1114.76
522.65	1119.62
523.01	1126.05
523.37	1132.10
523.73	1139.55
524.09	1145.36
524.45	1152.10
524.81	1158.50
525.17	1164.21
525.53	1169.81
525.89	1175.60
526.25	1181.64
526.61	1186.98
526.97	1192.93
527.33	1197.67
527.68	1205.10
528.04	1211.26
528.40	1216.45
528.76	1221.50
529.12	1227.40
529.48	1234.26
529.84	1239.69
530.20	1246.43
530.56	1251.71
530.91	1258.07
531.27	1263.48
531.63	1270.02
531.99	1274.69
532.35	1280.10
532.71	1285.14
533.07	1291.52
533.42	1299.12
533.78	1304.36
534.14	1310.40
534.50	1315.90
534.86	1321.64
535.21	1325.24
535.57	1330.52
535.93	1335.36
536.29	1341.43
536.65	1346.52
537.00	1351.36
537.36	1357.21
537.72	1362.33
538.08	1367.83
538.44	1371.48
538.79	1376.40
539.15	1380.69
539.51	1386.05
539.87	1390.48
540.22	1395.02
540.58	1399.17
540.94	1401.36
541.29	1405.24
541.65	1408.69
542.01	1412.36
542.37	1416.14
542.72	1419.98
543.08	1423.12
543.44	1427.40
543.79	1429.50
544.15	1433.26
544.51	1437.43
544.87	1440.74
545.22	1444.88
545.58	1448.17
545.94	1452.52
546.29	1456.55
546.65	1460.26
547.01	1463.83
547.36	1467.67
547.72	1471.76
548.07	1475.07
548.43	1478.38
548.79	1482.55
549.14	1486.02
549.50	1490.62
549.86	1493.29
550.21	1496.64
550.57	1501.36
550.92	1504.64
551.28	1508.81
551.64	1511.81
551.99	1514.62
552.35	1518.79
552.70	1521.67
553.06	1525.76
553.41	1528.95
553.77	1533.88
554.13	1538.24
554.48	1543.50
554.84	1547.83
555.19	1551.95
555.55	1557.50
555.90	1562.17
556.26	1565.98
556.61	1570.62
556.97	1573.36
557.32	1578.00
557.68	1582.10
558.03	1586.33
558.39	1591.36
558.74	1595.81
559.10	1600.86
559.45	1606.14
559.81	1610.24
560.16	1614.05
560.52	1618.26
560.87	1623.86
561.23	1627.52
561.58	1633.40
561.94	1636.40
562.29	1640.17
562.64	1644.74
563.00	1648.05
563.35	1652.60
563.71	1657.93
564.06	1662.69
564.42	1668.00
564.77	1673.26
565.12	1679.83
565.48	1686.57
565.83	1691.88
566.19	1697.29
566.54	1702.05
566.89	1707.40
567.25	1713.55
567.60	1719.64
567.96	1726.64
568.31	1732.02
568.66	1736.14
569.02	1738.57
569.37	1743.17
569.72	1748.76
570.08	1752.48
570.43	1755.76
570.78	1760.90
571.14	1764.48
571.49	1768.62
571.84	1773.05
572.20	1776.05
572.55	1778.95
572.90	1780.26
573.26	1783.33
573.61	1784.95
573.96	1787.60
574.31	1789.38
574.67	1790.98
575.02	1793.31
575.37	1793.29
575.72	1794.67
576.08	1798.19
576.43	1799.74
576.78	1801.62
577.13	1802.43
577.49	1804.38
577.84	1808.10
578.19	1809.90
578.54	1812.57
578.90	1814.48
579.25	1815.36
579.60	1816.81
579.95	1817.88
580.30	1819.33
580.66	1821.33
581.01	1823.88
581.36	1824.45
581.71	1826.36
582.06	1828.19
582.42	1829.26
582.77	1830.26
583.12	1831.17
583.47	1830.83
583.82	1832.29
584.17	1833.29
584.53	1835.00
584.88	1835.38
585.23	1835.05
585.58	1834.48
585.93	1833.00
586.28	1833.36
586.63	1834.02
586.98	1834.40
587.34	1834.98
587.69	1833.74
588.04	1831.55
588.39	1830.79
588.74	1829.64
589.09	1828.55
589.44	1825.93
589.79	1824.33
590.14	1823.88
590.49	1822.12
590.84	1821.02
591.19	1820.00
591.54	1818.69
591.89	1816.52
592.25	1817.48
592.60	1815.76
592.95	1814.71
593.30	1813.64
593.65	1811.40
594.00	1808.19
594.35	1812.00
594.70	1808.19
595.05	1806.55
595.40	1804.64
595.75	1802.79
596.10	1801.90
596.45	1799.50
596.80	1798.40
597.15	1797.36
597.50	1794.69
597.85	1793.52
598.19	1791.31
598.54	1789.10
598.89	1786.74
599.24	1784.95
599.59	1780.48
599.94	1777.19
600.29	1773.74
600.64	1771.60
600.99	1769.05
601.34	1767.60
601.69	1759.10
602.04	1757.10
602.39	1754.62
602.74	1753.10
603.08	1750.21
603.43	1748.36
603.78	1745.50
604.13	1742.90
604.48	1739.50
604.83	1736.83
605.18	1733.79
605.53	1730.17
605.87	1726.38
606.22	1723.02
606.57	1719.50
606.92	1716.71
607.27	1714.76
607.62	1712.12
607.96	1709.81
608.31	1707.07
608.66	1703.64
609.01	1699.45
609.36	1695.69
609.70	1691.31
610.05	1686.33
610.40	1682.95
610.75	1677.93
611.10	1674.55
611.44	1669.36
611.79	1664.71
612.14	1659.98
612.49	1654.00
612.83	1650.02
613.18	1644.95
613.53	1640.45
613.88	1634.98
614.22	1628.50
614.57	1622.17
614.92	1617.10
615.27	1610.74
615.61	1603.64
615.96	1597.88
616.31	1592.60
616.65	1587.48
617.00	1583.05
617.35	1578.29
617.70	1572.07
618.04	1566.26
618.39	1559.36
618.74	1553.36
619.08	1547.33
619.43	1542.29
619.78	1537.40
620.12	1531.67
620.47	1526.60
620.82	1519.98
621.16	1513.69
621.51	1509.38
621.85	1503.19
622.20	1496.33
622.55	1489.64
622.89	1484.74
623.24	1478.60
623.59	1472.60
623.93	1466.40
624.28	1460.40
624.62	1456.71
624.97	1452.05
625.32	1446.50
625.66	1441.26
626.01	1435.71
626.35	1430.38
626.70	1424.62
627.04	1418.95
627.39	1412.50
627.73	1408.02
628.08	1403.50
628.43	1398.60
628.77	1392.60
629.12	1387.95
629.46	1383.31
629.81	1377.45
630.15	1371.14
630.50	1365.14
630.84	1359.00
631.19	1353.02
631.53	1346.67
631.88	1337.64
632.22	1330.05
632.57	1324.02
632.91	1316.95
633.26	1311.12
633.60	1304.98
633.95	1298.00
634.29	1291.88
634.64	1286.33
634.98	1278.81
635.32	1273.14
635.67	1267.71
636.01	1262.02
636.36	1255.05
636.70	1248.83
637.05	1243.07
637.39	1237.55
637.73	1231.88
638.08	1226.83
638.42	1221.29
638.77	1215.86
639.11	1210.17
639.45	1204.17
639.80	1198.38
640.14	1193.33
640.49	1187.24
640.83	1180.74
641.17	1175.07
641.52	1168.64
641.86	1161.74
642.20	1156.29
642.55	1148.64
642.89	1141.60
643.23	1134.74
643.58	1129.55
643.92	1122.88
644.26	1116.29
644.61	1109.62
644.95	1102.64
645.29	1095.71
645.64	1089.69
645.98	1082.79
646.32	1076.43
646.66	1069.83
647.01	1062.93
647.35	1056.62
647.69	1049.88
648.04	1043.79
648.38	1037.40
648.72	1030.69
649.06	1023.98
649.41	1016.64
649.75	1009.79
650.09	1003.21
650.43	996.12
650.78	988.79
651.12	981.79
651.46	975.79
651.80	969.33
652.14	963.90
652.49	958.67
652.83	951.98
653.17	945.71
653.51	939.07
653.85	932.64
654.20	926.17
654.54	919.00
654.88	912.86
655.22	906.95
655.56	899.95
655.90	893.90
656.25	888.29
656.59	882.50
656.93	877.24
657.27	871.83
657.61	866.17
657.95	860.81
658.29	854.95
658.64	849.12
658.98	842.88
659.32	836.31
659.66	829.57
660.00	824.10
660.34	818.29
660.68	812.62
661.02	806.71
661.36	800.83
661.70	795.74
662.05	790.60
662.39	784.81
662.73	780.57
663.07	776.64
663.41	771.17
663.75	765.93
664.09	760.45
664.43	754.69
664.77	749.29
665.11	743.50
665.45	738.57
665.79	734.00
666.13	728.93
666.47	724.55
666.81	719.05
667.15	713.29
667.49	708.57
667.83	704.64
668.17	700.12
668.51	695.76
668.85	691.43
669.19	687.52
669.53	682.33
669.87	676.76
670.21	670.88
670.55	666.10
670.89	662.38
671.23	657.62
671.57	652.95
671.91	648.64
672.25	644.17
672.58	640.24
672.92	634.71
673.26	630.14
673.60	625.05
673.94	621.33
674.28	617.45
674.62	613.50
674.96	608.67
675.30	604.93
675.64	600.36
675.97	596.07
676.31	590.55
676.65	586.67
676.99	583.64
677.33	579.69
677.67	576.07
678.01	571.19
678.34	567.24
678.68	564.12
679.02	560.17
679.36	556.50
679.70	552.57
680.04	549.14
680.37	546.02
680.71	542.38
681.05	539.07
681.39	535.40
681.73	531.38
682.06	527.48
682.40	523.67
682.74	520.45
683.08	517.74
683.42	514.50
683.75	511.07
684.09	506.76
684.43	503.05
684.77	499.31
685.10	495.93
685.44	492.79
685.78	488.64
686.12	485.67
686.45	482.60
686.79	479.36
687.13	476.52
687.46	472.95
687.80	470.60
688.14	467.07
688.48	464.14
688.81	461.19
689.15	458.98
689.49	455.64
689.82	452.88
690.16	448.83
690.50	446.14
690.83	443.05
691.17	440.21
691.51	437.45
691.84	434.95
692.18	431.86
692.52	429.24
692.85	427.50
693.19	425.90
693.52	423.10
693.86	419.93
694.20	417.05
694.53	414.43
694.87	411.14
695.21	408.50
695.54	406.24
695.88	403.19
696.21	399.83
696.55	397.88
696.88	395.14
697.22	392.81
697.56	390.48
697.89	388.12
698.23	386.17
698.56	384.00
698.90	382.00
699.23	379.90
699.57	377.67
699.90	374.76
700.24	371.31
700.58	369.38
700.91	367.90
701.25	367.69
701.58	366.48
701.92	365.33
702.25	363.50
702.59	361.17
702.92	359.90
703.26	358.17
703.59	356.24
703.93	356.74
704.26	355.19
704.60	353.74
704.93	351.81
705.26	349.76
705.60	348.76
705.93	346.48
706.27	345.64
706.60	344.43
706.94	344.02
707.27	342.60
707.61	341.19
707.94	339.43
708.27	336.14
708.61	334.14
708.94	332.38
709.28	331.12
709.61	329.71
709.94	328.31
710.28	326.95
710.61	325.81
710.95	321.86
711.28	321.81
711.61	320.38
711.95	319.69
712.28	318.57
712.61	317.00
712.95	317.14
713.28	316.50
713.61	315.02
713.95	312.88
714.28	312.12
714.61	310.60
714.95	309.19
715.28	307.86
715.61	306.48
715.95	305.31
716.28	303.93
716.61	302.76
716.95	301.31
717.28	300.19
717.61	298.79
717.94	297.98
718.28	295.38
718.61	294.10
718.94	292.43
719.27	290.98
719.61	289.93
719.94	288.12
720.27	286.07
720.60	284.67
720.94	283.55
721.27	282.33
721.60	281.86
721.93	280.95
722.27	280.69
722.60	280.38
722.93	279.07
723.26	278.29
723.59	277.38
723.93	276.71
724.26	275.90
724.59	275.07
724.92	274.74
725.25	274.81
725.59	274.21
725.92	273.88
726.25	273.50
726.58	272.86
726.91	272.19
727.24	271.88
727.57	271.43
727.91	270.60
728.24	270.00
728.57	268.95
728.90	268.50
729.23	267.07
729.56	267.43
729.89	266.86
730.22	266.33
730.55	265.64
730.89	265.12
731.22	264.55
731.55	264.14
731.88	263.43
732.21	262.52
732.54	261.62
732.87	261.24
733.20	260.69
733.53	260.14
733.86	259.67
734.19	258.79
734.52	258.57
734.85	259.55
735.18	259.00
735.51	259.26
735.84	259.02
736.17	259.52
736.50	257.71
736.83	259.79
737.16	259.17
737.49	258.64
737.82	257.95
738.15	257.93
738.48	257.29
738.81	256.55
739.14	255.48
739.47	255.12
739.80	254.67
740.13	254.52
740.46	253.57
740.79	252.79
741.12	252.38
741.45	251.67
741.78	250.17
742.11	250.00
742.44	248.95
742.77	248.67
743.10	247.76
743.43	247.38
743.75	244.88
744.08	247.36
744.41	247.26
744.74	247.12
745.07	246.43
745.40	246.38
745.73	247.02
746.06	246.95
746.39	246.93
746.71	246.50
747.04	245.67
747.37	245.60
747.70	245.86
748.03	245.48
748.36	245.21
748.68	244.81
749.01	243.88
749.34	243.52
749.67	243.40
750.00	243.43
750.33	244.62
750.65	244.60
750.98	241.62
751.31	241.45
751.64	241.02
751.97	241.95
752.29	241.33
752.62	240.29
752.95	239.81
753.28	239.14
753.60	238.43
753.93	239.07
754.26	238.98
754.59	237.98
754.91	237.71
755.24	237.52
755.57	237.12
755.90	237.19
756.22	236.88
756.55	236.10
756.88	235.52
757.20	233.98
757.53	233.14
757.86	232.74
758.19	232.50
758.51	232.29
758.84	230.81
759.17	230.67
759.49	230.62
759.82	231.33
760.15	231.31
760.47	231.45
760.80	230.24
761.13	230.21
761.45	230.07
761.78	229.79
762.11	229.38
762.43	229.31
762.76	229.02
763.08	229.19
763.41	229.19
763.74	228.90
764.06	228.86
764.39	228.79
764.71	228.60
765.04	227.98
765.37	227.67
765.69	227.71
766.02	227.38
766.34	226.98
766.67	226.24
767.00	226.57
767.32	227.21
767.65	228.55
767.97	228.14
768.30	228.00
768.62	227.76
768.95	227.67
769.27	227.45
769.60	227.64
769.92	227.14
770.25	226.52
770.57	226.21
770.90	226.21
771.22	225.76
771.55	225.76
771.87	225.90
772.20	225.86
772.52	227.29
772.85	229.79
773.17	229.52
773.50	229.31
773.82	228.74
774.15	227.64
774.47	226.19
774.80	226.00
775.12	225.95
775.45	225.76
775.77	225.55
776.09	225.64
776.42	225.43
776.74	225.95
777.07	225.95
777.39	225.95
777.72	225.19
778.04	225.69
778.36	225.71
778.69	225.69
779.01	225.57
779.33	223.64
779.66	221.29
779.98	221.29
780.31	221.17
780.63	221.83
780.95	222.21
781.28	222.26
781.60	221.98
781.92	221.90
782.25	222.12
782.57	222.05
782.89	221.55
783.22	221.21
783.54	220.50
783.86	220.62
784.19	220.29
784.51	220.64
784.83	219.88
785.16	219.48
785.48	219.24
