SpectraSuite Data File
++++++++++++++++++++++++++++++++++++
Date: Tue Apr 02 18:45:30 EDT 2013
User: group
Dark Spectrum Present: No
Reference Spectrum Present: No
Number of Sampled Component Spectra: 1
Spectrometers: USB2E7196
Integration Time (usec): 580000 (USB2E7196)
Spectra Averaged: 2 (USB2E7196)
Boxcar Smoothing: 10 (USB2E7196)
Correct for Electrical Dark: No (USB2E7196)
Strobe/Lamp Enabled: No (USB2E7196)
Correct for Detector Non-linearity: No (USB2E7196)
Correct for Stray Light: No (USB2E7196)
Number of Pixels in Processed Spectrum: 2048
>>>>>Begin Processed Spectral Data<<<<<
339.09	0.00
339.48	196.00
339.86	192.50
340.24	193.00
340.63	200.50
341.01	232.50
341.39	199.50
341.78	206.50
342.16	209.00
342.54	202.50
342.93	197.98
343.31	207.81
343.69	208.38
344.07	209.26
344.46	210.26
344.84	210.71
345.22	209.52
345.60	210.21
345.99	210.48
346.37	210.62
346.75	210.90
347.13	210.93
347.52	211.43
347.90	211.83
348.28	211.67
348.66	212.31
349.05	211.93
349.43	212.21
349.81	212.38
350.19	212.40
350.57	212.64
350.96	212.88
351.34	213.33
351.72	213.33
352.10	213.40
352.48	213.10
352.87	213.00
353.25	213.00
353.63	212.74
354.01	212.67
354.39	212.74
354.77	213.07
355.15	213.60
355.54	213.21
355.92	212.74
356.30	212.81
356.68	213.98
357.06	213.90
357.44	213.64
357.82	213.48
358.20	214.60
358.58	214.36
358.97	214.45
359.35	214.69
359.73	215.40
360.11	215.33
360.49	215.48
360.87	215.57
361.25	215.98
361.63	216.55
362.01	216.83
362.39	216.90
362.77	216.86
363.15	216.86
363.53	216.86
363.91	217.02
364.29	216.95
364.67	215.02
365.05	215.43
365.43	215.88
365.81	216.26
366.19	216.43
366.57	217.24
366.95	217.17
367.33	216.74
367.71	216.48
368.09	216.86
368.47	216.95
368.85	216.79
369.23	217.21
369.61	216.64
369.99	217.14
370.37	217.17
370.75	218.29
371.13	217.79
371.51	217.45
371.89	217.71
372.27	217.81
372.65	217.93
373.03	217.71
373.41	217.50
373.78	217.45
374.16	216.24
374.54	215.71
374.92	215.67
375.30	215.62
375.68	215.31
376.06	215.33
376.44	215.24
376.82	215.79
377.19	215.45
377.57	215.38
377.95	214.81
378.33	214.74
378.71	213.38
379.09	213.67
379.47	213.98
379.84	213.76
380.22	213.74
380.60	213.52
380.98	213.52
381.36	213.19
381.73	212.67
382.11	213.00
382.49	212.86
382.87	212.52
383.25	212.52
383.62	214.74
384.00	214.12
384.38	214.10
384.76	214.12
385.13	214.98
385.51	215.05
385.89	214.62
386.27	214.69
386.64	214.98
387.02	214.76
387.40	214.62
387.78	214.74
388.15	214.67
388.53	214.40
388.91	214.36
389.29	214.45
389.66	214.81
390.04	214.62
390.42	215.21
390.79	215.26
391.17	215.29
391.55	213.12
391.92	213.38
392.30	213.45
392.68	212.86
393.05	212.64
393.43	212.88
393.81	213.19
394.18	212.76
394.56	212.76
394.94	213.10
395.31	212.95
395.69	213.52
396.06	213.86
396.44	214.02
396.82	213.79
397.19	214.74
397.57	214.62
397.95	214.90
398.32	213.98
398.70	214.21
399.07	214.71
399.45	214.76
399.82	214.50
400.20	214.69
400.58	215.00
400.95	214.02
401.33	214.29
401.70	215.76
402.08	216.19
402.45	216.31
402.83	216.83
403.20	217.00
403.58	216.79
403.95	217.21
404.33	217.76
404.71	218.14
405.08	219.52
405.46	220.07
405.83	220.33
406.21	221.17
406.58	221.76
406.96	221.86
407.33	222.17
407.70	223.05
408.08	225.19
408.45	225.98
408.83	227.05
409.20	227.52
409.58	227.19
409.95	228.14
410.33	229.07
410.70	229.55
411.08	230.90
411.45	231.74
411.82	232.48
412.20	233.90
412.57	236.33
412.95	235.95
413.32	237.50
413.69	238.76
414.07	240.17
414.44	241.62
414.82	243.71
415.19	246.38
415.56	248.62
415.94	249.55
416.31	252.62
416.68	255.38
417.06	258.74
417.43	262.07
417.81	265.60
418.18	269.26
418.55	272.57
418.93	276.62
419.30	281.02
419.67	285.64
420.04	289.95
420.42	294.14
420.79	301.43
421.16	306.90
421.54	313.74
421.91	320.12
422.28	326.40
422.66	333.12
423.03	340.60
423.40	347.52
423.77	354.88
424.15	361.50
424.52	369.12
424.89	377.52
425.26	385.07
425.64	392.50
426.01	400.60
426.38	409.31
426.75	418.90
427.13	428.40
427.50	437.98
427.87	447.95
428.24	457.62
428.61	465.45
428.99	477.00
429.36	487.45
429.73	498.67
430.10	510.45
430.47	521.71
430.85	532.57
431.22	545.38
431.59	559.95
431.96	572.74
432.33	586.86
432.70	600.38
433.08	616.31
433.45	631.52
433.82	646.62
434.19	663.76
434.56	680.17
434.93	695.64
435.30	711.83
435.68	729.64
436.05	746.76
436.42	763.83
436.79	779.02
437.16	796.07
437.53	812.90
437.90	829.98
438.27	848.38
438.64	866.38
439.01	883.17
439.38	896.50
439.75	911.26
440.13	927.74
440.50	943.98
440.87	956.48
441.24	970.07
441.61	984.38
441.98	994.62
442.35	1006.40
442.72	1018.86
443.09	1031.57
443.46	1038.90
443.83	1044.02
444.20	1049.05
444.57	1055.21
444.94	1058.43
445.31	1062.74
445.68	1068.57
446.05	1069.33
446.42	1067.88
446.79	1066.00
447.16	1064.29
447.53	1063.76
447.90	1057.29
448.27	1050.05
448.64	1041.81
449.01	1035.64
449.37	1024.67
449.74	1014.36
450.11	1002.93
450.48	988.79
450.85	973.00
451.22	960.83
451.59	949.12
451.96	937.19
452.33	921.81
452.70	908.21
453.07	891.26
453.43	871.79
453.80	855.55
454.17	840.17
454.54	825.31
454.91	809.55
455.28	793.05
455.65	778.52
456.02	767.31
456.38	754.81
456.75	739.00
457.12	725.88
457.49	713.29
457.86	699.40
458.23	689.64
458.59	678.38
458.96	666.31
459.33	656.00
459.70	645.79
460.07	637.40
460.43	627.71
460.80	619.05
461.17	611.81
461.54	603.57
461.91	595.38
462.27	587.57
462.64	580.29
463.01	572.86
463.38	566.57
463.74	555.81
464.11	549.31
464.48	543.79
464.85	537.88
465.21	534.05
465.58	529.02
465.95	522.07
466.32	516.38
466.68	510.90
467.05	505.86
467.42	501.07
467.78	496.00
468.15	491.02
468.52	487.31
468.88	481.83
469.25	477.10
469.62	473.69
469.98	469.45
470.35	466.40
470.72	462.98
471.08	457.98
471.45	455.83
471.82	453.05
472.18	449.38
472.55	447.00
472.92	442.76
473.28	439.64
473.65	437.07
474.02	435.14
474.38	433.26
474.75	431.40
475.11	428.88
475.48	427.26
475.85	425.60
476.21	423.52
476.58	422.55
476.94	421.43
477.31	419.95
477.67	418.83
478.04	417.40
478.41	416.98
478.77	418.79
479.14	417.02
479.50	416.26
479.87	415.93
480.23	415.40
480.60	415.02
480.96	415.14
481.33	415.64
481.69	415.38
482.06	415.33
482.42	415.60
482.79	416.17
483.15	416.29
483.52	417.14
483.88	417.55
484.25	418.14
484.61	418.67
484.98	419.71
485.34	421.12
485.71	422.69
486.07	423.83
486.44	423.52
486.80	425.38
487.17	426.40
487.53	428.90
487.90	430.90
488.26	434.05
488.62	436.95
488.99	438.79
489.35	441.57
489.72	444.57
490.08	447.19
490.44	449.67
490.81	452.71
491.17	455.90
491.54	459.71
491.90	463.29
492.26	467.45
492.63	470.71
492.99	474.36
493.36	478.21
493.72	482.33
494.08	486.43
494.45	491.05
494.81	496.62
495.17	501.29
495.54	506.88
495.90	510.88
496.26	515.48
496.63	521.24
496.99	526.74
497.35	532.14
497.72	537.93
498.08	543.79
498.44	550.21
498.80	556.57
499.17	562.76
499.53	568.81
499.89	575.24
500.26	582.36
500.62	589.43
500.98	597.10
501.34	603.76
501.71	611.57
502.07	618.50
502.43	625.48
502.79	632.07
503.16	638.98
503.52	646.71
503.88	653.64
504.24	661.07
504.60	668.29
504.97	676.12
505.33	683.93
505.69	692.90
506.05	700.00
506.41	707.55
506.78	715.02
507.14	722.26
507.50	730.12
507.86	737.90
508.22	745.43
508.59	752.26
508.95	760.50
509.31	768.83
509.67	777.48
510.03	785.29
510.39	793.12
510.75	800.60
511.12	807.83
511.48	815.93
511.84	823.67
512.20	831.48
512.56	839.40
512.92	846.86
513.28	853.76
513.64	861.48
514.00	868.36
514.37	875.76
514.73	883.81
515.09	891.40
515.45	898.33
515.81	905.14
516.17	912.21
516.53	918.60
516.89	923.81
517.25	929.00
517.61	936.14
517.97	942.38
518.33	948.98
518.69	955.21
519.05	961.93
519.41	967.48
519.77	974.90
520.13	979.88
520.49	985.10
520.85	991.12
521.21	998.17
521.57	1004.36
521.93	1009.95
522.29	1014.71
522.65	1019.12
523.01	1024.90
523.37	1029.79
523.73	1034.31
524.09	1039.67
524.45	1044.81
524.81	1050.60
525.17	1054.90
525.53	1059.60
525.89	1064.29
526.25	1069.26
526.61	1072.93
526.97	1077.60
527.33	1080.90
527.68	1087.48
528.04	1092.45
528.40	1096.00
528.76	1099.05
529.12	1103.00
529.48	1107.29
529.84	1112.10
530.20	1116.79
530.56	1121.07
530.91	1125.71
531.27	1131.19
531.63	1135.33
531.99	1138.95
532.35	1141.93
532.71	1145.79
533.07	1150.55
533.42	1156.62
533.78	1160.57
534.14	1165.19
534.50	1169.33
534.86	1173.62
535.21	1176.07
535.57	1179.90
535.93	1184.05
536.29	1188.93
536.65	1192.55
537.00	1195.76
537.36	1199.14
537.72	1202.45
538.08	1205.33
538.44	1208.14
538.79	1210.95
539.15	1214.00
539.51	1217.93
539.87	1221.79
540.22	1225.19
540.58	1227.79
540.94	1229.17
541.29	1232.17
541.65	1234.19
542.01	1236.90
542.37	1239.69
542.72	1241.21
543.08	1243.74
543.44	1246.57
543.79	1247.71
544.15	1250.90
544.51	1254.74
544.87	1256.93
545.22	1259.31
545.58	1262.62
545.94	1265.52
546.29	1268.19
546.65	1270.60
547.01	1272.33
547.36	1274.81
547.72	1276.38
548.07	1279.45
548.43	1281.62
548.79	1284.36
549.14	1286.98
549.50	1289.38
549.86	1290.90
550.21	1293.71
550.57	1297.26
550.92	1299.38
551.28	1302.98
551.64	1305.76
551.99	1308.12
552.35	1310.90
552.70	1314.14
553.06	1316.98
553.41	1319.36
553.77	1323.67
554.13	1327.67
554.48	1332.29
554.84	1336.90
555.19	1341.79
555.55	1346.43
555.90	1349.43
556.26	1353.07
556.61	1356.74
556.97	1360.38
557.32	1363.90
557.68	1368.00
558.03	1370.33
558.39	1374.21
558.74	1377.48
559.10	1380.79
559.45	1385.10
559.81	1389.50
560.16	1393.95
560.52	1397.43
560.87	1403.50
561.23	1406.36
561.58	1412.10
561.94	1415.33
562.29	1419.02
562.64	1423.40
563.00	1426.57
563.35	1431.64
563.71	1436.00
564.06	1441.71
564.42	1446.26
564.77	1452.90
565.12	1458.81
565.48	1466.29
565.83	1472.17
566.19	1477.88
566.54	1482.74
566.89	1487.29
567.25	1494.19
567.60	1500.62
567.96	1508.60
568.31	1513.81
568.66	1520.33
569.02	1523.52
569.37	1529.74
569.72	1534.81
570.08	1539.14
570.43	1544.33
570.78	1550.43
571.14	1556.76
571.49	1562.26
571.84	1568.43
572.20	1573.10
572.55	1578.26
572.90	1581.76
573.26	1586.31
573.61	1590.81
573.96	1596.57
574.31	1601.19
574.67	1604.36
575.02	1608.12
575.37	1610.43
575.72	1613.26
576.08	1616.88
576.43	1621.19
576.78	1624.48
577.13	1628.95
577.49	1632.90
577.84	1637.40
578.19	1641.07
578.54	1644.93
578.90	1648.45
579.25	1651.45
579.60	1653.98
579.95	1657.40
580.30	1661.40
580.66	1665.40
581.01	1669.29
581.36	1672.24
581.71	1675.98
582.06	1681.19
582.42	1684.60
582.77	1687.86
583.12	1692.69
583.47	1696.43
583.82	1700.33
584.17	1703.98
584.53	1707.52
584.88	1710.62
585.23	1713.69
585.58	1715.55
585.93	1717.74
586.28	1721.31
586.63	1724.98
586.98	1728.50
587.34	1731.62
587.69	1733.50
588.04	1735.40
588.39	1737.50
588.74	1738.95
589.09	1741.31
589.44	1741.40
589.79	1743.36
590.14	1745.24
590.49	1746.21
590.84	1746.93
591.19	1749.12
591.54	1751.10
591.89	1752.38
592.25	1756.69
592.60	1757.21
592.95	1759.95
593.30	1761.67
593.65	1761.69
594.00	1761.24
594.35	1768.55
594.70	1768.64
595.05	1769.90
595.40	1770.98
595.75	1771.57
596.10	1773.62
596.45	1774.86
596.80	1776.07
597.15	1777.76
597.50	1778.74
597.85	1780.57
598.19	1781.38
598.54	1781.36
598.89	1782.21
599.24	1782.86
599.59	1782.10
599.94	1783.40
600.29	1784.02
600.64	1783.45
600.99	1784.10
601.34	1786.24
601.69	1781.14
602.04	1780.55
602.39	1780.67
602.74	1780.62
603.08	1780.43
603.43	1782.02
603.78	1782.00
604.13	1781.69
604.48	1779.76
604.83	1779.67
605.18	1779.31
605.53	1779.21
605.87	1778.83
606.22	1777.95
606.57	1776.40
606.92	1773.67
607.27	1772.57
607.62	1770.48
607.96	1770.50
608.31	1769.52
608.66	1767.86
609.01	1765.74
609.36	1765.60
609.70	1763.52
610.05	1761.71
610.40	1760.12
610.75	1757.17
611.10	1754.86
611.44	1751.57
611.79	1750.38
612.14	1748.00
612.49	1744.55
612.83	1742.29
613.18	1738.60
613.53	1736.10
613.88	1734.12
614.22	1731.69
614.57	1728.67
614.92	1725.50
615.27	1722.02
615.61	1717.88
615.96	1714.29
616.31	1710.29
616.65	1707.14
617.00	1705.12
617.35	1701.81
617.70	1699.83
618.04	1695.86
618.39	1691.95
618.74	1689.45
619.08	1685.12
619.43	1681.64
619.78	1678.55
620.12	1674.64
620.47	1671.57
620.82	1666.86
621.16	1661.40
621.51	1659.12
621.85	1654.43
622.20	1650.40
622.55	1646.12
622.89	1642.95
623.24	1640.74
623.59	1637.52
623.93	1633.43
624.28	1628.55
624.62	1627.10
624.97	1623.76
625.32	1620.24
625.66	1616.69
626.01	1613.88
626.35	1610.24
626.70	1606.29
627.04	1603.14
627.39	1599.02
627.73	1596.33
628.08	1593.40
628.43	1590.93
628.77	1586.05
629.12	1583.40
629.46	1580.52
629.81	1577.17
630.15	1572.48
630.50	1566.81
630.84	1562.29
631.19	1557.88
631.53	1553.86
631.88	1546.40
632.22	1540.05
632.57	1535.48
632.91	1530.48
633.26	1524.81
633.60	1519.67
633.95	1514.14
634.29	1507.67
634.64	1503.74
634.98	1498.40
635.32	1493.90
635.67	1490.00
636.01	1486.38
636.36	1481.07
636.70	1476.29
637.05	1470.83
637.39	1466.60
637.73	1462.40
638.08	1458.14
638.42	1453.60
638.77	1449.55
639.11	1445.33
639.45	1441.21
639.80	1436.02
640.14	1431.17
640.49	1426.81
640.83	1421.76
641.17	1417.86
641.52	1413.67
641.86	1407.88
642.20	1403.07
642.55	1397.48
642.89	1391.74
643.23	1385.71
643.58	1381.62
643.92	1374.88
644.26	1370.19
644.61	1365.50
644.95	1359.93
645.29	1354.40
645.64	1348.62
645.98	1342.83
646.32	1337.83
646.66	1331.67
647.01	1326.29
647.35	1321.26
647.69	1315.64
648.04	1311.45
648.38	1305.64
648.72	1300.02
649.06	1294.62
649.41	1288.40
649.75	1282.05
650.09	1276.40
650.43	1270.31
650.78	1263.33
651.12	1257.69
651.46	1251.38
651.80	1245.00
652.14	1238.31
652.49	1232.19
652.83	1226.33
653.17	1219.14
653.51	1212.86
653.85	1206.69
654.20	1200.26
654.54	1193.17
654.88	1186.38
655.22	1179.86
655.56	1173.26
655.90	1167.12
656.25	1160.76
656.59	1154.31
656.93	1148.76
657.27	1142.64
657.61	1136.26
657.95	1130.62
658.29	1124.76
658.64	1118.81
658.98	1112.29
659.32	1105.29
659.66	1099.19
660.00	1093.48
660.34	1087.50
660.68	1081.00
661.02	1075.14
661.36	1068.88
661.70	1063.45
662.05	1057.52
662.39	1051.29
662.73	1045.98
663.07	1041.45
663.41	1035.43
663.75	1029.76
664.09	1023.69
664.43	1016.90
664.77	1010.74
665.11	1003.81
665.45	998.50
665.79	992.81
666.13	986.81
666.47	981.57
666.81	975.74
667.15	969.48
667.49	964.00
667.83	959.24
668.17	953.05
668.51	947.48
668.85	941.31
669.19	936.86
669.53	931.00
669.87	924.93
670.21	917.57
670.55	911.67
670.89	907.07
671.23	901.64
671.57	896.86
671.91	891.69
672.25	887.02
672.58	882.40
672.92	876.40
673.26	872.05
673.60	867.45
673.94	862.02
674.28	857.19
674.62	852.88
674.96	847.40
675.30	842.79
675.64	837.69
675.97	833.45
676.31	828.31
676.65	822.90
676.99	818.40
677.33	813.64
677.67	809.14
678.01	803.38
678.34	798.10
678.68	793.50
679.02	788.48
679.36	783.07
679.70	776.93
680.04	772.64
680.37	767.05
680.71	761.67
681.05	757.19
681.39	752.19
681.73	746.93
682.06	742.05
682.40	737.45
682.74	733.00
683.08	728.36
683.42	722.76
683.75	718.36
684.09	712.57
684.43	708.07
684.77	702.98
685.10	697.71
685.44	693.57
685.78	688.81
686.12	684.36
686.45	680.17
686.79	675.57
687.13	671.17
687.46	666.86
687.80	662.95
688.14	658.17
688.48	654.10
688.81	649.67
689.15	645.55
689.49	640.67
689.82	636.33
690.16	631.31
690.50	626.95
690.83	622.71
691.17	619.02
691.51	614.21
691.84	610.48
692.18	606.98
692.52	602.64
692.85	598.60
693.19	595.64
693.52	591.21
693.86	587.12
694.20	582.79
694.53	578.48
694.87	574.40
695.21	570.10
695.54	565.76
695.88	561.36
696.21	556.55
696.55	552.83
696.88	548.93
697.22	545.29
697.56	541.93
697.89	538.07
698.23	534.71
698.56	531.50
698.90	527.95
699.23	523.52
699.57	520.21
699.90	516.21
700.24	511.36
700.58	508.12
700.91	505.14
701.25	503.55
701.58	500.95
701.92	497.95
702.25	495.05
702.59	491.64
702.92	488.95
703.26	486.12
703.59	483.12
703.93	481.98
704.26	478.93
704.60	475.79
704.93	472.24
705.26	468.57
705.60	465.55
705.93	461.88
706.27	459.81
706.60	456.98
706.94	455.00
707.27	451.93
707.61	449.29
707.94	446.17
708.27	441.38
708.61	437.88
708.94	435.05
709.28	432.76
709.61	429.79
709.94	427.50
710.28	425.36
710.61	422.64
710.95	417.74
711.28	416.88
711.61	414.17
711.95	412.60
712.28	410.40
712.61	408.17
712.95	407.19
713.28	405.67
713.61	403.14
713.95	400.02
714.28	398.29
714.61	396.00
714.95	394.31
715.28	392.17
715.61	389.81
715.95	387.76
716.28	385.36
716.61	384.02
716.95	380.86
717.28	378.69
717.61	376.40
717.94	374.67
718.28	371.17
718.61	369.17
718.94	367.10
719.27	364.93
719.61	362.83
719.94	360.05
720.27	357.02
720.60	354.95
720.94	353.07
721.27	351.07
721.60	349.31
721.93	347.07
722.27	346.19
722.60	345.00
722.93	343.21
723.26	341.76
723.59	339.43
723.93	338.43
724.26	336.90
724.59	335.79
724.92	334.26
725.25	333.19
725.59	331.69
725.92	330.33
726.25	329.19
726.58	327.69
726.91	326.26
727.24	325.38
727.57	324.12
727.91	322.67
728.24	321.69
728.57	320.19
728.90	319.48
729.23	317.14
729.56	316.81
729.89	315.31
730.22	313.86
730.55	312.81
730.89	312.00
731.22	310.74
731.55	309.33
731.88	308.36
732.21	307.02
732.54	305.98
732.87	304.88
733.20	303.69
733.53	303.05
733.86	302.07
734.19	300.81
734.52	299.76
734.85	299.90
735.18	298.57
735.51	298.48
735.84	297.21
736.17	297.00
736.50	295.02
736.83	296.83
737.16	295.71
737.49	295.19
737.82	293.74
738.15	293.14
738.48	292.14
738.81	291.14
739.14	289.86
739.47	288.95
739.80	288.10
740.13	287.43
740.46	286.17
740.79	285.24
741.12	284.29
741.45	283.43
741.78	281.90
742.11	281.98
742.44	280.69
742.77	280.29
743.10	279.50
743.43	278.71
743.75	275.43
744.08	277.62
744.41	276.57
744.74	275.86
745.07	274.67
745.40	274.38
745.73	274.36
746.06	273.86
746.39	273.33
746.71	272.19
747.04	271.05
747.37	270.24
747.70	270.05
748.03	269.52
748.36	269.02
748.68	268.17
749.01	266.76
749.34	266.02
749.67	265.36
750.00	264.88
750.33	265.86
750.65	265.36
750.98	262.19
751.31	261.62
751.64	261.31
751.97	261.74
752.29	261.12
752.62	259.64
752.95	259.21
753.28	258.52
753.60	257.95
753.93	257.93
754.26	257.81
754.59	256.67
754.91	255.86
755.24	255.62
755.57	254.93
755.90	254.43
756.22	253.83
756.55	253.00
756.88	252.12
757.20	250.17
757.53	249.12
757.86	248.57
758.19	248.12
758.51	247.57
758.84	246.10
759.17	245.33
759.49	245.12
759.82	245.67
760.15	245.33
760.47	244.81
760.80	244.19
761.13	244.10
761.45	243.71
761.78	243.45
762.11	242.69
762.43	242.29
762.76	241.81
763.08	241.71
763.41	241.62
763.74	241.40
764.06	241.07
764.39	240.83
764.71	240.14
765.04	239.71
765.37	239.14
765.69	238.81
766.02	238.71
766.34	238.19
766.67	236.60
767.00	236.90
767.32	237.86
767.65	238.62
767.97	237.64
768.30	237.50
768.62	236.95
768.95	236.45
769.27	236.10
769.60	236.31
769.92	235.69
770.25	235.02
770.57	234.26
770.90	234.14
771.22	233.69
771.55	233.93
771.87	233.62
772.20	233.33
772.52	234.83
772.85	236.90
773.17	236.83
773.50	237.12
773.82	236.33
774.15	234.79
774.47	233.33
774.80	233.19
775.12	233.05
775.45	232.90
775.77	232.88
776.09	232.83
776.42	232.36
776.74	232.79
777.07	232.52
777.39	232.60
777.72	232.33
778.04	232.55
778.36	232.12
778.69	232.00
779.01	232.07
779.33	229.88
779.66	227.62
779.98	227.29
780.31	226.88
780.63	227.48
780.95	227.83
781.28	227.71
781.60	227.38
781.92	227.12
782.25	226.76
782.57	226.48
782.89	226.26
783.22	226.21
783.54	225.55
783.86	225.52
784.19	225.07
784.51	225.12
784.83	224.55
