SpectraSuite Data File
++++++++++++++++++++++++++++++++++++
Date: Tue Apr 02 18:42:02 EDT 2013
User: group
Dark Spectrum Present: No
Reference Spectrum Present: No
Number of Sampled Component Spectra: 1
Spectrometers: USB2E7196
Integration Time (usec): 580000 (USB2E7196)
Spectra Averaged: 2 (USB2E7196)
Boxcar Smoothing: 10 (USB2E7196)
Correct for Electrical Dark: No (USB2E7196)
Strobe/Lamp Enabled: No (USB2E7196)
Correct for Detector Non-linearity: No (USB2E7196)
Correct for Stray Light: No (USB2E7196)
Number of Pixels in Processed Spectrum: 2048
>>>>>Begin Processed Spectral Data<<<<<
339.09	0.00
339.48	192.50
339.86	193.00
340.24	195.00
340.63	199.00
341.01	231.50
341.39	200.00
341.78	205.50
342.16	211.00
342.54	207.50
342.93	197.55
343.31	207.43
343.69	208.12
344.07	208.76
344.46	209.55
344.84	209.88
345.22	208.64
345.60	209.12
345.99	209.48
346.37	209.48
346.75	209.45
347.13	209.48
347.52	209.52
347.90	210.21
348.28	210.43
348.66	210.76
349.05	210.00
349.43	210.52
349.81	210.62
350.19	210.55
350.57	210.60
350.96	210.88
351.34	211.14
351.72	211.19
352.10	211.26
352.48	211.05
352.87	211.12
353.25	211.26
353.63	211.19
354.01	211.14
354.39	211.24
354.77	211.45
355.15	212.07
355.54	212.17
355.92	211.57
356.30	211.86
356.68	213.43
357.06	213.69
357.44	213.02
357.82	212.83
358.20	213.64
358.58	213.52
358.97	213.60
359.35	214.05
359.73	214.55
360.11	214.52
360.49	214.86
360.87	214.98
361.25	215.26
361.63	216.00
362.01	215.88
362.39	215.71
362.77	215.83
363.15	215.57
363.53	215.26
363.91	215.64
364.29	215.31
364.67	213.29
365.05	213.14
365.43	213.69
365.81	214.10
366.19	214.60
366.57	215.48
366.95	215.43
367.33	214.79
367.71	214.55
368.09	214.88
368.47	214.76
368.85	214.74
369.23	215.14
369.61	214.40
369.99	215.24
370.37	215.62
370.75	216.57
371.13	216.14
371.51	216.05
371.89	215.88
372.27	216.24
372.65	216.43
373.03	216.74
373.41	216.52
373.78	216.31
374.16	214.95
374.54	214.50
374.92	214.45
375.30	214.55
375.68	214.19
376.06	214.64
376.44	214.40
376.82	214.55
377.19	214.29
377.57	214.43
377.95	213.69
378.33	213.60
378.71	212.31
379.09	212.88
379.47	213.24
379.84	213.12
380.22	212.81
380.60	212.60
380.98	212.43
381.36	212.31
381.73	212.12
382.11	212.64
382.49	212.64
382.87	212.43
383.25	212.38
383.62	214.90
384.00	214.26
384.38	214.62
384.76	215.14
385.13	216.00
385.51	215.83
385.89	215.57
386.27	215.36
386.64	215.76
387.02	215.52
387.40	215.17
387.78	215.43
388.15	215.64
388.53	215.31
388.91	215.43
389.29	215.52
389.66	216.02
390.04	215.57
390.42	216.07
390.79	216.21
391.17	216.33
391.55	214.19
391.92	214.29
392.30	214.26
392.68	213.71
393.05	213.48
393.43	213.67
393.81	213.83
394.18	213.64
394.56	213.83
394.94	214.31
395.31	214.29
395.69	214.69
396.06	214.93
396.44	215.48
396.82	215.29
397.19	216.36
397.57	215.98
397.95	216.52
398.32	215.76
398.70	216.02
399.07	216.52
399.45	216.19
399.82	216.29
400.20	216.29
400.58	216.33
400.95	215.40
401.33	215.74
401.70	217.31
402.08	217.60
402.45	217.50
402.83	217.86
403.20	218.29
403.58	218.31
403.95	218.60
404.33	218.95
404.71	219.19
405.08	220.33
405.46	220.62
405.83	220.93
406.21	221.45
406.58	221.69
406.96	221.88
407.33	222.83
407.70	223.48
408.08	225.57
408.45	226.38
408.83	227.76
409.20	228.19
409.58	227.69
409.95	228.88
410.33	230.10
410.70	230.29
411.08	231.52
411.45	232.48
411.82	233.33
412.20	234.71
412.57	237.33
412.95	236.90
413.32	238.83
413.69	240.19
414.07	241.79
414.44	243.69
414.82	245.69
415.19	247.83
415.56	249.95
415.94	251.14
416.31	254.14
416.68	256.88
417.06	260.55
417.43	264.50
417.81	267.74
418.18	271.40
418.55	275.36
418.93	279.29
419.30	283.60
419.67	288.02
420.04	292.52
420.42	296.79
420.79	304.02
421.16	309.55
421.54	316.74
421.91	322.81
422.28	328.95
422.66	335.55
423.03	343.62
423.40	350.93
423.77	358.29
424.15	365.36
424.52	373.17
424.89	381.38
425.26	388.83
425.64	396.60
426.01	404.81
426.38	413.48
426.75	422.93
427.13	432.64
427.50	442.52
427.87	453.00
428.24	463.05
428.61	471.79
428.99	483.29
429.36	493.60
429.73	505.45
430.10	516.93
430.47	528.98
430.85	539.64
431.22	552.48
431.59	567.76
431.96	580.76
432.33	594.81
432.70	608.79
433.08	624.98
433.45	640.67
433.82	656.07
434.19	673.38
434.56	690.52
434.93	706.40
435.30	722.57
435.68	740.40
436.05	758.40
436.42	775.40
436.79	791.17
437.16	808.76
437.53	826.64
437.90	845.00
438.27	863.55
438.64	881.83
439.01	899.24
439.38	912.62
439.75	927.52
440.13	945.07
440.50	961.60
440.87	975.10
441.24	988.62
441.61	1003.67
441.98	1015.12
442.35	1027.76
442.72	1040.24
443.09	1054.10
443.46	1061.52
443.83	1066.62
444.20	1071.07
444.57	1077.31
444.94	1080.69
445.31	1084.40
445.68	1090.26
446.05	1090.90
446.42	1090.00
446.79	1088.83
447.16	1087.14
447.53	1086.64
447.90	1079.62
448.27	1072.95
448.64	1063.76
449.01	1057.40
449.37	1045.67
449.74	1034.43
450.11	1023.05
450.48	1008.55
450.85	992.19
451.22	979.24
451.59	967.07
451.96	955.86
452.33	940.07
452.70	925.88
453.07	908.69
453.43	888.45
453.80	872.55
454.17	856.26
454.54	840.52
454.91	824.26
455.28	807.60
455.65	792.43
456.02	780.50
456.38	767.90
456.75	752.19
457.12	738.81
457.49	725.40
457.86	710.43
458.23	700.36
458.59	688.48
458.96	676.62
459.33	664.88
459.70	654.07
460.07	645.62
460.43	635.86
460.80	626.79
461.17	619.33
461.54	610.24
461.91	602.50
462.27	593.33
462.64	586.17
463.01	578.62
463.38	572.57
463.74	561.64
464.11	554.62
464.48	549.07
464.85	543.02
465.21	538.50
465.58	533.26
465.95	526.57
466.32	521.88
466.68	516.48
467.05	511.95
467.42	506.81
467.78	501.38
468.15	496.14
468.52	492.26
468.88	486.90
469.25	482.19
469.62	478.45
469.98	474.52
470.35	470.90
470.72	466.98
471.08	461.86
471.45	458.74
471.82	456.19
472.18	452.12
472.55	449.57
472.92	446.17
473.28	443.14
473.65	440.38
474.02	437.19
474.38	435.12
474.75	432.88
475.11	430.60
475.48	428.74
475.85	427.10
476.21	425.40
476.58	424.26
476.94	423.31
477.31	421.60
477.67	420.71
478.04	419.26
478.41	418.64
478.77	419.86
479.14	418.98
479.50	417.95
479.87	418.07
480.23	417.69
480.60	416.98
480.96	416.86
481.33	417.29
481.69	417.74
482.06	417.83
482.42	418.38
482.79	418.90
483.15	419.21
483.52	419.95
483.88	420.19
484.25	420.52
484.61	421.00
484.98	422.02
485.34	423.64
485.71	425.36
486.07	426.60
486.44	426.55
486.80	428.05
487.17	429.69
487.53	431.69
487.90	433.64
488.26	436.67
488.62	439.60
488.99	441.50
489.35	444.19
489.72	446.64
490.08	449.19
490.44	451.81
490.81	455.07
491.17	457.81
491.54	461.62
491.90	465.55
492.26	469.29
492.63	473.05
492.99	476.36
493.36	480.33
493.72	485.05
494.08	489.19
494.45	494.45
494.81	499.36
495.17	503.74
495.54	509.74
495.90	514.57
496.26	519.40
496.63	524.76
496.99	530.29
497.35	536.43
497.72	542.45
498.08	548.62
498.44	555.05
498.80	561.67
499.17	567.64
499.53	573.64
499.89	580.43
500.26	587.76
500.62	595.14
500.98	602.74
501.34	609.55
501.71	617.05
502.07	623.26
502.43	630.50
502.79	637.81
503.16	644.17
503.52	651.33
503.88	658.21
504.24	666.33
504.60	673.52
504.97	681.64
505.33	688.95
505.69	697.38
506.05	704.79
506.41	711.93
506.78	719.57
507.14	727.64
507.50	735.36
507.86	743.12
508.22	750.83
508.59	757.79
508.95	766.12
509.31	774.62
509.67	782.83
510.03	790.33
510.39	798.05
510.75	805.52
511.12	813.50
511.48	821.64
511.84	829.05
512.20	836.79
512.56	843.93
512.92	852.19
513.28	859.02
513.64	866.62
514.00	875.57
514.37	883.64
514.73	891.02
515.09	898.43
515.45	904.95
515.81	911.88
516.17	919.31
516.53	925.00
516.89	930.76
517.25	937.07
517.61	944.90
517.97	951.83
518.33	958.76
518.69	965.81
519.05	972.17
519.41	978.98
519.77	986.26
520.13	992.02
520.49	997.26
520.85	1003.79
521.21	1010.19
521.57	1015.48
521.93	1020.71
522.29	1026.33
522.65	1031.21
523.01	1037.48
523.37	1042.81
523.73	1048.62
524.09	1054.52
524.45	1059.71
524.81	1065.12
525.17	1069.40
525.53	1074.00
525.89	1078.83
526.25	1083.40
526.61	1088.36
526.97	1092.55
527.33	1096.93
527.68	1103.45
528.04	1108.64
528.40	1113.10
528.76	1117.29
529.12	1121.74
529.48	1126.88
529.84	1130.83
530.20	1136.45
530.56	1140.67
530.91	1145.64
531.27	1150.24
531.63	1155.19
531.99	1159.62
532.35	1163.36
532.71	1167.43
533.07	1171.90
533.42	1178.62
533.78	1183.05
534.14	1187.50
534.50	1192.10
534.86	1196.50
535.21	1199.55
535.57	1204.21
535.93	1207.69
536.29	1212.83
536.65	1216.81
537.00	1219.83
537.36	1224.17
537.72	1227.33
538.08	1230.98
538.44	1233.74
538.79	1236.33
539.15	1238.55
539.51	1242.90
539.87	1247.55
540.22	1251.26
540.58	1255.67
540.94	1257.26
541.29	1260.19
541.65	1263.07
542.01	1266.36
542.37	1268.88
542.72	1271.00
543.08	1273.17
543.44	1276.86
543.79	1278.81
544.15	1281.69
544.51	1285.40
544.87	1288.60
545.22	1292.19
545.58	1295.76
545.94	1299.29
546.29	1302.90
546.65	1306.57
547.01	1308.24
547.36	1310.21
547.72	1312.88
548.07	1316.00
548.43	1318.67
548.79	1321.26
549.14	1323.79
549.50	1326.26
549.86	1328.79
550.21	1331.90
550.57	1335.95
550.92	1338.48
551.28	1341.52
551.64	1344.36
551.99	1347.88
552.35	1351.12
552.70	1353.76
553.06	1356.21
553.41	1358.95
553.77	1364.17
554.13	1367.36
554.48	1372.76
554.84	1377.81
555.19	1382.05
555.55	1385.95
555.90	1389.26
556.26	1393.12
556.61	1397.10
556.97	1400.50
557.32	1405.24
557.68	1409.36
558.03	1413.10
558.39	1417.31
558.74	1421.45
559.10	1426.02
559.45	1429.93
559.81	1434.38
560.16	1438.81
560.52	1443.38
560.87	1448.69
561.23	1451.26
561.58	1458.00
561.94	1460.95
562.29	1464.86
562.64	1469.60
563.00	1473.62
563.35	1477.93
563.71	1483.05
564.06	1488.55
564.42	1494.95
564.77	1500.62
565.12	1506.64
565.48	1513.81
565.83	1519.36
566.19	1524.81
566.54	1530.14
566.89	1535.67
567.25	1541.76
567.60	1548.86
567.96	1556.55
568.31	1563.07
568.66	1569.83
569.02	1574.76
569.37	1581.05
569.72	1586.40
570.08	1591.55
570.43	1596.29
570.78	1602.45
571.14	1607.86
571.49	1612.90
571.84	1617.62
572.20	1621.79
572.55	1626.74
572.90	1629.12
573.26	1633.76
573.61	1638.14
573.96	1643.81
574.31	1648.07
574.67	1651.71
575.02	1654.31
575.37	1654.98
575.72	1657.62
576.08	1660.43
576.43	1663.02
576.78	1665.48
577.13	1668.93
577.49	1672.52
577.84	1676.50
578.19	1680.57
578.54	1684.93
578.90	1688.67
579.25	1691.26
579.60	1693.88
579.95	1696.36
580.30	1700.00
580.66	1703.86
581.01	1707.17
581.36	1708.48
581.71	1711.02
582.06	1715.31
582.42	1718.38
582.77	1722.60
583.12	1725.43
583.47	1728.52
583.82	1731.98
584.17	1735.86
584.53	1738.95
584.88	1741.71
585.23	1743.86
585.58	1744.95
585.93	1745.55
586.28	1747.86
586.63	1750.98
586.98	1753.86
587.34	1757.05
587.69	1759.17
588.04	1760.24
588.39	1762.33
588.74	1763.48
589.09	1765.29
589.44	1764.71
589.79	1767.14
590.14	1769.07
590.49	1770.05
590.84	1770.83
591.19	1771.17
591.54	1771.95
591.89	1772.81
592.25	1775.57
592.60	1776.17
592.95	1778.19
593.30	1779.67
593.65	1779.55
594.00	1778.67
594.35	1784.79
594.70	1783.71
595.05	1784.50
595.40	1785.02
595.75	1785.00
596.10	1787.33
596.45	1788.26
596.80	1789.38
597.15	1788.71
597.50	1788.69
597.85	1789.90
598.19	1789.88
598.54	1790.14
598.89	1789.74
599.24	1790.21
599.59	1788.14
599.94	1788.00
600.29	1787.19
600.64	1787.17
600.99	1787.24
601.34	1788.33
601.69	1781.98
602.04	1781.14
602.39	1779.67
602.74	1779.60
603.08	1778.52
603.43	1778.19
603.78	1777.00
604.13	1775.86
604.48	1774.90
604.83	1773.26
605.18	1771.83
605.53	1770.93
605.87	1769.60
606.22	1768.38
606.57	1766.83
606.92	1764.83
607.27	1764.60
607.62	1763.64
607.96	1762.60
608.31	1761.95
608.66	1759.71
609.01	1757.81
609.36	1756.62
609.70	1754.81
610.05	1752.05
610.40	1750.38
610.75	1746.60
611.10	1744.43
611.44	1741.00
611.79	1737.60
612.14	1735.74
612.49	1732.90
612.83	1729.14
613.18	1725.43
613.53	1722.14
613.88	1718.17
614.22	1714.74
614.57	1710.90
614.92	1706.88
615.27	1702.93
615.61	1698.07
615.96	1693.36
616.31	1689.38
616.65	1686.50
617.00	1683.14
617.35	1678.98
617.70	1674.90
618.04	1670.74
618.39	1665.60
618.74	1661.90
619.08	1657.48
619.43	1652.45
619.78	1648.24
620.12	1645.31
620.47	1641.38
620.82	1636.45
621.16	1631.33
621.51	1629.10
621.85	1623.50
622.20	1618.36
622.55	1612.98
622.89	1608.98
623.24	1605.95
623.59	1601.29
623.93	1596.14
624.28	1591.33
624.62	1589.86
624.97	1586.10
625.32	1581.81
625.66	1578.29
626.01	1574.10
626.35	1571.05
626.70	1566.64
627.04	1562.74
627.39	1557.19
627.73	1553.98
628.08	1550.93
628.43	1547.17
628.77	1541.45
629.12	1538.07
629.46	1534.48
629.81	1530.55
630.15	1525.40
630.50	1520.60
630.84	1515.64
631.19	1509.81
631.53	1504.95
631.88	1496.29
632.22	1489.62
632.57	1485.48
632.91	1479.86
633.26	1475.14
633.60	1468.90
633.95	1463.26
634.29	1456.71
634.64	1452.64
634.98	1446.43
635.32	1441.12
635.67	1436.95
636.01	1432.17
636.36	1426.12
636.70	1421.26
637.05	1416.12
637.39	1411.26
637.73	1406.07
638.08	1401.64
638.42	1397.62
638.77	1391.71
639.11	1386.81
639.45	1381.79
639.80	1374.76
640.14	1369.33
640.49	1363.52
640.83	1357.93
641.17	1353.48
641.52	1347.60
641.86	1341.19
642.20	1336.48
642.55	1330.17
642.89	1323.52
643.23	1317.19
643.58	1312.21
643.92	1305.19
644.26	1298.83
644.61	1292.55
644.95	1285.95
645.29	1279.14
645.64	1273.19
645.98	1267.62
646.32	1262.60
646.66	1255.81
647.01	1250.00
647.35	1244.52
647.69	1238.83
648.04	1233.67
648.38	1226.79
648.72	1221.21
649.06	1214.95
649.41	1208.40
649.75	1201.67
650.09	1195.81
650.43	1188.71
650.78	1181.69
651.12	1175.67
651.46	1169.36
651.80	1163.14
652.14	1156.43
652.49	1150.57
652.83	1143.67
653.17	1136.50
653.51	1128.71
653.85	1122.86
654.20	1116.74
654.54	1109.36
654.88	1101.79
655.22	1095.55
655.56	1088.50
655.90	1082.14
656.25	1075.26
656.59	1068.31
656.93	1061.76
657.27	1055.81
657.61	1049.62
657.95	1043.36
658.29	1036.86
658.64	1031.19
658.98	1024.40
659.32	1018.14
659.66	1011.45
660.00	1005.52
660.34	999.07
660.68	992.93
661.02	986.79
661.36	980.24
661.70	974.38
662.05	969.05
662.39	962.76
662.73	958.21
663.07	953.33
663.41	947.86
663.75	941.93
664.09	936.19
664.43	929.79
664.77	923.57
665.11	917.10
665.45	911.26
665.79	904.88
666.13	898.38
666.47	892.81
666.81	887.48
667.15	881.26
667.49	876.43
667.83	872.19
668.17	866.64
668.51	861.36
668.85	855.64
669.19	850.50
669.53	844.17
669.87	837.76
670.21	831.21
670.55	824.71
670.89	820.07
671.23	815.29
671.57	809.07
671.91	804.26
672.25	799.19
672.58	794.43
672.92	788.98
673.26	784.36
673.60	778.86
673.94	773.57
674.28	768.48
674.62	763.36
674.96	757.71
675.30	753.31
675.64	748.45
675.97	743.98
676.31	737.95
676.65	733.05
676.99	729.31
677.33	724.29
677.67	720.57
678.01	714.79
678.34	710.19
678.68	706.71
679.02	701.62
679.36	697.24
679.70	692.10
680.04	687.33
680.37	682.69
680.71	678.26
681.05	673.69
681.39	669.60
681.73	664.88
682.06	660.29
682.40	655.31
682.74	650.74
683.08	646.79
683.42	642.50
683.75	638.69
684.09	633.26
684.43	628.86
684.77	624.21
685.10	620.26
685.44	615.74
685.78	611.14
686.12	607.26
686.45	603.24
686.79	599.12
687.13	595.02
687.46	591.36
687.80	588.02
688.14	584.02
688.48	579.55
688.81	575.67
689.15	572.10
689.49	567.57
689.82	563.76
690.16	558.74
690.50	554.86
690.83	550.60
691.17	546.26
691.51	542.55
691.84	538.79
692.18	534.79
692.52	531.10
692.85	527.45
693.19	524.19
693.52	520.02
693.86	516.10
694.20	512.67
694.53	508.64
694.87	504.12
695.21	500.60
695.54	497.29
695.88	493.60
696.21	489.55
696.55	486.83
696.88	483.19
697.22	480.05
697.56	477.19
697.89	473.48
698.23	470.98
698.56	467.40
698.90	464.17
699.23	460.48
699.57	457.05
699.90	453.48
700.24	450.05
700.58	447.38
700.91	444.69
701.25	443.69
701.58	441.71
701.92	439.62
702.25	436.60
702.59	433.31
702.92	430.57
703.26	427.98
703.59	425.21
703.93	424.48
704.26	422.14
704.60	419.50
704.93	417.26
705.26	414.48
705.60	412.52
705.93	410.00
706.27	408.62
706.60	406.45
706.94	404.98
707.27	402.07
707.61	399.79
707.94	397.52
708.27	393.05
708.61	390.02
708.94	387.45
709.28	385.48
709.61	383.60
709.94	381.62
710.28	379.83
710.61	377.79
710.95	374.10
711.28	373.21
711.61	371.17
711.95	369.90
712.28	367.71
712.61	365.55
712.95	364.48
713.28	363.36
713.61	361.81
713.95	359.52
714.28	358.14
714.61	356.26
714.95	354.43
715.28	352.52
715.61	350.88
715.95	349.48
716.28	347.62
716.61	346.33
716.95	344.50
717.28	342.31
717.61	340.57
717.94	338.90
718.28	336.10
718.61	334.36
718.94	332.29
719.27	331.02
719.61	329.69
719.94	327.36
720.27	324.55
720.60	322.88
720.94	321.05
721.27	319.86
721.60	318.50
721.93	317.02
722.27	316.67
722.60	315.64
722.93	314.24
723.26	313.43
723.59	311.48
723.93	310.52
724.26	309.74
724.59	308.45
724.92	307.48
725.25	307.00
725.59	305.98
725.92	305.19
726.25	303.64
726.58	302.88
726.91	302.14
727.24	301.62
727.57	300.43
727.91	299.19
728.24	298.19
728.57	297.05
728.90	296.40
729.23	294.69
729.56	294.43
729.89	293.38
730.22	291.71
730.55	290.95
730.89	290.29
731.22	289.10
731.55	288.50
731.88	287.57
732.21	286.19
732.54	285.19
732.87	284.29
733.20	284.00
733.53	282.81
733.86	282.19
734.19	280.88
734.52	280.24
734.85	280.88
735.18	279.81
735.51	279.67
735.84	278.86
736.17	278.64
736.50	276.86
736.83	278.36
737.16	277.95
737.49	277.38
737.82	276.33
738.15	275.95
738.48	275.31
738.81	274.26
739.14	273.48
739.47	272.83
739.80	271.88
740.13	271.10
740.46	270.07
740.79	269.19
741.12	268.81
741.45	268.07
741.78	266.40
742.11	266.67
742.44	265.76
742.77	265.50
743.10	264.52
743.43	263.81
743.75	261.07
744.08	263.12
744.41	262.64
744.74	262.19
745.07	261.19
745.40	261.07
745.73	261.60
746.06	261.17
746.39	260.93
746.71	260.45
747.04	259.71
747.37	259.14
747.70	258.81
748.03	258.24
748.36	257.98
748.68	257.38
749.01	256.00
749.34	255.38
749.67	254.90
750.00	255.07
750.33	256.48
750.65	256.36
750.98	253.48
751.31	253.12
751.64	252.74
751.97	253.64
752.29	252.93
752.62	251.55
752.95	250.83
753.28	250.05
753.60	249.40
753.93	249.62
754.26	249.69
754.59	248.90
754.91	248.14
755.24	247.48
755.57	247.21
755.90	246.88
756.22	246.40
756.55	245.62
756.88	244.62
757.20	242.90
757.53	241.67
757.86	241.33
758.19	240.98
758.51	240.38
758.84	239.10
759.17	238.43
759.49	238.29
759.82	239.19
760.15	239.19
760.47	239.05
760.80	238.07
761.13	237.98
761.45	237.71
761.78	237.64
762.11	237.45
762.43	237.19
762.76	236.79
763.08	236.86
763.41	236.74
763.74	236.67
764.06	236.14
764.39	236.19
764.71	235.81
765.04	235.19
765.37	234.83
765.69	234.33
766.02	234.10
766.34	233.64
766.67	232.24
767.00	232.10
767.32	232.90
767.65	234.24
767.97	233.83
768.30	233.67
768.62	233.26
768.95	232.79
769.27	232.38
769.60	232.67
769.92	232.21
770.25	231.62
770.57	231.12
770.90	230.86
771.22	230.38
771.55	230.29
771.87	230.19
772.20	230.17
772.52	231.74
772.85	233.98
773.17	233.88
773.50	233.71
773.82	233.33
774.15	232.24
774.47	230.38
774.80	230.00
775.12	229.71
775.45	229.60
775.77	229.79
776.09	230.10
776.42	229.76
776.74	230.29
777.07	229.98
777.39	229.98
777.72	229.67
778.04	229.76
778.36	229.38
778.69	229.21
779.01	229.05
779.33	227.17
779.66	224.71
779.98	224.40
780.31	224.52
780.63	225.50
780.95	225.74
781.28	225.83
781.60	225.60
781.92	225.67
782.25	225.55
782.57	225.29
782.89	224.62
783.22	224.31
783.54	223.48
783.86	223.71
784.19	223.26
784.51	223.71
784.83	223.36
785.16	223.12
