SpectraSuite Data File
++++++++++++++++++++++++++++++++++++
Date: Tue Apr 02 18:45:06 EDT 2013
User: group
Dark Spectrum Present: No
Reference Spectrum Present: No
Number of Sampled Component Spectra: 1
Spectrometers: USB2E7196
Integration Time (usec): 580000 (USB2E7196)
Spectra Averaged: 2 (USB2E7196)
Boxcar Smoothing: 10 (USB2E7196)
Correct for Electrical Dark: No (USB2E7196)
Strobe/Lamp Enabled: No (USB2E7196)
Correct for Detector Non-linearity: No (USB2E7196)
Correct for Stray Light: No (USB2E7196)
Number of Pixels in Processed Spectrum: 2048
>>>>>Begin Processed Spectral Data<<<<<
339.09	0.00
339.48	192.50
339.86	194.50
340.24	193.00
340.63	198.00
341.01	237.00
341.39	204.00
341.78	202.50
342.16	209.00
342.54	207.00
342.93	197.57
343.31	207.50
343.69	208.26
344.07	209.00
344.46	210.02
344.84	210.76
345.22	209.52
345.60	209.98
345.99	210.33
346.37	210.45
346.75	210.67
347.13	210.90
347.52	210.98
347.90	211.88
348.28	212.36
348.66	212.50
349.05	212.07
349.43	212.48
349.81	212.69
350.19	212.88
350.57	212.88
350.96	213.10
351.34	213.31
351.72	213.29
352.10	213.17
352.48	212.83
352.87	212.74
353.25	212.90
353.63	212.88
354.01	212.93
354.39	212.98
354.77	213.00
355.15	213.74
355.54	213.76
355.92	213.14
356.30	213.19
356.68	214.55
357.06	214.86
357.44	214.52
357.82	214.52
358.20	215.50
358.58	215.60
358.97	215.69
359.35	216.17
359.73	216.76
360.11	216.79
360.49	217.19
360.87	217.21
361.25	217.36
361.63	217.90
362.01	218.21
362.39	218.02
362.77	218.17
363.15	218.00
363.53	218.00
363.91	218.33
364.29	218.24
364.67	216.36
365.05	216.24
365.43	216.50
365.81	216.86
366.19	216.86
366.57	217.69
366.95	217.57
367.33	217.10
367.71	217.12
368.09	217.62
368.47	217.45
368.85	217.43
369.23	217.83
369.61	217.02
369.99	217.52
370.37	217.95
370.75	218.90
371.13	218.38
371.51	218.21
371.89	218.19
372.27	218.00
372.65	218.31
373.03	218.48
373.41	218.36
373.78	218.05
374.16	217.10
374.54	216.40
374.92	216.19
375.30	216.12
375.68	215.48
376.06	215.55
376.44	215.31
376.82	215.07
377.19	214.81
377.57	214.86
377.95	214.14
378.33	214.07
378.71	212.79
379.09	213.14
379.47	213.45
379.84	213.17
380.22	213.05
380.60	212.48
380.98	212.26
381.36	212.21
381.73	212.12
382.11	212.48
382.49	212.50
382.87	212.36
383.25	212.19
383.62	214.67
384.00	214.19
384.38	214.36
384.76	215.19
385.13	216.05
385.51	216.10
385.89	215.93
386.27	215.83
386.64	216.26
387.02	215.95
387.40	215.48
387.78	215.57
388.15	215.67
388.53	215.60
388.91	215.74
389.29	215.62
389.66	215.88
390.04	215.71
390.42	216.07
390.79	216.14
391.17	216.29
391.55	213.98
391.92	214.00
392.30	214.07
392.68	213.69
393.05	213.29
393.43	213.26
393.81	213.43
394.18	213.38
394.56	213.52
394.94	214.05
395.31	214.10
395.69	214.60
396.06	214.98
396.44	215.40
396.82	215.24
397.19	216.19
397.57	215.88
397.95	215.98
398.32	215.36
398.70	215.71
399.07	215.98
399.45	216.05
399.82	216.10
400.20	216.00
400.58	215.90
400.95	215.26
401.33	215.79
401.70	217.33
402.08	217.29
402.45	217.24
402.83	217.74
403.20	218.02
403.58	218.07
403.95	218.52
404.33	218.76
404.71	218.93
405.08	219.95
405.46	220.31
405.83	220.64
406.21	221.24
406.58	221.76
406.96	222.12
407.33	222.67
407.70	223.52
408.08	225.81
408.45	226.64
408.83	227.74
409.20	228.17
409.58	227.48
409.95	228.64
410.33	229.45
410.70	229.67
411.08	230.74
411.45	231.81
411.82	232.52
412.20	233.95
412.57	236.45
412.95	235.98
413.32	237.76
413.69	239.24
414.07	240.90
414.44	242.40
414.82	244.50
415.19	246.95
415.56	248.98
415.94	250.12
416.31	252.93
416.68	255.90
417.06	259.24
417.43	262.98
417.81	266.43
418.18	270.02
418.55	273.81
418.93	277.83
419.30	281.60
419.67	286.12
420.04	290.64
420.42	295.00
420.79	302.50
421.16	308.19
421.54	315.33
421.91	321.33
422.28	327.67
422.66	334.40
423.03	341.83
423.40	348.79
423.77	356.10
424.15	362.76
424.52	370.19
424.89	378.64
425.26	386.14
425.64	393.52
426.01	401.81
426.38	410.36
426.75	419.76
427.13	429.24
427.50	438.90
427.87	448.90
428.24	458.83
428.61	467.43
428.99	478.71
429.36	489.00
429.73	500.31
430.10	511.71
430.47	523.33
430.85	534.33
431.22	546.50
431.59	561.07
431.96	574.10
432.33	588.10
432.70	601.45
433.08	617.14
433.45	632.48
433.82	647.62
434.19	664.48
434.56	680.81
434.93	696.24
435.30	711.52
435.68	728.88
436.05	745.50
436.42	761.90
436.79	777.38
437.16	794.45
437.53	812.55
437.90	829.95
438.27	847.26
438.64	865.55
439.01	882.93
439.38	896.02
439.75	911.14
440.13	927.90
440.50	942.76
440.87	955.98
441.24	969.40
441.61	983.43
441.98	994.67
442.35	1006.74
442.72	1019.93
443.09	1033.79
443.46	1041.79
443.83	1046.93
444.20	1051.57
444.57	1057.90
444.94	1060.90
445.31	1064.83
445.68	1070.26
446.05	1071.69
446.42	1069.88
446.79	1069.19
447.16	1067.93
447.53	1066.93
447.90	1059.76
448.27	1054.21
448.64	1045.52
449.01	1039.33
449.37	1028.21
449.74	1017.14
450.11	1006.10
450.48	991.19
450.85	975.12
451.22	962.29
451.59	950.71
451.96	939.29
452.33	923.26
452.70	909.55
453.07	892.07
453.43	873.07
453.80	857.24
454.17	841.64
454.54	825.21
454.91	808.81
455.28	792.88
455.65	778.98
456.02	767.40
456.38	754.74
456.75	739.21
457.12	726.40
457.49	713.79
457.86	699.36
458.23	689.67
458.59	678.07
458.96	666.14
459.33	655.83
459.70	645.60
460.07	637.69
460.43	627.79
460.80	619.21
461.17	611.95
461.54	603.60
461.91	595.71
462.27	588.12
462.64	581.38
463.01	573.36
463.38	566.71
463.74	556.12
464.11	549.95
464.48	544.33
464.85	538.48
465.21	534.02
465.58	529.19
465.95	522.64
466.32	517.79
466.68	512.57
467.05	507.21
467.42	502.19
467.78	496.76
468.15	491.98
468.52	487.60
468.88	482.10
469.25	476.98
469.62	473.88
469.98	469.79
470.35	466.14
470.72	462.95
471.08	458.26
471.45	455.74
471.82	452.71
472.18	448.88
472.55	446.33
472.92	442.38
473.28	439.38
473.65	436.57
474.02	434.24
474.38	432.48
474.75	430.95
475.11	428.50
475.48	426.71
475.85	424.93
476.21	423.29
476.58	422.00
476.94	420.98
477.31	419.43
477.67	418.10
478.04	417.02
478.41	416.31
478.77	417.29
479.14	416.31
479.50	415.60
479.87	415.52
480.23	415.14
480.60	414.83
480.96	414.95
481.33	415.50
481.69	415.21
482.06	415.33
482.42	415.24
482.79	415.93
483.15	416.33
483.52	417.21
483.88	417.48
484.25	417.95
484.61	418.86
484.98	419.31
485.34	421.26
485.71	422.93
486.07	424.50
486.44	424.38
486.80	425.74
487.17	427.10
487.53	429.52
487.90	431.76
488.26	434.71
488.62	437.50
488.99	439.29
489.35	441.98
489.72	443.93
490.08	446.67
490.44	449.33
490.81	452.60
491.17	455.83
491.54	459.64
491.90	463.33
492.26	466.83
492.63	470.83
492.99	474.14
493.36	478.19
493.72	482.31
494.08	486.57
494.45	491.64
494.81	496.90
495.17	501.17
495.54	506.43
495.90	511.14
496.26	516.29
496.63	522.21
496.99	527.55
497.35	533.43
497.72	539.50
498.08	545.45
498.44	551.71
498.80	558.12
499.17	564.05
499.53	570.05
499.89	576.95
500.26	583.29
500.62	589.81
500.98	596.90
501.34	603.79
501.71	611.02
502.07	617.57
502.43	624.24
502.79	631.38
503.16	638.21
503.52	646.02
503.88	652.62
504.24	659.71
504.60	667.26
504.97	675.21
505.33	682.64
505.69	691.38
506.05	698.57
506.41	706.12
506.78	713.95
507.14	721.74
507.50	729.55
507.86	738.26
508.22	746.79
508.59	753.52
508.95	761.48
509.31	770.29
509.67	778.12
510.03	785.81
510.39	793.67
510.75	801.38
511.12	808.48
511.48	816.50
511.84	823.62
512.20	831.21
512.56	838.79
512.92	846.81
513.28	853.12
513.64	860.29
514.00	867.40
514.37	875.43
514.73	882.90
515.09	890.26
515.45	896.29
515.81	902.93
516.17	910.26
516.53	916.19
516.89	921.88
517.25	928.31
517.61	935.12
517.97	941.31
518.33	947.67
518.69	954.17
519.05	960.45
519.41	967.05
519.77	974.07
520.13	979.86
520.49	985.07
520.85	991.36
521.21	998.05
521.57	1004.07
521.93	1008.71
522.29	1014.71
522.65	1019.29
523.01	1024.31
523.37	1029.48
523.73	1034.45
524.09	1039.64
524.45	1044.26
524.81	1049.31
525.17	1053.81
525.53	1058.38
525.89	1063.12
526.25	1067.69
526.61	1071.64
526.97	1075.81
527.33	1079.36
527.68	1085.90
528.04	1089.95
528.40	1093.31
528.76	1097.74
529.12	1102.10
529.48	1107.29
529.84	1110.48
530.20	1115.10
530.56	1119.90
530.91	1123.55
531.27	1127.79
531.63	1132.05
531.99	1136.12
532.35	1140.14
532.71	1144.05
533.07	1149.17
533.42	1155.17
533.78	1159.31
534.14	1163.93
534.50	1168.07
534.86	1172.50
535.21	1174.05
535.57	1178.62
535.93	1182.67
536.29	1186.83
536.65	1190.38
537.00	1193.52
537.36	1197.40
537.72	1200.07
538.08	1203.69
538.44	1206.55
538.79	1209.98
539.15	1212.17
539.51	1215.26
539.87	1218.88
540.22	1222.64
540.58	1225.29
540.94	1226.79
541.29	1229.67
541.65	1232.12
542.01	1235.07
542.37	1237.50
542.72	1239.90
543.08	1241.90
543.44	1244.52
543.79	1244.88
544.15	1247.76
544.51	1251.48
544.87	1253.88
545.22	1257.29
545.58	1260.33
545.94	1263.57
546.29	1266.74
546.65	1270.10
547.01	1273.07
547.36	1275.50
547.72	1278.26
548.07	1280.40
548.43	1282.38
548.79	1284.48
549.14	1287.50
549.50	1290.83
549.86	1292.19
550.21	1295.60
550.57	1298.83
550.92	1301.88
551.28	1306.21
551.64	1308.98
551.99	1311.05
552.35	1314.38
552.70	1316.93
553.06	1319.79
553.41	1323.17
553.77	1327.14
554.13	1330.76
554.48	1335.29
554.84	1338.98
555.19	1342.48
555.55	1348.21
555.90	1352.17
556.26	1355.48
556.61	1358.62
556.97	1360.86
557.32	1366.24
557.68	1369.74
558.03	1372.76
558.39	1377.24
558.74	1380.38
559.10	1383.76
559.45	1387.95
559.81	1392.12
560.16	1396.36
560.52	1400.98
560.87	1405.88
561.23	1408.02
561.58	1414.86
561.94	1418.19
562.29	1422.76
562.64	1427.95
563.00	1431.05
563.35	1435.83
563.71	1441.40
564.06	1446.95
564.42	1452.74
564.77	1458.36
565.12	1464.43
565.48	1472.24
565.83	1477.60
566.19	1483.67
566.54	1489.26
566.89	1493.95
567.25	1500.38
567.60	1507.76
567.96	1514.12
568.31	1520.98
568.66	1528.83
569.02	1532.76
569.37	1538.48
569.72	1543.95
570.08	1548.31
570.43	1553.67
570.78	1559.43
571.14	1565.24
571.49	1570.10
571.84	1576.29
572.20	1580.98
572.55	1586.14
572.90	1589.62
573.26	1593.74
573.61	1598.33
573.96	1602.93
574.31	1607.57
574.67	1610.95
575.02	1613.81
575.37	1615.90
575.72	1619.17
576.08	1622.95
576.43	1625.60
576.78	1628.93
577.13	1633.10
577.49	1636.19
577.84	1639.88
578.19	1643.07
578.54	1647.02
578.90	1651.90
579.25	1654.90
579.60	1657.55
579.95	1659.98
580.30	1663.24
580.66	1667.74
581.01	1671.57
581.36	1674.67
581.71	1678.95
582.06	1683.05
582.42	1687.02
582.77	1691.19
583.12	1693.79
583.47	1696.57
583.82	1699.95
584.17	1703.62
584.53	1706.62
584.88	1710.81
585.23	1714.71
585.58	1717.14
585.93	1719.81
586.28	1721.79
586.63	1725.19
586.98	1729.29
587.34	1732.24
587.69	1734.07
588.04	1735.90
588.39	1738.43
588.74	1740.24
589.09	1742.45
589.44	1743.60
589.79	1745.74
590.14	1748.10
590.49	1748.76
590.84	1750.64
591.19	1753.10
591.54	1755.31
591.89	1756.38
592.25	1759.10
592.60	1759.67
592.95	1762.02
593.30	1763.21
593.65	1764.40
594.00	1763.69
594.35	1770.05
594.70	1770.90
595.05	1773.93
595.40	1774.21
595.75	1774.60
596.10	1776.88
596.45	1777.38
596.80	1778.29
597.15	1779.36
597.50	1779.43
597.85	1781.45
598.19	1781.81
598.54	1781.36
598.89	1781.43
599.24	1782.52
599.59	1781.79
599.94	1782.14
600.29	1781.95
600.64	1781.24
600.99	1780.81
601.34	1782.07
601.69	1775.83
602.04	1775.21
602.39	1773.48
602.74	1774.67
603.08	1774.10
603.43	1774.74
603.78	1774.12
604.13	1773.36
604.48	1772.07
604.83	1771.19
605.18	1770.67
605.53	1769.88
605.87	1770.55
606.22	1769.40
606.57	1768.24
606.92	1766.55
607.27	1765.67
607.62	1765.31
607.96	1764.62
608.31	1764.50
608.66	1764.07
609.01	1762.45
609.36	1762.07
609.70	1761.07
610.05	1758.05
610.40	1756.57
610.75	1752.95
611.10	1750.60
611.44	1748.10
611.79	1745.76
612.14	1744.05
612.49	1740.98
612.83	1738.14
613.18	1735.05
613.53	1733.31
613.88	1729.55
614.22	1726.95
614.57	1722.83
614.92	1718.71
615.27	1716.05
615.61	1712.24
615.96	1707.50
616.31	1705.12
616.65	1702.19
617.00	1699.24
617.35	1696.19
617.70	1693.36
618.04	1690.60
618.39	1687.36
618.74	1684.64
619.08	1680.98
619.43	1676.64
619.78	1673.79
620.12	1670.43
620.47	1666.29
620.82	1660.69
621.16	1656.71
621.51	1653.50
621.85	1649.50
622.20	1645.24
622.55	1640.60
622.89	1637.31
623.24	1634.88
623.59	1630.33
623.93	1626.07
624.28	1621.43
624.62	1619.67
624.97	1616.67
625.32	1612.52
625.66	1608.98
626.01	1605.74
626.35	1602.45
626.70	1599.33
627.04	1595.67
627.39	1591.79
627.73	1589.69
628.08	1587.29
628.43	1583.76
628.77	1579.60
629.12	1577.38
629.46	1574.29
629.81	1571.36
630.15	1566.21
630.50	1561.33
630.84	1557.29
631.19	1552.31
631.53	1548.14
631.88	1541.76
632.22	1535.79
632.57	1531.86
632.91	1526.48
633.26	1521.95
633.60	1517.00
633.95	1512.14
634.29	1507.07
634.64	1503.14
634.98	1497.36
635.32	1493.24
635.67	1489.98
636.01	1485.62
636.36	1480.64
636.70	1476.64
637.05	1471.07
637.39	1467.00
637.73	1462.31
638.08	1458.40
638.42	1454.14
638.77	1449.79
639.11	1444.98
639.45	1440.05
639.80	1434.88
640.14	1430.38
640.49	1425.29
640.83	1419.74
641.17	1415.26
641.52	1410.05
641.86	1404.24
642.20	1399.81
642.55	1394.10
642.89	1388.52
643.23	1382.74
643.58	1377.57
643.92	1370.95
644.26	1366.02
644.61	1361.69
644.95	1356.29
645.29	1349.43
645.64	1344.05
645.98	1338.38
646.32	1333.48
646.66	1327.52
647.01	1321.10
647.35	1316.24
647.69	1310.07
648.04	1305.57
648.38	1300.10
648.72	1294.86
649.06	1289.24
649.41	1282.33
649.75	1276.21
650.09	1269.64
650.43	1263.69
650.78	1257.33
651.12	1251.12
651.46	1244.76
651.80	1238.14
652.14	1231.52
652.49	1226.10
652.83	1220.50
653.17	1213.71
653.51	1207.31
653.85	1201.52
654.20	1195.93
654.54	1188.57
654.88	1182.12
655.22	1175.79
655.56	1168.57
655.90	1161.10
656.25	1154.88
656.59	1148.55
656.93	1142.62
657.27	1137.57
657.61	1130.88
657.95	1125.26
658.29	1120.17
658.64	1115.00
658.98	1107.98
659.32	1101.74
659.66	1095.62
660.00	1089.19
660.34	1083.05
660.68	1076.64
661.02	1070.07
661.36	1063.64
661.70	1058.31
662.05	1052.45
662.39	1046.55
662.73	1041.48
663.07	1036.57
663.41	1030.33
663.75	1024.55
664.09	1017.64
664.43	1010.83
664.77	1005.45
665.11	998.57
665.45	992.69
665.79	986.21
666.13	979.93
666.47	973.86
666.81	967.88
667.15	961.69
667.49	956.69
667.83	951.62
668.17	946.12
668.51	940.69
668.85	935.40
669.19	930.60
669.53	924.05
669.87	917.64
670.21	912.05
670.55	906.29
670.89	901.64
671.23	896.86
671.57	891.81
671.91	886.45
672.25	881.05
672.58	875.67
672.92	869.71
673.26	865.14
673.60	860.19
673.94	854.62
674.28	849.64
674.62	844.29
674.96	838.86
675.30	834.21
675.64	829.29
675.97	824.05
676.31	818.71
676.65	813.62
676.99	809.90
677.33	804.38
677.67	800.43
678.01	794.67
678.34	789.86
678.68	785.02
679.02	779.76
679.36	774.83
679.70	769.45
680.04	764.90
680.37	759.24
680.71	754.50
681.05	750.40
681.39	745.57
681.73	741.24
682.06	736.50
682.40	731.69
682.74	727.21
683.08	722.86
683.42	717.60
683.75	713.07
684.09	707.86
684.43	703.52
684.77	697.93
685.10	693.62
685.44	688.83
685.78	683.67
686.12	679.24
686.45	674.69
686.79	670.43
687.13	666.45
687.46	662.40
687.80	658.55
688.14	653.83
688.48	649.71
688.81	645.21
689.15	640.88
689.49	636.57
689.82	631.48
690.16	626.29
690.50	621.98
690.83	617.74
691.17	612.19
691.51	608.02
691.84	604.29
692.18	599.81
692.52	595.74
692.85	592.07
693.19	589.21
693.52	585.55
693.86	581.07
694.20	576.71
694.53	573.00
694.87	568.57
695.21	564.29
695.54	560.10
695.88	555.67
696.21	551.07
696.55	547.33
696.88	544.12
697.22	539.86
697.56	536.95
697.89	533.07
698.23	530.12
698.56	525.76
698.90	522.10
699.23	518.24
699.57	514.71
699.90	510.60
700.24	505.95
700.58	502.12
700.91	498.93
701.25	497.00
701.58	494.43
701.92	491.83
702.25	488.76
702.59	485.02
702.92	481.71
703.26	478.69
703.59	475.19
703.93	473.60
704.26	471.19
704.60	467.86
704.93	465.05
705.26	462.17
705.60	460.17
705.93	456.83
706.27	454.79
706.60	452.10
706.94	450.29
707.27	447.17
707.61	444.57
707.94	441.50
708.27	437.19
708.61	433.62
708.94	430.43
709.28	427.93
709.61	425.43
709.94	423.17
710.28	420.88
710.61	418.79
710.95	414.38
711.28	413.48
711.61	410.95
711.95	409.05
712.28	406.52
712.61	403.57
712.95	402.36
713.28	400.74
713.61	398.17
713.95	394.93
714.28	393.00
714.61	390.55
714.95	388.74
715.28	386.40
715.61	384.02
715.95	381.81
716.28	379.64
716.61	377.86
716.95	375.62
717.28	373.31
717.61	370.98
717.94	368.95
718.28	365.21
718.61	363.17
718.94	360.69
719.27	358.52
719.61	356.90
719.94	354.43
720.27	351.33
720.60	349.38
720.94	347.88
721.27	346.36
721.60	345.33
721.93	343.52
722.27	343.00
722.60	342.10
722.93	340.55
723.26	339.07
723.59	337.31
723.93	335.95
724.26	334.93
724.59	333.48
724.92	332.07
725.25	331.26
725.59	330.07
725.92	329.19
726.25	327.83
726.58	326.69
726.91	325.38
727.24	324.48
727.57	323.24
727.91	321.52
728.24	320.38
728.57	318.67
728.90	317.69
729.23	315.69
729.56	315.07
729.89	313.74
730.22	312.40
730.55	311.19
730.89	309.93
731.22	308.62
731.55	307.64
731.88	306.79
732.21	305.45
732.54	304.36
732.87	302.83
733.20	302.12
733.53	301.00
733.86	299.83
734.19	298.71
734.52	298.31
734.85	298.98
735.18	297.88
735.51	297.81
735.84	297.19
736.17	296.79
736.50	294.88
736.83	296.45
737.16	295.79
737.49	295.07
737.82	294.02
738.15	293.48
738.48	292.76
738.81	291.69
739.14	290.55
739.47	289.14
739.80	288.50
740.13	287.76
740.46	286.67
740.79	286.00
741.12	284.93
741.45	283.36
741.78	281.55
742.11	281.00
742.44	279.48
742.77	278.64
743.10	277.50
743.43	276.76
743.75	273.93
744.08	275.74
744.41	274.86
744.74	274.17
745.07	272.98
745.40	272.12
745.73	272.36
746.06	271.69
746.39	271.45
746.71	270.67
747.04	269.81
747.37	269.19
747.70	268.60
748.03	268.55
748.36	268.48
748.68	267.52
749.01	266.29
749.34	265.67
749.67	265.17
750.00	264.90
750.33	265.55
750.65	265.26
750.98	262.19
751.31	261.71
751.64	261.36
751.97	262.12
752.29	261.71
752.62	260.33
752.95	259.83
753.28	259.07
753.60	258.43
753.93	258.40
754.26	257.79
754.59	256.67
754.91	255.76
755.24	254.79
755.57	254.36
755.90	253.90
756.22	253.36
756.55	252.52
756.88	251.60
757.20	250.00
757.53	248.60
757.86	248.14
758.19	247.74
758.51	247.07
758.84	245.21
759.17	244.50
759.49	244.12
759.82	244.81
760.15	244.60
760.47	244.19
760.80	243.33
761.13	243.48
761.45	243.14
761.78	242.79
762.11	242.74
762.43	242.24
762.76	241.74
763.08	241.76
763.41	241.55
763.74	241.10
764.06	240.55
764.39	240.48
764.71	239.93
765.04	239.52
765.37	239.02
765.69	238.81
766.02	238.40
766.34	237.93
766.67	236.62
767.00	236.69
767.32	237.21
767.65	238.14
767.97	237.38
768.30	237.40
768.62	236.98
768.95	236.29
769.27	236.02
769.60	236.19
769.92	235.45
770.25	234.83
770.57	234.45
770.90	234.38
771.22	234.10
771.55	234.12
771.87	233.90
772.20	233.69
772.52	235.24
772.85	237.48
773.17	237.26
773.50	237.17
773.82	236.43
774.15	235.38
774.47	233.76
774.80	233.69
775.12	233.36
775.45	233.17
775.77	233.24
776.09	233.17
776.42	232.86
776.74	233.29
777.07	233.10
777.39	233.07
777.72	232.60
778.04	232.67
778.36	232.07
778.69	231.98
779.01	231.79
779.33	229.90
779.66	227.45
779.98	227.40
780.31	227.12
780.63	227.93
780.95	228.29
781.28	228.33
781.60	227.98
781.92	227.86
782.25	227.60
782.57	227.36
782.89	227.07
783.22	226.74
783.54	226.17
783.86	226.29
784.19	225.88
784.51	226.40
784.83	225.76
785.16	225.74
