SpectraSuite Data File
++++++++++++++++++++++++++++++++++++
Date: Tue Apr 02 18:42:12 EDT 2013
User: group
Dark Spectrum Present: No
Reference Spectrum Present: No
Number of Sampled Component Spectra: 1
Spectrometers: USB2E7196
Integration Time (usec): 580000 (USB2E7196)
Spectra Averaged: 2 (USB2E7196)
Boxcar Smoothing: 10 (USB2E7196)
Correct for Electrical Dark: No (USB2E7196)
Strobe/Lamp Enabled: No (USB2E7196)
Correct for Detector Non-linearity: No (USB2E7196)
Correct for Stray Light: No (USB2E7196)
Number of Pixels in Processed Spectrum: 2048
>>>>>Begin Processed Spectral Data<<<<<
339.09	0.00
339.48	191.00
339.86	193.00
340.24	196.00
340.63	200.00
341.01	228.50
341.39	201.50
341.78	206.50
342.16	207.50
342.54	202.00
342.93	197.21
343.31	207.00
343.69	207.67
344.07	208.24
344.46	208.88
344.84	209.40
345.22	208.33
345.60	208.57
345.99	208.79
346.37	208.88
346.75	209.07
347.13	209.21
347.52	209.36
347.90	210.05
348.28	210.31
348.66	210.36
349.05	209.79
349.43	210.29
349.81	210.52
350.19	210.98
350.57	211.00
350.96	211.26
351.34	211.57
351.72	211.60
352.10	211.81
352.48	211.93
352.87	211.88
353.25	212.12
353.63	212.14
354.01	212.07
354.39	212.00
354.77	211.95
355.15	212.62
355.54	212.38
355.92	211.76
356.30	211.57
356.68	212.81
357.06	213.21
357.44	212.62
357.82	212.45
358.20	213.02
358.58	213.07
358.97	213.00
359.35	213.62
359.73	214.19
360.11	214.24
360.49	214.00
360.87	214.12
361.25	214.29
361.63	215.14
362.01	215.19
362.39	215.43
362.77	215.81
363.15	215.79
363.53	215.93
363.91	216.19
364.29	216.36
364.67	214.64
365.05	214.50
365.43	214.76
365.81	214.95
366.19	215.21
366.57	215.83
366.95	215.79
367.33	215.36
367.71	215.38
368.09	215.69
368.47	216.07
368.85	215.79
369.23	216.14
369.61	215.40
369.99	216.07
370.37	216.45
370.75	217.69
371.13	217.17
371.51	216.95
371.89	217.21
372.27	217.29
372.65	217.52
373.03	217.76
373.41	217.67
373.78	217.83
374.16	216.86
374.54	216.26
374.92	216.24
375.30	215.88
375.68	215.26
376.06	215.43
376.44	215.14
376.82	215.29
377.19	215.12
377.57	215.00
377.95	214.52
378.33	214.07
378.71	212.69
379.09	213.07
379.47	213.31
379.84	213.02
380.22	212.60
380.60	212.19
380.98	211.90
381.36	212.00
381.73	211.33
382.11	211.64
382.49	211.71
382.87	211.43
383.25	211.69
383.62	214.24
384.00	213.67
384.38	213.83
384.76	214.31
385.13	215.19
385.51	215.40
385.89	215.19
386.27	215.38
386.64	215.62
387.02	215.36
387.40	215.19
387.78	215.24
388.15	215.67
388.53	215.64
388.91	215.83
389.29	215.60
389.66	216.07
390.04	215.81
390.42	216.31
390.79	216.60
391.17	216.36
391.55	214.19
391.92	214.36
392.30	214.43
392.68	214.02
393.05	213.55
393.43	213.50
393.81	213.55
394.18	213.38
394.56	213.36
394.94	213.76
395.31	213.60
395.69	214.48
396.06	214.76
396.44	215.07
396.82	214.69
397.19	215.81
397.57	215.71
397.95	216.21
398.32	215.52
398.70	215.62
399.07	216.43
399.45	216.17
399.82	216.26
400.20	216.14
400.58	215.90
400.95	215.40
401.33	215.93
401.70	217.57
402.08	217.71
402.45	217.93
402.83	218.52
403.20	218.95
403.58	218.64
403.95	219.00
404.33	219.40
404.71	219.71
405.08	220.86
405.46	221.02
405.83	221.26
406.21	221.69
406.58	222.10
406.96	222.21
407.33	223.21
407.70	223.93
408.08	226.10
408.45	227.45
408.83	228.48
409.20	228.48
409.58	227.83
409.95	228.81
410.33	229.86
410.70	230.19
411.08	231.36
411.45	232.45
411.82	233.50
412.20	235.02
412.57	237.55
412.95	237.29
413.32	239.19
413.69	240.45
414.07	242.26
414.44	244.52
414.82	246.52
415.19	248.81
415.56	251.02
415.94	252.21
416.31	254.74
416.68	257.71
417.06	261.24
417.43	264.81
417.81	268.33
418.18	271.81
418.55	275.43
418.93	279.17
419.30	283.21
419.67	287.36
420.04	291.95
420.42	296.10
420.79	303.19
421.16	308.57
421.54	315.69
421.91	321.86
422.28	327.57
422.66	334.19
423.03	342.17
423.40	349.10
423.77	356.52
424.15	364.07
424.52	371.83
424.89	380.62
425.26	388.50
425.64	396.21
426.01	404.95
426.38	413.98
426.75	423.79
427.13	433.21
427.50	443.19
427.87	452.81
428.24	462.86
428.61	471.76
428.99	483.43
429.36	494.12
429.73	505.36
430.10	517.50
430.47	529.64
430.85	540.10
431.22	552.74
431.59	567.69
431.96	580.40
432.33	594.19
432.70	608.26
433.08	624.26
433.45	639.86
433.82	655.52
434.19	672.81
434.56	690.21
434.93	706.40
435.30	722.64
435.68	741.14
436.05	759.17
436.42	776.12
436.79	792.29
437.16	809.74
437.53	827.74
437.90	845.40
438.27	863.02
438.64	881.60
439.01	898.67
439.38	912.62
439.75	927.45
440.13	945.07
440.50	960.93
440.87	974.05
441.24	988.07
441.61	1002.14
441.98	1013.40
442.35	1024.81
442.72	1037.62
443.09	1050.76
443.46	1058.62
443.83	1063.33
444.20	1068.43
444.57	1074.36
444.94	1077.07
445.31	1080.55
445.68	1085.98
446.05	1087.21
446.42	1085.50
446.79	1084.83
447.16	1082.60
447.53	1081.79
447.90	1074.64
448.27	1067.64
448.64	1058.64
449.01	1051.62
449.37	1041.02
449.74	1030.07
450.11	1019.31
450.48	1004.50
450.85	988.74
451.22	974.98
451.59	963.52
451.96	951.17
452.33	935.67
452.70	921.52
453.07	904.69
453.43	884.81
453.80	868.05
454.17	852.33
454.54	836.45
454.91	820.29
455.28	804.12
455.65	789.33
456.02	778.36
456.38	765.79
456.75	750.07
457.12	736.07
457.49	722.33
457.86	707.31
458.23	697.33
458.59	685.17
458.96	673.50
459.33	662.02
459.70	651.88
460.07	643.26
460.43	633.43
460.80	624.52
461.17	617.38
461.54	609.48
461.91	601.55
462.27	593.29
462.64	586.26
463.01	578.36
463.38	571.69
463.74	560.45
464.11	553.69
464.48	548.17
464.85	541.79
465.21	537.24
465.58	532.74
465.95	525.74
466.32	520.81
466.68	515.17
467.05	510.45
467.42	505.36
467.78	499.69
468.15	494.71
468.52	490.83
468.88	485.29
469.25	480.05
469.62	476.55
469.98	472.55
470.35	468.93
470.72	465.43
471.08	461.02
471.45	458.36
471.82	456.00
472.18	452.10
472.55	449.79
472.92	446.52
473.28	443.26
473.65	440.69
474.02	438.19
474.38	436.62
474.75	434.83
475.11	432.17
475.48	430.86
475.85	429.36
476.21	427.62
476.58	426.43
476.94	425.52
477.31	424.12
477.67	423.07
478.04	422.05
478.41	421.50
478.77	422.48
479.14	421.05
479.50	420.10
479.87	420.17
480.23	419.93
480.60	419.38
480.96	419.31
481.33	419.81
481.69	419.62
482.06	419.40
482.42	419.67
482.79	420.33
483.15	420.40
483.52	421.17
483.88	421.48
484.25	421.83
484.61	422.93
484.98	423.74
485.34	425.31
485.71	427.07
486.07	428.24
486.44	428.24
486.80	430.12
487.17	431.48
487.53	433.40
487.90	435.79
488.26	438.83
488.62	441.57
488.99	443.48
489.35	446.55
489.72	449.40
490.08	451.95
490.44	454.57
490.81	458.00
491.17	461.05
491.54	464.62
491.90	468.36
492.26	471.48
492.63	475.36
492.99	478.93
493.36	482.90
493.72	487.50
494.08	491.86
494.45	496.50
494.81	501.62
495.17	506.24
495.54	511.10
495.90	515.50
496.26	520.40
496.63	525.88
496.99	531.33
497.35	537.17
497.72	543.07
498.08	549.05
498.44	554.93
498.80	561.43
499.17	567.57
499.53	574.02
499.89	581.50
500.26	588.21
500.62	594.93
500.98	602.12
501.34	608.36
501.71	615.74
502.07	623.02
502.43	629.60
502.79	636.71
503.16	643.45
503.52	650.90
503.88	657.88
504.24	666.12
504.60	673.69
504.97	682.00
505.33	689.40
505.69	698.17
506.05	705.81
506.41	713.26
506.78	721.33
507.14	728.79
507.50	736.33
507.86	744.07
508.22	751.74
508.59	759.19
508.95	767.95
509.31	776.29
509.67	784.12
510.03	791.95
510.39	799.93
510.75	807.83
511.12	815.50
511.48	823.74
511.84	830.69
512.20	837.95
512.56	845.10
512.92	853.29
513.28	860.50
513.64	868.17
514.00	876.10
514.37	883.55
514.73	891.31
515.09	898.69
515.45	905.69
515.81	912.76
516.17	919.45
516.53	926.24
516.89	932.36
517.25	939.86
517.61	947.29
517.97	953.64
518.33	960.05
518.69	967.69
519.05	973.88
519.41	980.86
519.77	988.62
520.13	995.17
520.49	1000.57
520.85	1006.07
521.21	1012.90
521.57	1019.40
521.93	1024.50
522.29	1029.43
522.65	1034.79
523.01	1040.69
523.37	1045.76
523.73	1051.17
524.09	1055.43
524.45	1060.48
524.81	1064.74
525.17	1069.71
525.53	1074.50
525.89	1079.40
526.25	1084.00
526.61	1088.57
526.97	1092.33
527.33	1096.98
527.68	1103.14
528.04	1108.12
528.40	1112.07
528.76	1115.64
529.12	1119.33
529.48	1124.38
529.84	1129.00
530.20	1133.64
530.56	1138.14
530.91	1142.95
531.27	1146.88
531.63	1152.50
531.99	1156.12
532.35	1159.69
532.71	1163.50
533.07	1168.71
533.42	1175.07
533.78	1178.90
534.14	1183.10
534.50	1187.55
534.86	1191.67
535.21	1193.50
535.57	1197.33
535.93	1201.67
536.29	1206.71
536.65	1211.36
537.00	1215.07
537.36	1219.57
537.72	1223.05
538.08	1226.83
538.44	1230.29
538.79	1234.26
539.15	1236.76
539.51	1241.07
539.87	1245.24
540.22	1249.21
540.58	1252.40
540.94	1254.12
541.29	1257.14
541.65	1260.21
542.01	1263.81
542.37	1265.98
542.72	1268.79
543.08	1271.57
543.44	1274.86
543.79	1276.64
544.15	1279.00
544.51	1282.76
544.87	1285.21
545.22	1288.19
545.58	1290.60
545.94	1293.45
546.29	1296.86
546.65	1300.36
547.01	1303.81
547.36	1306.83
547.72	1308.48
548.07	1311.62
548.43	1314.36
548.79	1317.12
549.14	1319.64
549.50	1322.21
549.86	1324.10
550.21	1326.50
550.57	1329.98
550.92	1332.40
551.28	1335.60
551.64	1338.83
551.99	1341.40
552.35	1344.79
552.70	1347.60
553.06	1350.67
553.41	1353.62
553.77	1358.33
554.13	1361.33
554.48	1364.88
554.84	1369.50
555.19	1374.69
555.55	1379.43
555.90	1383.71
556.26	1387.98
556.61	1391.86
556.97	1395.45
557.32	1400.05
557.68	1404.57
558.03	1408.33
558.39	1413.05
558.74	1417.12
559.10	1420.43
559.45	1424.29
559.81	1428.17
560.16	1432.29
560.52	1436.86
560.87	1442.02
561.23	1443.95
561.58	1450.40
561.94	1454.21
562.29	1457.55
562.64	1461.50
563.00	1464.43
563.35	1468.31
563.71	1472.50
564.06	1478.55
564.42	1483.71
564.77	1489.38
565.12	1495.26
565.48	1502.60
565.83	1508.38
566.19	1513.79
566.54	1520.52
566.89	1526.64
567.25	1533.07
567.60	1540.40
567.96	1548.33
568.31	1555.05
568.66	1562.12
569.02	1566.36
569.37	1572.05
569.72	1578.14
570.08	1584.05
570.43	1589.24
570.78	1595.36
571.14	1601.57
571.49	1606.43
571.84	1611.98
572.20	1616.45
572.55	1621.38
572.90	1623.81
573.26	1627.88
573.61	1632.38
573.96	1636.86
574.31	1640.17
574.67	1643.74
575.02	1646.76
575.37	1648.76
575.72	1651.17
576.08	1654.57
576.43	1658.40
576.78	1661.36
577.13	1664.60
577.49	1667.86
577.84	1672.81
578.19	1675.69
578.54	1679.12
578.90	1683.26
579.25	1686.26
579.60	1689.48
579.95	1691.02
580.30	1694.71
580.66	1698.17
581.01	1701.64
581.36	1703.38
581.71	1707.40
582.06	1712.26
582.42	1716.40
582.77	1719.02
583.12	1722.10
583.47	1725.02
583.82	1726.93
584.17	1730.74
584.53	1734.12
584.88	1736.79
585.23	1739.05
585.58	1741.83
585.93	1743.43
586.28	1744.74
586.63	1746.83
586.98	1749.67
587.34	1753.95
587.69	1755.95
588.04	1757.02
588.39	1758.90
588.74	1760.38
589.09	1761.83
589.44	1761.29
589.79	1761.74
590.14	1763.98
590.49	1765.38
590.84	1767.00
591.19	1769.02
591.54	1769.69
591.89	1769.88
592.25	1773.33
592.60	1773.50
592.95	1773.83
593.30	1775.19
593.65	1777.05
594.00	1777.07
594.35	1783.83
594.70	1783.88
595.05	1784.00
595.40	1784.55
595.75	1785.07
596.10	1786.60
596.45	1787.55
596.80	1788.33
597.15	1789.19
597.50	1789.12
597.85	1790.21
598.19	1789.00
598.54	1789.19
598.89	1788.79
599.24	1788.90
599.59	1786.17
599.94	1785.88
600.29	1786.79
600.64	1786.07
600.99	1784.86
601.34	1786.67
601.69	1779.90
602.04	1778.83
602.39	1778.50
602.74	1778.74
603.08	1776.90
603.43	1776.79
603.78	1775.00
604.13	1774.02
604.48	1772.88
604.83	1771.79
605.18	1771.86
605.53	1771.55
605.87	1768.98
606.22	1767.50
606.57	1766.40
606.92	1764.36
607.27	1763.31
607.62	1762.05
607.96	1761.83
608.31	1760.83
608.66	1758.33
609.01	1755.76
609.36	1754.81
609.70	1752.38
610.05	1750.57
610.40	1749.57
610.75	1746.07
611.10	1745.26
611.44	1743.02
611.79	1739.67
612.14	1737.24
612.49	1731.17
612.83	1728.55
613.18	1726.55
613.53	1723.83
613.88	1719.98
614.22	1717.12
614.57	1712.90
614.92	1707.86
615.27	1702.45
615.61	1697.50
615.96	1692.76
616.31	1689.02
616.65	1686.00
617.00	1683.10
617.35	1678.43
617.70	1674.52
618.04	1670.62
618.39	1665.45
618.74	1661.14
619.08	1656.81
619.43	1652.40
619.78	1648.83
620.12	1644.83
620.47	1640.40
620.82	1635.60
621.16	1630.74
621.51	1627.40
621.85	1623.19
622.20	1619.14
622.55	1614.40
622.89	1610.74
623.24	1606.93
623.59	1603.24
623.93	1597.36
624.28	1592.69
624.62	1590.81
624.97	1588.29
625.32	1584.19
625.66	1579.29
626.01	1574.52
626.35	1571.19
626.70	1567.02
627.04	1564.00
627.39	1558.62
627.73	1554.76
628.08	1551.67
628.43	1548.24
628.77	1543.90
629.12	1539.43
629.46	1535.69
629.81	1532.31
630.15	1526.88
630.50	1522.21
630.84	1516.60
631.19	1511.43
631.53	1506.55
631.88	1498.86
632.22	1491.10
632.57	1486.86
632.91	1481.40
633.26	1477.00
633.60	1471.60
633.95	1465.76
634.29	1459.81
634.64	1455.07
634.98	1448.88
635.32	1443.81
635.67	1439.19
636.01	1433.67
636.36	1428.55
636.70	1424.50
637.05	1419.48
637.39	1415.40
637.73	1411.14
638.08	1406.88
638.42	1401.81
638.77	1396.95
639.11	1391.67
639.45	1386.76
639.80	1380.57
640.14	1375.55
640.49	1369.93
640.83	1363.21
641.17	1357.90
641.52	1352.19
641.86	1346.62
642.20	1342.71
642.55	1336.48
642.89	1329.62
643.23	1323.52
643.58	1318.55
643.92	1310.29
644.26	1303.43
644.61	1297.64
644.95	1290.52
645.29	1283.81
645.64	1277.74
645.98	1270.98
646.32	1265.71
646.66	1258.79
647.01	1251.93
647.35	1246.24
647.69	1239.64
648.04	1234.33
648.38	1228.50
648.72	1222.48
649.06	1216.10
649.41	1208.81
649.75	1201.71
650.09	1195.29
650.43	1188.14
650.78	1181.43
651.12	1175.67
651.46	1169.40
651.80	1162.67
652.14	1155.79
652.49	1149.83
652.83	1143.60
653.17	1137.05
653.51	1129.93
653.85	1124.19
654.20	1118.26
654.54	1111.21
654.88	1104.50
655.22	1098.43
655.56	1091.10
655.90	1084.86
656.25	1078.86
656.59	1072.14
656.93	1066.17
657.27	1060.74
657.61	1054.33
657.95	1047.86
658.29	1041.29
658.64	1036.10
658.98	1028.81
659.32	1022.67
659.66	1015.81
660.00	1008.88
660.34	1002.50
660.68	996.19
661.02	990.02
661.36	983.64
661.70	977.57
662.05	971.88
662.39	966.14
662.73	961.07
663.07	955.86
663.41	949.48
663.75	943.48
664.09	937.10
664.43	930.17
664.77	924.60
665.11	918.74
665.45	913.26
665.79	906.64
666.13	901.07
666.47	894.81
666.81	889.38
667.15	884.07
667.49	879.07
667.83	874.45
668.17	868.90
668.51	863.24
668.85	858.19
669.19	854.07
669.53	847.45
669.87	841.14
670.21	834.57
670.55	828.69
670.89	824.19
671.23	818.86
671.57	813.64
671.91	808.33
672.25	802.88
672.58	798.14
672.92	792.45
673.26	787.48
673.60	783.05
673.94	777.83
674.28	773.00
674.62	768.00
674.96	762.57
675.30	757.74
675.64	752.74
675.97	747.64
676.31	741.60
676.65	736.60
676.99	733.07
677.33	728.50
677.67	724.48
678.01	718.76
678.34	714.62
678.68	710.81
679.02	706.62
679.36	701.40
679.70	696.55
680.04	691.86
680.37	687.07
680.71	682.60
681.05	678.50
681.39	673.93
681.73	669.19
682.06	664.26
682.40	660.00
682.74	655.93
683.08	652.29
683.42	647.76
683.75	643.71
684.09	638.40
684.43	633.69
684.77	628.81
685.10	625.07
685.44	620.55
685.78	615.98
686.12	610.93
686.45	606.90
686.79	602.29
687.13	598.86
687.46	595.07
687.80	591.17
688.14	587.00
688.48	583.21
688.81	579.29
689.15	576.14
689.49	571.50
689.82	567.48
690.16	562.07
690.50	557.86
690.83	554.00
691.17	549.71
691.51	546.14
691.84	542.40
692.18	538.10
692.52	534.45
692.85	531.00
693.19	528.69
693.52	525.12
693.86	521.12
694.20	517.24
694.53	513.57
694.87	509.43
695.21	505.45
695.54	501.71
695.88	498.00
696.21	493.50
696.55	490.14
696.88	486.43
697.22	483.45
697.56	480.55
697.89	477.29
698.23	474.24
698.56	471.02
698.90	468.17
699.23	465.05
699.57	461.88
699.90	458.48
700.24	454.64
700.58	451.50
700.91	448.83
701.25	447.69
701.58	445.62
701.92	443.88
702.25	441.12
702.59	438.24
702.92	435.36
703.26	433.10
703.59	430.52
703.93	429.93
704.26	427.83
704.60	425.48
704.93	422.74
705.26	420.14
705.60	417.81
705.93	414.76
706.27	412.83
706.60	410.95
706.94	409.21
707.27	406.74
707.61	404.64
707.94	402.00
708.27	397.60
708.61	394.24
708.94	391.52
709.28	389.38
709.61	387.07
709.94	385.31
710.28	383.24
710.61	381.02
710.95	377.17
711.28	376.36
711.61	373.81
711.95	372.19
712.28	370.36
712.61	368.31
712.95	367.57
713.28	366.43
713.61	364.31
713.95	361.83
714.28	360.19
714.61	358.21
714.95	356.69
715.28	355.24
715.61	353.60
715.95	351.67
716.28	350.21
716.61	348.74
716.95	346.45
717.28	344.76
717.61	343.24
717.94	341.57
718.28	338.31
718.61	336.81
718.94	334.79
719.27	332.98
719.61	331.31
719.94	329.21
720.27	326.88
720.60	324.95
720.94	323.43
721.27	321.98
721.60	321.02
721.93	319.43
722.27	318.79
722.60	317.88
722.93	316.45
723.26	315.05
723.59	313.71
723.93	312.64
724.26	311.48
724.59	310.02
724.92	309.00
725.25	308.55
725.59	307.24
725.92	306.50
726.25	305.60
726.58	304.38
726.91	303.00
727.24	301.86
727.57	301.10
727.91	299.79
728.24	298.83
728.57	297.71
728.90	297.40
729.23	295.67
729.56	295.10
729.89	294.02
730.22	293.12
730.55	292.10
730.89	291.26
731.22	290.00
731.55	289.07
731.88	288.43
732.21	287.26
732.54	286.50
732.87	285.43
733.20	284.64
733.53	283.88
733.86	283.29
734.19	282.43
734.52	281.86
734.85	282.31
735.18	281.07
735.51	280.57
735.84	279.81
736.17	279.67
736.50	278.17
736.83	280.12
737.16	279.21
737.49	278.71
737.82	278.05
738.15	277.86
738.48	277.14
738.81	276.29
739.14	275.12
739.47	274.40
739.80	273.69
740.13	273.31
740.46	272.43
740.79	271.36
741.12	270.71
741.45	269.67
741.78	267.93
742.11	267.86
742.44	266.83
742.77	266.26
743.10	265.05
743.43	264.26
743.75	261.14
744.08	263.31
744.41	262.45
744.74	261.74
745.07	260.57
745.40	260.31
745.73	260.43
746.06	260.00
746.39	259.64
746.71	258.90
747.04	257.90
747.37	257.40
747.70	257.29
748.03	256.48
748.36	256.24
748.68	255.62
749.01	254.64
749.34	254.07
749.67	253.71
750.00	253.76
750.33	255.05
750.65	254.88
750.98	251.76
751.31	251.40
751.64	251.05
751.97	251.71
752.29	251.17
752.62	249.71
752.95	249.26
753.28	248.64
753.60	248.21
753.93	248.36
754.26	247.93
754.59	247.00
754.91	246.64
755.24	246.05
755.57	246.07
755.90	245.62
756.22	245.17
756.55	244.36
756.88	243.50
757.20	241.57
757.53	240.50
757.86	240.19
758.19	240.00
758.51	239.48
758.84	238.02
759.17	237.52
759.49	237.43
759.82	238.10
760.15	237.83
760.47	237.76
760.80	236.69
761.13	236.81
761.45	236.60
761.78	236.07
762.11	235.90
762.43	235.17
762.76	235.14
763.08	235.12
763.41	234.95
763.74	234.76
764.06	234.48
764.39	234.60
764.71	234.07
765.04	233.62
765.37	233.38
765.69	233.36
766.02	233.07
766.34	232.67
766.67	231.52
767.00	231.76
767.32	232.62
767.65	233.81
767.97	233.45
768.30	233.43
768.62	233.40
768.95	232.88
769.27	232.86
769.60	233.02
769.92	232.57
770.25	231.88
770.57	231.43
770.90	231.21
771.22	230.74
771.55	230.67
771.87	230.55
772.20	230.12
772.52	231.50
772.85	233.74
773.17	233.57
773.50	233.48
773.82	232.81
774.15	231.45
774.47	230.00
774.80	229.52
775.12	229.33
775.45	229.29
775.77	229.19
776.09	229.10
776.42	228.62
776.74	229.10
777.07	229.00
777.39	228.86
777.72	228.64
778.04	228.60
778.36	228.21
778.69	227.98
779.01	228.12
779.33	226.29
779.66	223.93
779.98	223.62
780.31	223.45
780.63	224.43
780.95	224.50
781.28	224.40
781.60	224.24
781.92	224.02
782.25	223.67
782.57	223.67
782.89	223.43
783.22	223.05
783.54	222.52
783.86	222.29
784.19	222.17
784.51	222.52
784.83	222.21
785.16	222.14
