SpectraSuite Data File
++++++++++++++++++++++++++++++++++++
Date: Tue Apr 02 18:38:40 EDT 2013
User: group
Dark Spectrum Present: No
Reference Spectrum Present: No
Number of Sampled Component Spectra: 1
Spectrometers: USB2E7196
Integration Time (usec): 580000 (USB2E7196)
Spectra Averaged: 2 (USB2E7196)
Boxcar Smoothing: 10 (USB2E7196)
Correct for Electrical Dark: No (USB2E7196)
Strobe/Lamp Enabled: No (USB2E7196)
Correct for Detector Non-linearity: No (USB2E7196)
Correct for Stray Light: No (USB2E7196)
Number of Pixels in Processed Spectrum: 2048
>>>>>Begin Processed Spectral Data<<<<<
339.09	0.00
339.48	186.50
339.86	199.00
340.24	200.00
340.63	200.50
341.01	231.00
341.39	202.50
341.78	203.00
342.16	212.00
342.54	204.50
342.93	197.69
343.31	207.60
343.69	208.67
344.07	209.05
344.46	209.69
344.84	210.29
345.22	209.24
345.60	209.57
345.99	210.10
346.37	210.00
346.75	210.26
347.13	210.31
347.52	210.57
347.90	211.52
348.28	211.50
348.66	212.21
349.05	211.74
349.43	212.14
349.81	212.31
350.19	212.55
350.57	212.76
350.96	213.52
351.34	213.86
351.72	213.76
352.10	213.74
352.48	213.50
352.87	213.26
353.25	213.14
353.63	213.14
354.01	213.00
354.39	213.29
354.77	213.29
355.15	213.95
355.54	213.90
355.92	213.36
356.30	213.55
356.68	214.52
357.06	214.90
357.44	214.69
357.82	214.62
358.20	215.33
358.58	215.48
358.97	215.50
359.35	215.93
359.73	216.57
360.11	216.86
360.49	216.98
360.87	217.14
361.25	217.40
361.63	218.17
362.01	218.48
362.39	218.33
362.77	218.50
363.15	218.05
363.53	217.88
363.91	217.98
364.29	217.71
364.67	215.86
365.05	215.69
365.43	215.83
365.81	216.12
366.19	216.50
366.57	216.98
366.95	216.50
367.33	216.00
367.71	215.88
368.09	216.17
368.47	216.02
368.85	215.76
369.23	216.17
369.61	215.33
369.99	215.79
370.37	216.07
370.75	217.17
371.13	216.76
371.51	216.38
371.89	216.55
372.27	216.88
372.65	216.88
373.03	216.86
373.41	216.55
373.78	216.31
374.16	215.10
374.54	214.43
374.92	214.48
375.30	214.29
375.68	214.02
376.06	214.10
376.44	214.24
376.82	214.57
377.19	214.62
377.57	214.79
377.95	214.00
378.33	213.74
378.71	212.40
379.09	212.74
379.47	213.14
379.84	212.81
380.22	212.60
380.60	212.52
380.98	212.38
381.36	212.40
381.73	212.12
382.11	212.40
382.49	212.69
382.87	212.24
383.25	212.48
383.62	214.62
384.00	214.26
384.38	214.31
384.76	214.38
385.13	215.33
385.51	215.60
385.89	215.50
386.27	215.57
386.64	216.12
387.02	215.76
387.40	215.50
387.78	215.88
388.15	215.74
388.53	215.69
388.91	215.79
389.29	215.81
389.66	216.17
390.04	215.88
390.42	216.21
390.79	216.71
391.17	216.62
391.55	214.50
391.92	214.40
392.30	214.71
392.68	214.62
393.05	214.19
393.43	213.93
393.81	213.93
394.18	213.62
394.56	213.40
394.94	214.24
395.31	214.31
395.69	214.71
396.06	215.29
396.44	215.62
396.82	215.33
397.19	216.48
397.57	216.38
397.95	216.86
398.32	216.45
398.70	216.52
399.07	216.81
399.45	216.64
399.82	216.83
400.20	216.31
400.58	216.19
400.95	215.45
401.33	215.79
401.70	217.40
402.08	217.67
402.45	217.67
402.83	217.93
403.20	218.17
403.58	218.17
403.95	218.52
404.33	218.90
404.71	219.45
405.08	220.55
405.46	220.95
405.83	221.45
406.21	221.71
406.58	222.29
406.96	222.71
407.33	223.57
407.70	224.26
408.08	226.95
408.45	228.02
408.83	229.00
409.20	229.62
409.58	229.40
409.95	230.55
410.33	231.60
410.70	231.81
411.08	233.10
411.45	234.02
411.82	235.00
412.20	236.76
412.57	239.40
412.95	239.19
413.32	240.98
413.69	242.60
414.07	244.43
414.44	246.50
414.82	248.93
415.19	251.60
415.56	254.33
415.94	255.90
416.31	259.26
416.68	262.71
417.06	266.62
417.43	270.83
417.81	275.12
418.18	279.98
418.55	284.71
418.93	289.45
419.30	294.81
419.67	300.10
420.04	305.17
420.42	309.95
420.79	318.38
421.16	325.36
421.54	332.88
421.91	340.29
422.28	347.60
422.66	355.57
423.03	364.62
423.40	372.52
423.77	380.90
424.15	388.90
424.52	397.45
424.89	407.64
425.26	416.40
425.64	424.67
426.01	434.29
426.38	444.93
426.75	456.33
427.13	467.12
427.50	478.24
427.87	489.93
428.24	501.71
428.61	511.93
428.99	524.57
429.36	537.67
429.73	550.55
430.10	564.02
430.47	577.64
430.85	590.19
431.22	605.31
431.59	622.45
431.96	637.69
432.33	654.71
432.70	670.83
433.08	689.55
433.45	707.74
433.82	724.93
434.19	745.02
434.56	765.12
434.93	783.26
435.30	802.55
435.68	823.71
436.05	844.12
436.42	863.95
436.79	883.12
437.16	903.14
437.53	925.12
437.90	946.12
438.27	968.36
438.64	990.07
439.01	1009.64
439.38	1026.36
439.75	1043.67
440.13	1063.81
440.50	1082.36
440.87	1097.12
441.24	1113.79
441.61	1131.88
441.98	1145.12
442.35	1158.24
442.72	1173.93
443.09	1188.98
443.46	1197.55
443.83	1203.76
444.20	1209.60
444.57	1216.79
444.94	1221.36
445.31	1225.71
445.68	1231.64
446.05	1232.21
446.42	1230.69
446.79	1229.83
447.16	1227.83
447.53	1227.62
447.90	1219.83
448.27	1211.93
448.64	1202.48
449.01	1194.40
449.37	1181.26
449.74	1167.29
450.11	1154.48
450.48	1136.38
450.85	1118.00
451.22	1102.98
451.59	1088.88
451.96	1074.86
452.33	1056.24
452.70	1039.05
453.07	1018.36
453.43	996.07
453.80	976.14
454.17	957.45
454.54	938.95
454.91	919.12
455.28	899.57
455.65	882.31
456.02	868.05
456.38	852.98
456.75	834.69
457.12	818.81
457.49	804.31
457.86	787.60
458.23	776.79
458.59	762.98
458.96	748.90
459.33	736.50
459.70	724.48
460.07	714.76
460.43	702.64
460.80	692.31
461.17	683.31
461.54	673.38
461.91	663.90
462.27	654.05
462.64	645.55
463.01	636.26
463.38	628.05
463.74	616.36
464.11	608.50
464.48	602.14
464.85	595.12
465.21	589.62
465.58	583.52
465.95	575.69
466.32	569.98
466.68	564.10
467.05	558.10
467.42	552.00
467.78	545.55
468.15	539.81
468.52	535.31
468.88	528.83
469.25	523.55
469.62	519.29
469.98	514.95
470.35	511.19
470.72	507.52
471.08	502.52
471.45	498.83
471.82	495.79
472.18	491.55
472.55	488.29
472.92	484.17
473.28	480.57
473.65	477.17
474.02	474.21
474.38	471.62
474.75	469.57
475.11	466.62
475.48	464.93
475.85	463.29
476.21	461.45
476.58	460.45
476.94	459.43
477.31	457.90
477.67	456.31
478.04	455.40
478.41	454.88
478.77	455.79
479.14	454.48
479.50	453.83
479.87	453.43
480.23	453.10
480.60	452.62
480.96	452.60
481.33	453.36
481.69	453.21
482.06	453.55
482.42	453.83
482.79	454.31
483.15	454.26
483.52	455.50
483.88	455.83
484.25	456.26
484.61	457.40
484.98	458.50
485.34	461.07
485.71	462.50
486.07	463.67
486.44	463.69
486.80	466.05
487.17	467.76
487.53	470.48
487.90	473.21
488.26	476.48
488.62	479.69
488.99	482.33
489.35	486.00
489.72	489.33
490.08	492.74
490.44	496.24
490.81	500.52
491.17	504.24
491.54	508.74
491.90	513.71
492.26	518.05
492.63	523.24
492.99	527.31
493.36	532.52
493.72	538.36
494.08	543.69
494.45	549.93
494.81	556.26
495.17	562.14
495.54	568.57
495.90	574.43
496.26	581.31
496.63	588.24
496.99	594.45
497.35	601.60
497.72	608.76
498.08	616.24
498.44	624.12
498.80	631.76
499.17	639.12
499.53	647.10
499.89	655.57
500.26	664.45
500.62	672.93
500.98	682.10
501.34	690.76
501.71	700.52
502.07	709.21
502.43	718.14
502.79	726.81
503.16	735.86
503.52	745.50
503.88	754.31
504.24	763.95
504.60	774.40
504.97	784.19
505.33	793.74
505.69	805.17
506.05	814.98
506.41	825.10
506.78	836.12
507.14	846.79
507.50	857.19
507.86	867.05
508.22	878.12
508.59	887.60
508.95	898.10
509.31	909.21
509.67	920.12
510.03	930.93
510.39	942.64
510.75	953.10
511.12	963.83
511.48	974.57
511.84	985.02
512.20	996.17
512.56	1007.38
512.92	1018.79
513.28	1029.19
513.64	1040.12
514.00	1051.26
514.37	1062.07
514.73	1071.98
515.09	1083.21
515.45	1093.74
515.81	1103.29
516.17	1114.33
516.53	1124.38
516.89	1133.64
517.25	1143.88
517.61	1154.10
517.97	1162.95
518.33	1173.50
518.69	1183.43
519.05	1193.40
519.41	1202.83
519.77	1212.93
520.13	1221.79
520.49	1230.74
520.85	1239.31
521.21	1249.24
521.57	1258.95
521.93	1266.79
522.29	1275.79
522.65	1283.88
523.01	1292.83
523.37	1301.14
523.73	1309.48
524.09	1316.95
524.45	1324.74
524.81	1332.55
525.17	1341.10
525.53	1349.12
525.89	1356.60
526.25	1364.95
526.61	1371.64
526.97	1379.31
527.33	1385.90
527.68	1395.14
528.04	1402.05
528.40	1409.52
528.76	1416.02
529.12	1422.52
529.48	1431.43
529.84	1438.02
530.20	1445.38
530.56	1452.02
530.91	1459.43
531.27	1466.40
531.63	1475.31
531.99	1482.57
532.35	1488.19
532.71	1494.36
533.07	1502.33
533.42	1510.60
533.78	1516.81
534.14	1523.33
534.50	1529.43
534.86	1536.67
535.21	1541.62
535.57	1548.95
535.93	1554.52
536.29	1561.36
536.65	1567.86
537.00	1572.55
537.36	1578.52
537.72	1583.45
538.08	1588.81
538.44	1594.93
538.79	1600.29
539.15	1604.67
539.51	1610.52
539.87	1617.14
540.22	1621.98
540.58	1625.98
540.94	1629.21
541.29	1633.81
541.65	1638.52
542.01	1643.12
542.37	1646.07
542.72	1649.00
543.08	1652.02
543.44	1657.17
543.79	1659.69
544.15	1663.38
544.51	1667.71
544.87	1671.69
545.22	1675.76
545.58	1678.40
545.94	1681.74
546.29	1684.60
546.65	1687.55
547.01	1690.19
547.36	1692.67
547.72	1695.69
548.07	1698.64
548.43	1701.62
548.79	1704.67
549.14	1707.71
549.50	1711.38
549.86	1714.10
550.21	1717.62
550.57	1720.74
550.92	1721.45
551.28	1724.64
551.64	1726.95
551.99	1729.05
552.35	1731.21
552.70	1733.12
553.06	1737.62
553.41	1739.48
553.77	1743.95
554.13	1746.26
554.48	1749.14
554.84	1752.57
555.19	1755.10
555.55	1759.64
555.90	1761.79
556.26	1763.74
556.61	1766.05
556.97	1767.19
557.32	1768.57
557.68	1771.07
558.03	1773.74
558.39	1776.67
558.74	1778.26
559.10	1780.38
559.45	1782.21
559.81	1784.86
560.16	1786.86
560.52	1787.74
560.87	1790.12
561.23	1790.45
561.58	1794.52
561.94	1795.31
562.29	1795.98
562.64	1797.26
563.00	1796.69
563.35	1798.17
563.71	1799.60
564.06	1802.38
564.42	1805.33
564.77	1808.00
565.12	1810.14
565.48	1813.19
565.83	1815.43
566.19	1817.71
566.54	1818.31
566.89	1820.12
567.25	1821.24
567.60	1823.90
567.96	1826.81
568.31	1829.31
568.66	1831.02
569.02	1830.10
569.37	1830.50
569.72	1831.69
570.08	1832.81
570.43	1833.36
570.78	1834.36
571.14	1835.24
571.49	1834.48
571.84	1833.88
572.20	1833.52
572.55	1833.07
572.90	1831.60
573.26	1830.90
573.61	1829.76
573.96	1830.02
574.31	1829.14
574.67	1828.40
575.02	1826.62
575.37	1824.17
575.72	1821.83
576.08	1820.43
576.43	1818.62
576.78	1817.76
577.13	1816.07
577.49	1814.05
577.84	1811.93
578.19	1809.67
578.54	1807.43
578.90	1806.36
579.25	1804.07
579.60	1801.93
579.95	1798.74
580.30	1795.31
580.66	1792.71
581.01	1789.90
581.36	1786.76
581.71	1783.83
582.06	1781.07
582.42	1777.19
582.77	1772.57
583.12	1768.14
583.47	1764.43
583.82	1761.17
584.17	1757.88
584.53	1755.29
584.88	1751.81
585.23	1749.57
585.58	1745.43
585.93	1739.83
586.28	1735.69
586.63	1732.40
586.98	1728.67
587.34	1725.57
587.69	1721.24
588.04	1716.14
588.39	1712.40
588.74	1706.64
589.09	1702.29
589.44	1696.17
589.79	1692.00
590.14	1689.33
590.49	1684.17
590.84	1678.98
591.19	1674.62
591.54	1669.52
591.89	1663.88
592.25	1661.64
592.60	1656.19
592.95	1652.24
593.30	1649.74
593.65	1644.12
594.00	1637.36
594.35	1638.50
594.70	1633.00
595.05	1628.43
595.40	1623.33
595.75	1618.21
596.10	1615.57
596.45	1611.07
596.80	1607.62
597.15	1603.74
597.50	1597.05
597.85	1593.26
598.19	1588.12
598.54	1582.81
598.89	1577.43
599.24	1572.48
599.59	1565.02
599.94	1559.12
600.29	1554.02
600.64	1548.79
600.99	1543.33
601.34	1539.45
601.69	1528.07
602.04	1522.45
602.39	1516.67
602.74	1512.31
603.08	1506.45
603.43	1500.88
603.78	1494.74
604.13	1488.71
604.48	1482.50
604.83	1478.48
605.18	1473.31
605.53	1467.95
605.87	1462.64
606.22	1457.33
606.57	1451.24
606.92	1444.76
607.27	1438.83
607.62	1433.14
607.96	1426.86
608.31	1421.38
608.66	1415.69
609.01	1409.50
609.36	1404.60
609.70	1399.14
610.05	1393.19
610.40	1387.76
610.75	1381.33
611.10	1375.79
611.44	1369.95
611.79	1363.24
612.14	1356.38
612.49	1349.19
612.83	1342.45
613.18	1334.86
613.53	1329.07
613.88	1321.95
614.22	1315.69
614.57	1309.74
614.92	1301.69
615.27	1294.67
615.61	1287.62
615.96	1280.00
616.31	1274.57
616.65	1267.21
617.00	1260.83
617.35	1254.19
617.70	1246.93
618.04	1239.79
618.39	1232.88
618.74	1225.74
619.08	1219.86
619.43	1213.05
619.78	1206.62
620.12	1201.43
620.47	1195.76
620.82	1188.67
621.16	1182.76
621.51	1178.14
621.85	1171.90
622.20	1166.26
622.55	1159.90
622.89	1154.26
623.24	1149.26
623.59	1141.62
623.93	1136.12
624.28	1129.95
624.62	1126.88
624.97	1123.05
625.32	1117.02
625.66	1111.33
626.01	1105.86
626.35	1100.00
626.70	1094.88
627.04	1090.02
627.39	1082.88
627.73	1077.88
628.08	1073.38
628.43	1067.83
628.77	1060.79
629.12	1055.45
629.46	1050.57
629.81	1045.14
630.15	1039.33
630.50	1032.57
630.84	1026.93
631.19	1020.40
631.53	1014.00
631.88	1004.74
632.22	996.90
632.57	991.88
632.91	985.71
633.26	979.95
633.60	973.67
633.95	967.21
634.29	960.67
634.64	955.24
634.98	948.43
635.32	942.45
635.67	936.67
636.01	930.74
636.36	924.00
636.70	918.43
637.05	912.95
637.39	907.40
637.73	902.33
638.08	897.67
638.42	892.10
638.77	887.48
639.11	882.10
639.45	876.86
639.80	870.43
640.14	864.86
640.49	858.55
640.83	852.38
641.17	846.98
641.52	841.83
641.86	836.62
642.20	832.38
642.55	826.40
642.89	821.17
643.23	815.50
643.58	811.67
643.92	805.17
644.26	799.81
644.61	794.95
644.95	789.48
645.29	783.76
645.64	778.71
645.98	773.43
646.32	768.48
646.66	762.52
647.01	757.83
647.35	753.43
647.69	748.90
648.04	744.67
648.38	739.43
648.72	734.19
649.06	729.26
649.41	723.55
649.75	718.45
650.09	713.07
650.43	708.17
650.78	701.88
651.12	697.26
651.46	692.17
651.80	686.69
652.14	681.67
652.49	677.31
652.83	673.14
653.17	667.62
653.51	662.50
653.85	658.45
654.20	653.64
654.54	648.17
654.88	643.52
655.22	639.69
655.56	635.26
655.90	630.55
656.25	625.90
656.59	621.62
656.93	617.43
657.27	613.95
657.61	609.36
657.95	606.00
658.29	601.76
658.64	597.64
658.98	593.19
659.32	588.95
659.66	584.19
660.00	580.05
660.34	576.38
660.68	572.76
661.02	568.69
661.36	565.07
661.70	561.10
662.05	556.98
662.39	553.31
662.73	550.52
663.07	547.90
663.41	544.52
663.75	540.90
664.09	537.02
664.43	532.86
664.77	529.50
665.11	525.19
665.45	521.71
665.79	518.69
666.13	515.64
666.47	512.17
666.81	509.48
667.15	505.62
667.49	502.79
667.83	500.45
668.17	497.52
668.51	494.12
668.85	491.50
669.19	489.79
669.53	485.74
669.87	482.21
670.21	478.71
670.55	475.90
670.89	473.79
671.23	470.90
671.57	468.57
671.91	466.02
672.25	463.83
672.58	462.14
672.92	458.93
673.26	456.26
673.60	453.88
673.94	451.17
674.28	448.88
674.62	446.90
674.96	444.21
675.30	442.07
675.64	439.74
675.97	437.29
676.31	434.19
676.65	431.83
676.99	430.36
677.33	427.79
677.67	425.36
678.01	422.36
678.34	420.33
678.68	418.05
679.02	416.00
679.36	413.31
679.70	410.48
680.04	408.26
680.37	406.10
680.71	404.29
681.05	402.19
681.39	400.17
681.73	397.52
682.06	395.05
682.40	392.71
682.74	390.88
683.08	389.88
683.42	387.74
683.75	386.33
684.09	383.71
684.43	381.90
684.77	379.74
685.10	377.62
685.44	375.45
685.78	373.48
686.12	371.40
686.45	370.07
686.79	367.98
687.13	367.10
687.46	365.05
687.80	363.79
688.14	361.95
688.48	360.45
688.81	358.95
689.15	357.86
689.49	356.00
689.82	354.26
690.16	351.43
690.50	349.76
690.83	347.57
691.17	345.60
691.51	344.17
691.84	342.81
692.18	341.40
692.52	340.02
692.85	339.00
693.19	338.52
693.52	336.98
693.86	335.71
694.20	333.67
694.53	332.48
694.87	330.52
695.21	328.88
695.54	327.36
695.88	325.19
696.21	322.90
696.55	321.69
696.88	320.29
697.22	318.86
697.56	317.88
697.89	316.55
698.23	315.57
698.56	313.95
698.90	312.98
699.23	311.52
699.57	310.55
699.90	308.95
700.24	306.88
700.58	305.64
700.91	304.60
701.25	305.24
701.58	305.05
701.92	304.33
702.25	303.52
702.59	302.21
702.92	301.69
703.26	301.02
703.59	299.88
703.93	300.64
704.26	300.17
704.60	299.38
704.93	298.55
705.26	297.64
705.60	297.14
705.93	295.76
706.27	295.64
706.60	295.10
706.94	295.02
707.27	294.29
707.61	293.48
707.94	292.57
708.27	290.38
708.61	288.50
708.94	287.76
709.28	286.88
709.61	285.90
709.94	285.36
710.28	284.71
710.61	284.17
710.95	281.45
711.28	281.81
711.61	280.76
711.95	280.40
712.28	279.10
712.61	278.12
712.95	278.48
713.28	278.31
713.61	277.05
713.95	275.48
714.28	275.05
714.61	274.24
714.95	273.43
715.28	272.40
715.61	271.86
715.95	271.19
716.28	270.55
716.61	270.45
716.95	269.48
717.28	268.69
717.61	267.86
717.94	267.17
718.28	265.00
718.61	264.36
718.94	263.50
719.27	263.12
719.61	262.64
719.94	261.62
720.27	259.81
720.60	259.14
720.94	258.52
721.27	257.86
721.60	257.74
721.93	257.10
722.27	257.26
722.60	257.12
722.93	256.36
723.26	256.10
723.59	255.14
723.93	254.98
724.26	254.62
724.59	254.07
724.92	254.26
725.25	254.52
725.59	254.02
725.92	253.81
726.25	253.50
726.58	253.21
726.91	252.69
727.24	252.88
727.57	252.52
727.91	251.81
728.24	251.50
728.57	250.83
728.90	250.86
729.23	249.64
729.56	250.14
729.89	249.71
730.22	248.90
730.55	248.26
730.89	247.71
731.22	247.14
731.55	246.81
731.88	246.10
732.21	245.38
732.54	245.00
732.87	244.67
733.20	244.26
733.53	243.88
733.86	243.64
734.19	242.74
734.52	242.69
734.85	244.26
735.18	243.79
735.51	244.10
735.84	243.76
736.17	244.10
736.50	242.48
736.83	244.50
737.16	244.26
737.49	244.45
737.82	244.21
738.15	244.31
738.48	244.07
738.81	243.79
739.14	243.50
739.47	242.98
739.80	242.76
740.13	242.74
740.46	242.33
740.79	241.76
741.12	241.69
741.45	241.36
741.78	239.83
742.11	240.14
742.44	239.71
742.77	239.81
743.10	239.21
743.43	239.29
743.75	237.02
744.08	239.64
744.41	239.29
744.74	238.81
745.07	238.24
745.40	238.55
745.73	239.29
746.06	239.10
746.39	239.24
746.71	238.81
747.04	238.40
747.37	238.24
747.70	238.62
748.03	238.57
748.36	238.52
748.68	238.24
749.01	237.31
749.34	236.74
749.67	236.26
750.00	236.36
750.33	237.50
750.65	237.33
750.98	234.31
751.31	234.17
751.64	234.07
751.97	234.93
752.29	234.33
752.62	233.14
752.95	232.57
753.28	232.33
753.60	232.07
753.93	232.40
754.26	232.26
754.59	231.40
754.91	231.00
755.24	230.60
755.57	230.38
755.90	230.40
756.22	230.07
756.55	229.74
756.88	229.24
757.20	227.62
757.53	226.98
757.86	226.81
758.19	226.88
758.51	226.71
758.84	225.83
759.17	225.40
759.49	225.24
759.82	226.26
760.15	226.29
760.47	226.05
760.80	225.31
761.13	225.43
761.45	225.12
761.78	224.90
762.11	224.81
762.43	224.60
762.76	224.43
763.08	224.79
763.41	224.81
763.74	224.71
764.06	224.64
764.39	224.57
764.71	224.45
765.04	224.02
765.37	223.83
765.69	223.62
766.02	223.62
766.34	223.36
766.67	222.69
767.00	222.90
767.32	224.00
767.65	225.26
767.97	224.95
768.30	225.33
768.62	225.40
768.95	225.33
769.27	225.29
769.60	225.48
769.92	224.64
770.25	224.10
770.57	223.81
770.90	223.69
771.22	223.40
771.55	223.52
771.87	223.40
772.20	223.33
772.52	224.79
772.85	227.12
773.17	227.36
773.50	226.98
773.82	226.36
774.15	225.10
774.47	223.55
774.80	223.43
775.12	223.10
775.45	223.02
775.77	222.90
776.09	222.83
776.42	222.62
776.74	223.45
777.07	223.45
777.39	223.31
777.72	223.38
778.04	223.81
778.36	223.60
778.69	223.81
779.01	223.74
779.33	221.88
779.66	219.71
779.98	219.33
780.31	219.12
780.63	220.17
780.95	220.55
781.28	220.62
781.60	220.38
781.92	220.17
782.25	220.05
782.57	219.88
782.89	219.55
783.22	219.36
783.54	218.90
783.86	219.05
784.19	218.74
784.51	219.19
784.83	218.71
785.16	218.67
785.48	218.50
785.80	218.79
786.12	219.05
