SpectraSuite Data File
++++++++++++++++++++++++++++++++++++
Date: Tue Apr 02 18:41:05 EDT 2013
User: group
Dark Spectrum Present: No
Reference Spectrum Present: No
Number of Sampled Component Spectra: 1
Spectrometers: USB2E7196
Integration Time (usec): 580000 (USB2E7196)
Spectra Averaged: 2 (USB2E7196)
Boxcar Smoothing: 10 (USB2E7196)
Correct for Electrical Dark: No (USB2E7196)
Strobe/Lamp Enabled: No (USB2E7196)
Correct for Detector Non-linearity: No (USB2E7196)
Correct for Stray Light: No (USB2E7196)
Number of Pixels in Processed Spectrum: 2048
>>>>>Begin Processed Spectral Data<<<<<
339.09	0.00
339.48	194.00
339.86	190.00
340.24	198.00
340.63	194.50
341.01	230.00
341.39	204.50
341.78	208.00
342.16	207.00
342.54	205.00
342.93	196.90
343.31	206.74
343.69	207.40
344.07	208.12
344.46	208.57
344.84	209.40
345.22	208.24
345.60	208.52
345.99	208.57
346.37	208.60
346.75	208.81
347.13	208.95
347.52	209.14
347.90	209.79
348.28	209.76
348.66	210.50
349.05	209.88
349.43	210.00
349.81	210.24
350.19	210.33
350.57	210.43
350.96	211.05
351.34	211.48
351.72	211.55
352.10	211.86
352.48	212.02
352.87	211.83
353.25	212.00
353.63	211.98
354.01	211.93
354.39	212.19
354.77	212.19
355.15	212.69
355.54	212.50
355.92	211.98
356.30	212.21
356.68	213.29
357.06	213.86
357.44	213.62
357.82	213.74
358.20	214.81
358.58	214.88
358.97	214.79
359.35	215.00
359.73	215.38
360.11	215.43
360.49	215.48
360.87	215.62
361.25	215.90
361.63	216.67
362.01	217.02
362.39	216.98
362.77	217.38
363.15	217.43
363.53	217.55
363.91	217.83
364.29	217.98
364.67	216.17
365.05	216.14
365.43	216.76
365.81	217.17
366.19	217.14
366.57	217.93
366.95	217.83
367.33	217.67
367.71	217.76
368.09	218.02
368.47	217.93
368.85	217.79
369.23	218.38
369.61	217.81
369.99	218.62
370.37	218.88
370.75	219.83
371.13	219.36
371.51	218.98
371.89	219.14
372.27	219.17
372.65	219.50
373.03	219.57
373.41	219.19
373.78	218.95
374.16	218.07
374.54	217.33
374.92	217.21
375.30	217.24
375.68	216.90
376.06	217.07
376.44	217.31
376.82	217.67
377.19	217.26
377.57	216.93
377.95	216.10
378.33	215.83
378.71	214.55
379.09	214.81
379.47	215.10
379.84	214.57
380.22	214.40
380.60	213.98
380.98	213.81
381.36	213.83
381.73	213.29
382.11	213.69
382.49	213.64
382.87	213.43
383.25	213.12
383.62	215.52
384.00	214.95
384.38	214.93
384.76	215.14
385.13	216.00
385.51	216.21
385.89	215.93
386.27	216.02
386.64	216.24
387.02	216.07
387.40	215.93
387.78	216.36
388.15	216.31
388.53	216.00
388.91	216.10
389.29	215.98
389.66	216.57
390.04	216.26
390.42	216.76
390.79	217.02
391.17	216.79
391.55	214.55
391.92	214.50
392.30	214.71
392.68	214.33
393.05	214.12
393.43	214.21
393.81	214.36
394.18	214.05
394.56	214.24
394.94	214.71
395.31	214.40
395.69	215.07
396.06	215.31
396.44	215.67
396.82	215.45
397.19	216.62
397.57	216.24
397.95	216.69
398.32	216.07
398.70	216.26
399.07	217.31
399.45	217.10
399.82	217.17
400.20	216.74
400.58	216.64
400.95	215.74
401.33	215.83
401.70	217.21
402.08	217.48
402.45	217.45
402.83	217.90
403.20	218.26
403.58	217.81
403.95	218.36
404.33	218.90
404.71	219.02
405.08	219.93
405.46	220.38
405.83	220.71
406.21	220.93
406.58	221.14
406.96	221.17
407.33	221.76
407.70	222.62
408.08	224.93
408.45	225.69
408.83	226.86
409.20	227.48
409.58	227.12
409.95	228.45
410.33	229.48
410.70	229.69
411.08	230.98
411.45	232.10
411.82	232.93
412.20	234.45
412.57	237.05
412.95	236.95
413.32	238.93
413.69	240.12
414.07	242.14
414.44	244.24
414.82	246.29
415.19	248.79
415.56	251.19
415.94	252.21
416.31	255.33
416.68	258.36
417.06	262.00
417.43	265.79
417.81	269.07
418.18	272.90
418.55	276.83
418.93	281.00
419.30	285.24
419.67	290.17
420.04	294.50
420.42	299.02
420.79	306.40
421.16	312.07
421.54	318.98
421.91	325.50
422.28	331.81
422.66	338.52
423.03	346.86
423.40	353.93
423.77	361.74
424.15	369.31
424.52	377.07
424.89	386.07
425.26	394.17
425.64	402.24
426.01	410.69
426.38	419.86
426.75	429.71
427.13	439.71
427.50	449.55
427.87	460.29
428.24	470.69
428.61	479.36
428.99	491.07
429.36	502.31
429.73	513.62
430.10	525.57
430.47	537.88
430.85	548.76
431.22	561.71
431.59	576.86
431.96	589.95
432.33	604.62
432.70	618.60
433.08	635.12
433.45	650.48
433.82	666.00
434.19	683.48
434.56	701.19
434.93	716.88
435.30	732.98
435.68	750.86
436.05	769.43
436.42	786.81
436.79	802.90
437.16	820.57
437.53	839.55
437.90	858.12
438.27	876.50
438.64	895.10
439.01	912.69
439.38	927.31
439.75	942.90
440.13	960.33
440.50	976.19
440.87	989.45
441.24	1003.98
441.61	1019.36
441.98	1031.36
442.35	1043.81
442.72	1057.90
443.09	1071.86
443.46	1080.17
443.83	1085.29
444.20	1091.05
444.57	1097.21
444.94	1100.45
445.31	1104.07
445.68	1110.17
446.05	1111.74
446.42	1110.62
446.79	1109.93
447.16	1107.71
447.53	1106.79
447.90	1099.98
448.27	1093.86
448.64	1084.79
449.01	1078.05
449.37	1066.76
449.74	1055.38
450.11	1043.33
450.48	1027.79
450.85	1011.57
451.22	998.52
451.59	986.14
451.96	973.62
452.33	957.69
452.70	943.40
453.07	925.31
453.43	904.14
453.80	887.14
454.17	870.88
454.54	854.67
454.91	837.79
455.28	820.76
455.65	805.88
456.02	793.71
456.38	780.69
456.75	764.90
457.12	751.02
457.49	737.33
457.86	722.60
458.23	712.40
458.59	700.40
458.96	687.74
459.33	675.86
459.70	664.76
460.07	656.31
460.43	646.60
460.80	637.90
461.17	631.12
461.54	622.12
461.91	613.90
462.27	605.48
462.64	598.26
463.01	591.00
463.38	583.86
463.74	572.71
464.11	565.74
464.48	559.64
464.85	552.93
465.21	547.74
465.58	542.38
465.95	535.48
466.32	530.21
466.68	524.83
467.05	519.83
467.42	514.83
467.78	508.95
468.15	503.31
468.52	498.98
468.88	492.48
469.25	488.12
469.62	484.05
469.98	480.07
470.35	476.31
470.72	471.95
471.08	467.21
471.45	464.17
471.82	461.12
472.18	457.38
472.55	455.02
472.92	451.69
473.28	448.45
473.65	445.33
474.02	442.62
474.38	440.71
474.75	438.62
475.11	435.93
475.48	434.24
475.85	432.21
476.21	430.50
476.58	429.52
476.94	428.24
477.31	426.98
477.67	424.93
478.04	424.12
478.41	423.48
478.77	424.71
479.14	423.62
479.50	423.24
479.87	423.05
480.23	422.62
480.60	422.29
480.96	422.62
481.33	423.52
481.69	423.60
482.06	423.31
482.42	423.74
482.79	424.57
483.15	425.17
483.52	426.50
483.88	426.83
484.25	427.24
484.61	427.43
484.98	428.24
485.34	430.24
485.71	431.24
486.07	432.76
486.44	432.48
486.80	434.07
487.17	435.38
487.53	437.26
487.90	439.67
488.26	442.79
488.62	445.48
488.99	447.67
489.35	450.33
489.72	453.19
490.08	455.60
490.44	458.29
490.81	461.57
491.17	464.45
491.54	468.40
491.90	472.45
492.26	476.64
492.63	480.40
492.99	483.86
493.36	488.29
493.72	492.88
494.08	497.24
494.45	502.48
494.81	507.93
495.17	512.81
495.54	517.64
495.90	522.10
496.26	527.40
496.63	532.93
496.99	538.38
497.35	543.86
497.72	550.26
498.08	556.14
498.44	562.21
498.80	569.05
499.17	575.10
499.53	581.79
499.89	588.62
500.26	595.98
500.62	603.43
500.98	610.76
501.34	617.81
501.71	625.88
502.07	632.90
502.43	639.62
502.79	647.07
503.16	655.02
503.52	662.69
503.88	669.36
504.24	677.17
504.60	685.19
504.97	693.74
505.33	701.21
505.69	710.38
506.05	718.07
506.41	726.19
506.78	734.31
507.14	741.76
507.50	750.33
507.86	758.40
508.22	766.79
508.59	774.50
508.95	782.57
509.31	791.64
509.67	799.86
510.03	807.79
510.39	816.29
510.75	824.43
511.12	832.05
511.48	840.50
511.84	847.74
512.20	855.60
512.56	862.95
512.92	871.62
513.28	878.93
513.64	887.24
514.00	894.50
514.37	902.69
514.73	910.69
515.09	918.48
515.45	925.19
515.81	932.36
516.17	940.12
516.53	946.76
516.89	952.33
517.25	959.26
517.61	967.55
517.97	974.21
518.33	980.40
518.69	988.07
519.05	995.21
519.41	1002.60
519.77	1010.90
520.13	1017.57
520.49	1023.79
520.85	1030.19
521.21	1037.19
521.57	1043.69
521.93	1048.95
522.29	1055.36
522.65	1060.38
523.01	1066.74
523.37	1072.50
523.73	1077.67
524.09	1083.26
524.45	1088.81
524.81	1094.17
525.17	1099.05
525.53	1103.71
525.89	1109.07
526.25	1113.98
526.61	1117.90
526.97	1122.43
527.33	1126.45
527.68	1133.07
528.04	1137.67
528.40	1141.98
528.76	1146.62
529.12	1151.55
529.48	1157.17
529.84	1161.71
530.20	1167.40
530.56	1172.81
530.91	1177.14
531.27	1181.95
531.63	1187.26
531.99	1191.29
532.35	1195.33
532.71	1199.55
533.07	1204.81
533.42	1211.36
533.78	1215.62
534.14	1221.45
534.50	1225.86
534.86	1230.00
535.21	1233.24
535.57	1238.38
535.93	1242.67
536.29	1247.64
536.65	1251.98
537.00	1255.95
537.36	1259.55
537.72	1262.50
538.08	1267.19
538.44	1270.90
538.79	1275.29
539.15	1278.55
539.51	1283.55
539.87	1287.79
540.22	1291.21
540.58	1294.95
540.94	1296.81
541.29	1300.88
541.65	1302.74
542.01	1306.76
542.37	1310.43
542.72	1312.83
543.08	1314.43
543.44	1318.31
543.79	1320.19
544.15	1323.12
544.51	1326.76
544.87	1330.71
545.22	1334.98
545.58	1337.76
545.94	1340.74
546.29	1343.98
546.65	1347.98
547.01	1350.33
547.36	1354.67
547.72	1358.00
548.07	1360.76
548.43	1363.86
548.79	1365.88
549.14	1369.36
549.50	1372.57
549.86	1375.19
550.21	1378.69
550.57	1383.12
550.92	1385.71
551.28	1389.43
551.64	1392.81
551.99	1396.69
552.35	1399.40
552.70	1402.19
553.06	1405.79
553.41	1409.69
553.77	1415.17
554.13	1418.45
554.48	1423.67
554.84	1427.55
555.19	1432.67
555.55	1438.19
555.90	1442.57
556.26	1447.55
556.61	1452.86
556.97	1456.86
557.32	1460.86
557.68	1465.79
558.03	1470.17
558.39	1474.76
558.74	1478.88
559.10	1483.86
559.45	1488.07
559.81	1492.45
560.16	1497.24
560.52	1501.17
560.87	1506.57
561.23	1509.17
561.58	1515.50
561.94	1519.14
562.29	1523.19
562.64	1527.40
563.00	1531.55
563.35	1536.14
563.71	1541.52
564.06	1546.24
564.42	1552.02
564.77	1557.86
565.12	1563.86
565.48	1570.79
565.83	1577.43
566.19	1583.74
566.54	1589.45
566.89	1594.67
567.25	1602.40
567.60	1609.67
567.96	1616.83
568.31	1624.14
568.66	1630.64
569.02	1634.93
569.37	1639.52
569.72	1644.83
570.08	1649.74
570.43	1654.10
570.78	1659.79
571.14	1665.07
571.49	1670.14
571.84	1675.52
572.20	1681.10
572.55	1685.55
572.90	1689.36
573.26	1692.98
573.61	1696.62
573.96	1700.60
574.31	1704.64
574.67	1707.64
575.02	1709.95
575.37	1711.52
575.72	1713.95
576.08	1717.36
576.43	1720.12
576.78	1724.74
577.13	1728.90
577.49	1732.79
577.84	1736.93
578.19	1740.40
578.54	1742.76
578.90	1746.48
579.25	1748.74
579.60	1750.45
579.95	1752.62
580.30	1754.93
580.66	1758.31
581.01	1761.29
581.36	1763.40
581.71	1766.40
582.06	1769.10
582.42	1772.19
582.77	1774.83
583.12	1775.98
583.47	1778.10
583.82	1781.24
584.17	1783.43
584.53	1786.50
584.88	1788.36
585.23	1791.17
585.58	1792.52
585.93	1793.76
586.28	1795.60
586.63	1797.60
586.98	1799.31
587.34	1801.62
587.69	1802.24
588.04	1803.26
588.39	1804.05
588.74	1804.55
589.09	1805.57
589.44	1804.69
589.79	1805.55
590.14	1807.12
590.49	1807.33
590.84	1807.40
591.19	1807.88
591.54	1808.17
591.89	1806.98
592.25	1809.64
592.60	1808.14
592.95	1808.31
593.30	1810.98
593.65	1810.90
594.00	1809.95
594.35	1815.57
594.70	1813.81
595.05	1814.69
595.40	1814.57
595.75	1814.24
596.10	1815.02
596.45	1814.36
596.80	1816.10
597.15	1815.40
597.50	1814.64
597.85	1815.93
598.19	1815.36
598.54	1814.55
598.89	1813.33
599.24	1813.33
599.59	1809.81
599.94	1809.48
600.29	1808.21
600.64	1805.29
600.99	1803.71
601.34	1803.24
601.69	1795.86
602.04	1795.17
602.39	1793.38
602.74	1792.02
603.08	1790.50
603.43	1789.98
603.78	1788.24
604.13	1786.29
604.48	1783.71
604.83	1782.60
605.18	1780.62
605.53	1779.29
605.87	1776.86
606.22	1774.50
606.57	1770.81
606.92	1768.86
607.27	1766.95
607.62	1765.24
607.96	1764.36
608.31	1762.45
608.66	1760.36
609.01	1758.29
609.36	1756.26
609.70	1753.69
610.05	1750.17
610.40	1747.98
610.75	1743.45
611.10	1741.10
611.44	1736.81
611.79	1733.86
612.14	1729.74
612.49	1724.83
612.83	1720.14
613.18	1716.29
613.53	1712.83
613.88	1709.52
614.22	1705.76
614.57	1700.98
614.92	1695.67
615.27	1690.79
615.61	1685.43
615.96	1679.86
616.31	1675.10
616.65	1671.38
617.00	1666.26
617.35	1661.98
617.70	1656.24
618.04	1651.17
618.39	1645.24
618.74	1641.00
619.08	1636.21
619.43	1631.76
619.78	1627.31
620.12	1623.19
620.47	1619.31
620.82	1613.62
621.16	1607.36
621.51	1603.14
621.85	1598.02
622.20	1593.71
622.55	1587.52
622.89	1582.81
623.24	1578.26
623.59	1573.62
623.93	1567.62
624.28	1563.00
624.62	1559.79
624.97	1556.17
625.32	1551.24
625.66	1546.83
626.01	1541.43
626.35	1536.64
626.70	1531.10
627.04	1526.88
627.39	1522.05
627.73	1517.57
628.08	1514.36
628.43	1510.40
628.77	1504.40
629.12	1500.00
629.46	1495.29
629.81	1491.05
630.15	1485.64
630.50	1481.07
630.84	1475.21
631.19	1469.43
631.53	1464.24
631.88	1455.93
632.22	1449.31
632.57	1444.76
632.91	1438.36
633.26	1433.07
633.60	1426.93
633.95	1421.62
634.29	1414.86
634.64	1409.07
634.98	1401.95
635.32	1396.29
635.67	1392.02
636.01	1386.90
636.36	1380.98
636.70	1376.24
637.05	1370.69
637.39	1366.10
637.73	1359.55
638.08	1354.67
638.42	1350.02
638.77	1344.88
639.11	1340.10
639.45	1334.21
639.80	1327.24
640.14	1322.14
640.49	1316.60
640.83	1311.50
641.17	1305.43
641.52	1299.74
641.86	1293.45
642.20	1289.19
642.55	1282.33
642.89	1274.98
643.23	1267.69
643.58	1262.90
643.92	1255.10
644.26	1248.64
644.61	1242.31
644.95	1236.26
645.29	1229.12
645.64	1222.33
645.98	1216.05
646.32	1209.48
646.66	1202.81
647.01	1196.93
647.35	1190.55
647.69	1183.71
648.04	1177.02
648.38	1170.57
648.72	1164.90
649.06	1158.12
649.41	1150.05
649.75	1142.95
650.09	1136.14
650.43	1129.76
650.78	1121.50
651.12	1114.64
651.46	1107.76
651.80	1100.36
652.14	1093.74
652.49	1088.29
652.83	1081.79
653.17	1074.26
653.51	1067.98
653.85	1062.21
654.20	1055.17
654.54	1048.14
654.88	1041.43
655.22	1035.19
655.56	1028.45
655.90	1021.50
656.25	1015.31
656.59	1009.69
656.93	1003.98
657.27	998.24
657.61	991.95
657.95	985.95
658.29	979.88
658.64	973.98
658.98	967.19
659.32	960.43
659.66	953.43
660.00	947.19
660.34	941.21
660.68	935.02
661.02	928.57
661.36	922.62
661.70	917.05
662.05	911.29
662.39	905.45
662.73	900.60
663.07	895.71
663.41	889.76
663.75	883.21
664.09	877.76
664.43	871.29
664.77	865.43
665.11	859.74
665.45	854.60
665.79	848.88
666.13	843.40
666.47	838.21
666.81	833.21
667.15	827.50
667.49	822.38
667.83	817.69
668.17	812.64
668.51	807.79
668.85	802.50
669.19	798.00
669.53	791.81
669.87	785.76
670.21	779.88
670.55	775.00
670.89	770.79
671.23	765.24
671.57	760.81
671.91	756.17
672.25	751.40
672.58	746.86
672.92	741.71
673.26	737.36
673.60	732.43
673.94	727.12
674.28	722.52
674.62	717.64
674.96	712.26
675.30	707.69
675.64	703.21
675.97	698.74
676.31	693.71
676.65	689.67
676.99	685.69
677.33	680.71
677.67	676.36
678.01	671.29
678.34	666.88
678.68	663.21
679.02	658.62
679.36	654.19
679.70	649.40
680.04	645.19
680.37	640.71
680.71	636.57
681.05	632.64
681.39	628.02
681.73	623.74
682.06	619.50
682.40	614.86
682.74	610.95
683.08	607.00
683.42	602.07
683.75	597.57
684.09	592.45
684.43	588.57
684.77	584.00
685.10	579.26
685.44	575.21
685.78	570.74
686.12	566.67
686.45	562.19
686.79	557.95
687.13	554.29
687.46	550.31
687.80	546.88
688.14	542.86
688.48	539.40
688.81	535.48
689.15	531.95
689.49	528.19
689.82	524.00
690.16	519.33
690.50	515.98
690.83	512.38
691.17	508.60
691.51	504.52
691.84	501.57
692.18	498.29
692.52	494.88
692.85	491.52
693.19	489.33
693.52	486.14
693.86	482.38
694.20	478.93
694.53	475.74
694.87	472.10
695.21	468.07
695.54	464.50
695.88	460.76
696.21	457.00
696.55	453.76
696.88	450.60
697.22	447.81
697.56	445.24
697.89	442.02
698.23	439.79
698.56	436.98
698.90	433.88
699.23	431.05
699.57	428.55
699.90	425.31
700.24	421.81
700.58	418.95
700.91	417.05
701.25	415.86
701.58	414.02
701.92	411.90
702.25	410.02
702.59	407.52
702.92	405.50
703.26	402.76
703.59	400.57
703.93	399.95
704.26	397.98
704.60	395.57
704.93	393.29
705.26	390.79
705.60	389.10
705.93	386.33
706.27	384.98
706.60	382.57
706.94	381.57
707.27	379.40
707.61	377.67
707.94	375.36
708.27	371.83
708.61	369.07
708.94	366.67
709.28	365.02
709.61	363.02
709.94	361.26
710.28	360.26
710.61	358.50
710.95	354.71
711.28	354.31
711.61	352.33
711.95	350.88
712.28	349.02
712.61	347.05
712.95	346.95
713.28	345.79
713.61	343.88
713.95	341.60
714.28	340.26
714.61	338.90
714.95	337.62
715.28	335.71
715.61	334.26
715.95	332.86
716.28	331.14
716.61	330.02
716.95	328.31
717.28	326.52
717.61	324.95
717.94	323.71
718.28	320.57
718.61	319.33
718.94	317.74
719.27	316.60
719.61	315.02
719.94	312.83
720.27	310.29
720.60	309.17
720.94	307.79
721.27	306.26
721.60	305.19
721.93	303.79
722.27	303.38
722.60	302.55
722.93	301.31
723.26	300.17
723.59	299.00
723.93	298.29
724.26	297.38
724.59	296.40
724.92	295.81
725.25	295.45
725.59	294.45
725.92	294.07
726.25	293.24
726.58	292.71
726.91	291.76
727.24	291.43
727.57	290.67
727.91	289.43
728.24	288.74
728.57	287.24
728.90	286.83
729.23	285.31
729.56	285.43
729.89	284.74
730.22	284.05
730.55	282.93
730.89	281.98
731.22	280.93
731.55	280.07
731.88	279.17
732.21	278.07
732.54	277.26
732.87	276.36
733.20	275.55
733.53	274.64
733.86	273.76
734.19	272.74
734.52	272.07
734.85	272.62
735.18	271.52
735.51	271.71
735.84	270.69
736.17	270.71
736.50	268.64
736.83	270.10
737.16	269.40
737.49	268.95
737.82	268.21
738.15	268.17
738.48	267.62
738.81	266.67
739.14	266.12
739.47	265.33
739.80	264.62
740.13	264.12
740.46	263.60
740.79	263.24
741.12	262.62
741.45	261.71
741.78	260.38
742.11	260.36
742.44	259.38
742.77	259.29
743.10	258.26
743.43	257.74
743.75	255.17
744.08	257.29
744.41	256.62
744.74	256.10
745.07	255.05
745.40	254.86
745.73	255.57
746.06	254.95
746.39	254.88
746.71	254.17
747.04	253.45
747.37	252.76
747.70	252.24
748.03	252.19
748.36	252.19
748.68	251.64
749.01	250.76
749.34	250.21
749.67	249.62
750.00	249.45
750.33	250.93
750.65	250.81
750.98	247.79
751.31	247.74
751.64	247.48
751.97	248.31
752.29	247.90
752.62	246.31
752.95	245.93
753.28	245.24
753.60	244.95
753.93	245.02
754.26	244.93
754.59	244.31
754.91	243.69
755.24	243.45
755.57	243.02
755.90	242.69
756.22	242.38
756.55	242.05
756.88	241.31
757.20	239.38
757.53	238.38
757.86	238.05
758.19	237.57
758.51	237.57
758.84	236.19
759.17	235.50
759.49	235.69
759.82	236.50
760.15	236.26
760.47	236.14
760.80	235.64
761.13	235.74
761.45	235.48
761.78	235.14
762.11	234.67
762.43	234.33
762.76	234.02
763.08	233.71
763.41	233.45
763.74	233.55
764.06	233.36
764.39	233.26
764.71	233.17
765.04	232.79
765.37	232.12
765.69	231.98
766.02	231.79
766.34	231.21
766.67	230.07
767.00	230.55
767.32	231.33
767.65	232.24
767.97	231.69
768.30	231.62
768.62	231.43
768.95	231.02
769.27	230.76
769.60	231.02
769.92	230.48
770.25	229.90
770.57	229.29
770.90	229.07
771.22	228.88
771.55	228.69
771.87	228.64
772.20	228.31
772.52	229.60
772.85	231.88
773.17	231.88
773.50	231.57
773.82	230.93
774.15	229.62
774.47	228.17
774.80	227.90
775.12	227.60
775.45	227.29
775.77	227.43
776.09	227.57
776.42	227.45
776.74	228.21
777.07	228.10
777.39	228.21
777.72	227.90
778.04	227.83
778.36	227.55
778.69	227.36
779.01	227.45
779.33	225.79
779.66	223.50
779.98	223.00
780.31	222.86
780.63	223.38
780.95	223.74
781.28	223.71
781.60	223.55
781.92	223.43
782.25	223.55
782.57	223.26
782.89	223.05
783.22	222.74
783.54	222.12
783.86	222.21
784.19	221.90
784.51	222.50
784.83	222.31
785.16	222.38
