SpectraSuite Data File
++++++++++++++++++++++++++++++++++++
Date: Tue Apr 02 18:40:29 EDT 2013
User: group
Dark Spectrum Present: No
Reference Spectrum Present: No
Number of Sampled Component Spectra: 1
Spectrometers: USB2E7196
Integration Time (usec): 580000 (USB2E7196)
Spectra Averaged: 2 (USB2E7196)
Boxcar Smoothing: 10 (USB2E7196)
Correct for Electrical Dark: No (USB2E7196)
Strobe/Lamp Enabled: No (USB2E7196)
Correct for Detector Non-linearity: No (USB2E7196)
Correct for Stray Light: No (USB2E7196)
Number of Pixels in Processed Spectrum: 2048
>>>>>Begin Processed Spectral Data<<<<<
339.09	0.00
339.48	197.50
339.86	195.00
340.24	200.00
340.63	196.00
341.01	233.00
341.39	203.50
341.78	207.50
342.16	213.00
342.54	204.50
342.93	198.81
343.31	208.69
343.69	209.10
344.07	209.57
344.46	210.19
344.84	211.00
345.22	209.81
345.60	210.26
345.99	210.57
346.37	210.36
346.75	210.57
347.13	210.71
347.52	210.76
347.90	211.43
348.28	211.33
348.66	211.67
349.05	211.21
349.43	211.40
349.81	211.45
350.19	211.40
350.57	211.52
350.96	211.95
351.34	212.31
351.72	212.50
352.10	212.88
352.48	212.76
352.87	212.52
353.25	212.55
353.63	212.36
354.01	212.17
354.39	212.43
354.77	212.40
355.15	212.95
355.54	212.81
355.92	212.29
356.30	212.48
356.68	213.86
357.06	214.05
357.44	213.74
357.82	213.79
358.20	214.90
358.58	214.67
358.97	214.55
359.35	214.95
359.73	215.02
360.11	214.86
360.49	214.83
360.87	214.88
361.25	215.19
361.63	216.07
362.01	216.31
362.39	216.19
362.77	216.40
363.15	216.21
363.53	216.21
363.91	216.29
364.29	216.31
364.67	214.36
365.05	214.40
365.43	214.81
365.81	214.88
366.19	214.83
366.57	215.81
366.95	215.79
367.33	215.36
367.71	215.71
368.09	216.17
368.47	216.14
368.85	216.10
369.23	216.62
369.61	216.02
369.99	216.24
370.37	216.45
370.75	217.36
371.13	216.90
371.51	216.52
371.89	216.55
372.27	216.50
372.65	216.57
373.03	216.50
373.41	216.33
373.78	216.33
374.16	215.10
374.54	214.52
374.92	214.55
375.30	214.48
375.68	213.95
376.06	213.74
376.44	213.81
376.82	214.02
377.19	213.74
377.57	213.52
377.95	213.24
378.33	213.12
378.71	211.88
379.09	212.24
379.47	212.64
379.84	212.55
380.22	212.71
380.60	212.45
380.98	212.62
381.36	212.55
381.73	212.36
382.11	212.90
382.49	212.95
382.87	212.67
383.25	212.40
383.62	214.81
384.00	214.64
384.38	214.76
384.76	215.33
385.13	216.12
385.51	216.12
385.89	215.86
386.27	215.86
386.64	216.21
387.02	216.05
387.40	216.02
387.78	216.14
388.15	216.07
388.53	216.07
388.91	215.86
389.29	215.74
389.66	215.88
390.04	215.33
390.42	215.45
390.79	215.79
391.17	215.86
391.55	213.81
391.92	213.93
392.30	214.02
392.68	213.31
393.05	213.21
393.43	213.31
393.81	213.50
394.18	213.21
394.56	213.14
394.94	213.60
395.31	213.31
395.69	214.05
396.06	214.33
396.44	214.40
396.82	214.33
397.19	215.48
397.57	215.26
397.95	215.86
398.32	215.45
398.70	215.38
399.07	216.00
399.45	215.86
399.82	215.69
400.20	215.52
400.58	215.60
400.95	214.60
401.33	215.05
401.70	216.57
402.08	216.95
402.45	217.26
402.83	217.76
403.20	218.07
403.58	217.74
403.95	218.29
404.33	219.00
404.71	219.50
405.08	220.60
405.46	221.24
405.83	221.69
406.21	222.10
406.58	222.69
406.96	222.90
407.33	223.45
407.70	224.21
408.08	226.43
408.45	227.36
408.83	228.60
409.20	229.19
409.58	228.90
409.95	229.90
410.33	230.83
410.70	231.19
411.08	232.69
411.45	233.79
411.82	234.33
412.20	235.55
412.57	237.93
412.95	237.95
413.32	239.76
413.69	241.10
414.07	243.12
414.44	244.98
414.82	246.95
415.19	249.74
415.56	252.33
415.94	253.62
416.31	256.36
416.68	259.26
417.06	262.60
417.43	266.24
417.81	269.67
418.18	273.64
418.55	277.57
418.93	281.52
419.30	286.12
419.67	290.95
420.04	295.86
420.42	300.38
420.79	307.36
421.16	312.98
421.54	320.52
421.91	326.93
422.28	333.55
422.66	340.62
423.03	348.55
423.40	355.60
423.77	363.00
424.15	370.81
424.52	378.86
424.89	388.07
425.26	395.93
425.64	404.00
426.01	412.62
426.38	422.12
426.75	432.10
427.13	441.79
427.50	451.83
427.87	462.31
428.24	472.71
428.61	481.98
428.99	493.74
429.36	504.45
429.73	516.29
430.10	528.62
430.47	541.02
430.85	552.76
431.22	565.98
431.59	581.90
431.96	595.40
432.33	610.55
432.70	624.98
433.08	642.57
433.45	659.24
433.82	675.33
434.19	693.38
434.56	710.90
434.93	727.95
435.30	745.60
435.68	764.43
436.05	783.33
436.42	801.24
436.79	818.50
437.16	837.02
437.53	856.21
437.90	874.74
438.27	894.02
438.64	913.02
439.01	931.43
439.38	945.88
439.75	962.14
440.13	979.71
440.50	995.05
440.87	1008.14
441.24	1022.19
441.61	1037.48
441.98	1048.69
442.35	1061.86
442.72	1075.43
443.09	1089.00
443.46	1096.81
443.83	1102.62
444.20	1107.88
444.57	1113.90
444.94	1116.95
445.31	1120.43
445.68	1126.21
446.05	1126.95
446.42	1125.36
446.79	1123.86
447.16	1122.05
447.53	1120.90
447.90	1113.95
448.27	1107.69
448.64	1098.62
449.01	1091.67
449.37	1079.57
449.74	1068.21
450.11	1056.00
450.48	1040.17
450.85	1022.95
451.22	1009.81
451.59	996.43
451.96	983.83
452.33	967.57
452.70	952.33
453.07	934.33
453.43	914.02
453.80	896.71
454.17	880.19
454.54	863.81
454.91	846.29
455.28	828.40
455.65	812.64
456.02	801.29
456.38	787.93
456.75	771.79
457.12	758.52
457.49	744.93
457.86	729.50
458.23	718.93
458.59	706.64
458.96	694.05
459.33	682.40
459.70	671.24
460.07	662.00
460.43	652.17
460.80	642.83
461.17	634.67
461.54	625.83
461.91	616.98
462.27	608.07
462.64	600.74
463.01	593.55
463.38	586.86
463.74	575.19
464.11	567.86
464.48	561.64
464.85	554.74
465.21	550.00
465.58	544.79
465.95	537.93
466.32	532.79
466.68	527.38
467.05	522.43
467.42	517.05
467.78	511.29
468.15	505.95
468.52	501.60
468.88	495.79
469.25	490.62
469.62	487.45
469.98	483.86
470.35	480.29
470.72	475.93
471.08	470.90
471.45	467.98
471.82	464.95
472.18	461.17
472.55	458.64
472.92	454.76
473.28	452.02
473.65	449.02
474.02	446.17
474.38	443.62
474.75	441.33
475.11	438.83
475.48	437.24
475.85	435.48
476.21	433.79
476.58	432.60
476.94	431.83
477.31	430.14
477.67	428.57
478.04	427.60
478.41	427.02
478.77	428.76
479.14	427.33
479.50	426.83
479.87	426.36
480.23	425.90
480.60	425.24
480.96	425.07
481.33	425.69
481.69	425.95
482.06	426.07
482.42	426.48
482.79	427.00
483.15	427.52
483.52	428.45
483.88	429.17
484.25	429.64
484.61	430.64
484.98	431.40
485.34	433.31
485.71	434.76
486.07	436.17
486.44	435.29
486.80	437.57
487.17	439.45
487.53	442.33
487.90	444.90
488.26	448.17
488.62	450.93
488.99	452.69
489.35	455.52
489.72	458.52
490.08	461.76
490.44	465.00
490.81	468.36
491.17	471.31
491.54	475.02
491.90	479.00
492.26	482.31
492.63	486.24
492.99	489.52
493.36	493.64
493.72	498.17
494.08	503.19
494.45	508.02
494.81	513.21
495.17	517.24
495.54	522.29
495.90	527.05
496.26	532.40
496.63	538.48
496.99	544.40
497.35	550.38
497.72	556.45
498.08	562.76
498.44	569.17
498.80	576.24
499.17	582.55
499.53	589.05
499.89	596.86
500.26	604.12
500.62	611.14
500.98	618.60
501.34	625.95
501.71	633.45
502.07	640.12
502.43	647.57
502.79	655.48
503.16	662.71
503.52	670.62
503.88	677.79
504.24	685.31
504.60	692.98
504.97	701.57
505.33	709.26
505.69	717.98
506.05	726.55
506.41	734.40
506.78	742.83
507.14	751.62
507.50	759.40
507.86	767.90
508.22	776.60
508.59	784.69
508.95	793.48
509.31	802.88
509.67	811.95
510.03	820.07
510.39	828.48
510.75	837.17
511.12	845.57
511.48	854.05
511.84	862.67
512.20	871.02
512.56	878.76
512.92	886.57
513.28	894.62
513.64	901.88
514.00	909.86
514.37	917.81
514.73	925.93
515.09	933.67
515.45	941.05
515.81	948.95
516.17	956.12
516.53	962.76
516.89	968.90
517.25	975.81
517.61	984.00
517.97	991.17
518.33	998.31
518.69	1006.17
519.05	1013.24
519.41	1020.29
519.77	1028.90
520.13	1035.38
520.49	1042.50
520.85	1049.02
521.21	1057.05
521.57	1064.38
521.93	1070.38
522.29	1076.14
522.65	1082.17
523.01	1088.50
523.37	1093.38
523.73	1100.12
524.09	1106.52
524.45	1112.38
524.81	1118.62
525.17	1124.19
525.53	1129.55
525.89	1134.64
526.25	1139.45
526.61	1145.48
526.97	1150.67
527.33	1154.71
527.68	1161.40
528.04	1166.36
528.40	1170.88
528.76	1176.02
529.12	1181.05
529.48	1187.17
529.84	1192.17
530.20	1197.88
530.56	1203.10
530.91	1209.05
531.27	1214.05
531.63	1218.48
531.99	1222.95
532.35	1227.36
532.71	1232.00
533.07	1237.48
533.42	1245.62
533.78	1251.10
534.14	1255.43
534.50	1259.69
534.86	1265.43
535.21	1269.88
535.57	1276.40
535.93	1281.19
536.29	1286.19
536.65	1290.40
537.00	1294.02
537.36	1298.10
537.72	1301.76
538.08	1306.88
538.44	1310.10
538.79	1314.31
539.15	1319.19
539.51	1324.31
539.87	1328.93
540.22	1332.86
540.58	1337.38
540.94	1338.50
541.29	1342.07
541.65	1345.19
542.01	1349.83
542.37	1352.98
542.72	1355.31
543.08	1357.36
543.44	1361.48
543.79	1363.24
544.15	1367.07
544.51	1372.29
544.87	1376.76
545.22	1381.07
545.58	1384.24
545.94	1388.86
546.29	1392.02
546.65	1395.17
547.01	1397.74
547.36	1401.29
547.72	1404.38
548.07	1408.12
548.43	1411.98
548.79	1414.93
549.14	1418.64
549.50	1422.24
549.86	1424.81
550.21	1428.93
550.57	1432.86
550.92	1436.52
551.28	1440.88
551.64	1444.36
551.99	1446.48
552.35	1450.48
552.70	1454.14
553.06	1457.31
553.41	1460.60
553.77	1465.93
554.13	1469.88
554.48	1475.14
554.84	1480.24
555.19	1485.45
555.55	1490.52
555.90	1494.98
556.26	1500.36
556.61	1505.83
556.97	1508.69
557.32	1513.43
557.68	1517.74
558.03	1521.67
558.39	1525.05
558.74	1530.00
559.10	1534.00
559.45	1538.67
559.81	1543.24
560.16	1547.33
560.52	1552.64
560.87	1558.33
561.23	1561.69
561.58	1567.50
561.94	1572.02
562.29	1575.86
562.64	1579.76
563.00	1584.07
563.35	1589.07
563.71	1593.33
564.06	1598.33
564.42	1604.52
564.77	1609.95
565.12	1615.93
565.48	1623.45
565.83	1630.19
566.19	1635.55
566.54	1641.29
566.89	1647.00
567.25	1652.88
567.60	1659.31
567.96	1665.62
568.31	1672.24
568.66	1678.86
569.02	1683.31
569.37	1687.71
569.72	1692.36
570.08	1697.79
570.43	1701.88
570.78	1706.00
571.14	1710.93
571.49	1714.69
571.84	1719.45
572.20	1723.88
572.55	1728.50
572.90	1730.81
573.26	1733.86
573.61	1736.88
573.96	1740.57
574.31	1744.24
574.67	1747.00
575.02	1749.45
575.37	1750.98
575.72	1752.90
576.08	1755.40
576.43	1757.69
576.78	1760.17
577.13	1762.62
577.49	1764.02
577.84	1767.64
578.19	1770.90
578.54	1772.60
578.90	1775.57
579.25	1778.14
579.60	1780.10
579.95	1780.69
580.30	1782.93
580.66	1786.26
581.01	1788.24
581.36	1789.69
581.71	1792.74
582.06	1795.60
582.42	1798.24
582.77	1800.21
583.12	1801.31
583.47	1802.83
583.82	1805.33
584.17	1807.69
584.53	1810.62
584.88	1812.93
585.23	1813.00
585.58	1814.21
585.93	1815.40
586.28	1817.02
586.63	1818.07
586.98	1819.36
587.34	1821.69
587.69	1821.71
588.04	1822.31
588.39	1823.86
588.74	1823.74
589.09	1822.36
589.44	1820.40
589.79	1820.62
590.14	1820.95
590.49	1821.21
590.84	1820.81
591.19	1820.10
591.54	1819.64
591.89	1818.69
592.25	1819.88
592.60	1818.71
592.95	1818.26
593.30	1818.60
593.65	1816.50
594.00	1815.00
594.35	1818.81
594.70	1815.86
595.05	1815.36
595.40	1813.40
595.75	1812.07
596.10	1811.79
596.45	1811.95
596.80	1812.55
597.15	1811.76
597.50	1810.24
597.85	1809.90
598.19	1807.86
598.54	1807.43
598.89	1806.62
599.24	1805.62
599.59	1802.98
599.94	1802.24
600.29	1800.33
600.64	1798.29
600.99	1797.38
601.34	1796.81
601.69	1790.57
602.04	1789.86
602.39	1787.29
602.74	1786.26
603.08	1783.83
603.43	1783.24
603.78	1780.79
604.13	1778.43
604.48	1775.48
604.83	1774.36
605.18	1771.88
605.53	1770.02
605.87	1766.48
606.22	1763.14
606.57	1759.48
606.92	1756.14
607.27	1754.00
607.62	1751.43
607.96	1749.10
608.31	1746.98
608.66	1743.93
609.01	1740.38
609.36	1737.10
609.70	1734.48
610.05	1730.90
610.40	1727.40
610.75	1723.62
611.10	1720.19
611.44	1715.43
611.79	1711.93
612.14	1707.07
612.49	1701.57
612.83	1698.00
613.18	1693.50
613.53	1689.38
613.88	1684.93
614.22	1679.95
614.57	1674.86
614.92	1670.14
615.27	1664.95
615.61	1658.81
615.96	1652.86
616.31	1647.14
616.65	1643.31
617.00	1638.76
617.35	1632.79
617.70	1627.26
618.04	1621.40
618.39	1615.12
618.74	1610.10
619.08	1603.43
619.43	1598.29
619.78	1593.40
620.12	1588.90
620.47	1584.62
620.82	1578.64
621.16	1572.14
621.51	1568.14
621.85	1561.83
622.20	1556.07
622.55	1550.48
622.89	1545.98
623.24	1541.10
623.59	1535.62
623.93	1529.98
624.28	1525.21
624.62	1522.38
624.97	1518.88
625.32	1514.40
625.66	1509.45
626.01	1504.62
626.35	1500.95
626.70	1495.81
627.04	1491.86
627.39	1485.29
627.73	1480.76
628.08	1477.24
628.43	1473.19
628.77	1468.00
629.12	1463.36
629.46	1458.38
629.81	1453.50
630.15	1447.50
630.50	1442.10
630.84	1436.95
631.19	1430.50
631.53	1423.88
631.88	1415.38
632.22	1407.86
632.57	1402.17
632.91	1396.69
633.26	1390.86
633.60	1383.98
633.95	1378.00
634.29	1370.69
634.64	1365.40
634.98	1357.52
635.32	1351.48
635.67	1346.19
636.01	1340.24
636.36	1334.12
636.70	1329.33
637.05	1323.29
637.39	1317.95
637.73	1312.40
638.08	1308.07
638.42	1303.29
638.77	1298.38
639.11	1293.10
639.45	1287.98
639.80	1280.60
640.14	1274.43
640.49	1268.02
640.83	1263.24
641.17	1257.64
641.52	1252.07
641.86	1246.00
642.20	1242.07
642.55	1234.60
642.89	1227.88
643.23	1220.71
643.58	1215.14
643.92	1206.79
644.26	1199.60
644.61	1192.88
644.95	1186.29
645.29	1178.21
645.64	1171.74
645.98	1164.57
646.32	1158.74
646.66	1151.12
647.01	1145.24
647.35	1139.05
647.69	1132.79
648.04	1126.19
648.38	1119.79
648.72	1112.79
649.06	1106.07
649.41	1097.83
649.75	1090.93
650.09	1085.02
650.43	1079.14
650.78	1072.19
651.12	1066.07
651.46	1059.14
651.80	1052.24
652.14	1045.24
652.49	1039.76
652.83	1032.86
653.17	1026.29
653.51	1019.21
653.85	1013.95
654.20	1007.74
654.54	1000.76
654.88	993.88
655.22	987.48
655.56	980.21
655.90	973.90
656.25	967.29
656.59	961.45
656.93	956.07
657.27	950.36
657.61	943.00
657.95	937.38
658.29	930.95
658.64	926.19
658.98	919.83
659.32	913.29
659.66	906.64
660.00	899.86
660.34	893.93
660.68	888.14
661.02	881.60
661.36	874.98
661.70	869.57
662.05	864.43
662.39	858.69
662.73	853.40
663.07	849.29
663.41	843.43
663.75	837.62
664.09	831.74
664.43	825.05
664.77	819.88
665.11	813.33
665.45	808.31
665.79	802.64
666.13	797.21
666.47	791.95
666.81	786.74
667.15	781.52
667.49	776.62
667.83	772.10
668.17	767.24
668.51	762.02
668.85	756.90
669.19	752.55
669.53	746.52
669.87	740.98
670.21	734.48
670.55	729.81
670.89	725.50
671.23	721.00
671.57	716.43
671.91	712.45
672.25	707.95
672.58	703.93
672.92	698.45
673.26	694.14
673.60	689.88
673.94	685.17
674.28	681.07
674.62	676.98
674.96	671.45
675.30	666.67
675.64	662.29
675.97	657.60
676.31	652.21
676.65	647.83
676.99	644.55
677.33	640.26
677.67	635.88
678.01	631.17
678.34	626.36
678.68	622.50
679.02	617.55
679.36	613.62
679.70	608.57
680.04	604.50
680.37	600.00
680.71	595.55
681.05	591.55
681.39	587.19
681.73	581.98
682.06	577.55
682.40	573.45
682.74	569.98
683.08	566.21
683.42	561.76
683.75	557.64
684.09	552.81
684.43	548.86
684.77	544.07
685.10	539.88
685.44	536.00
685.78	531.57
686.12	527.57
686.45	523.67
686.79	520.00
687.13	516.93
687.46	512.98
687.80	510.00
688.14	506.21
688.48	503.10
688.81	499.95
689.15	497.67
689.49	494.24
689.82	490.74
690.16	486.93
690.50	483.90
690.83	480.45
691.17	476.79
691.51	473.45
691.84	471.00
692.18	467.95
692.52	464.95
692.85	462.00
693.19	459.90
693.52	456.71
693.86	453.45
694.20	450.40
694.53	448.19
694.87	444.83
695.21	441.76
695.54	438.10
695.88	434.60
696.21	430.57
696.55	427.57
696.88	424.60
697.22	421.88
697.56	419.40
697.89	416.88
698.23	414.76
698.56	412.05
698.90	409.57
699.23	406.83
699.57	404.24
699.90	401.71
700.24	398.52
700.58	396.19
700.91	394.24
701.25	393.14
701.58	391.10
701.92	389.36
702.25	387.43
702.59	385.21
702.92	383.31
703.26	381.83
703.59	379.71
703.93	378.95
704.26	377.05
704.60	374.76
704.93	372.83
705.26	370.38
705.60	368.95
705.93	366.62
706.27	365.50
706.60	364.29
706.94	363.36
707.27	361.36
707.61	359.76
707.94	357.79
708.27	354.76
708.61	352.52
708.94	350.52
709.28	348.90
709.61	347.10
709.94	345.43
710.28	343.48
710.61	341.86
710.95	338.76
711.28	338.57
711.61	336.95
711.95	335.79
712.28	334.29
712.61	332.57
712.95	332.07
713.28	330.90
713.61	329.10
713.95	326.90
714.28	325.71
714.61	323.95
714.95	322.12
715.28	320.52
715.61	319.17
715.95	317.98
716.28	316.19
716.61	315.57
716.95	314.02
717.28	312.60
717.61	311.36
717.94	310.05
718.28	307.00
718.61	305.81
718.94	304.19
719.27	302.55
719.61	301.40
719.94	299.74
720.27	297.36
720.60	296.07
720.94	294.90
721.27	293.90
721.60	293.43
721.93	292.45
722.27	291.93
722.60	290.98
722.93	289.55
723.26	288.69
723.59	287.05
723.93	286.57
724.26	286.05
724.59	285.29
724.92	284.48
725.25	284.62
725.59	283.93
725.92	283.43
726.25	283.29
726.58	282.64
726.91	281.76
727.24	281.69
727.57	280.93
727.91	279.98
728.24	279.33
728.57	278.00
728.90	277.86
729.23	276.52
729.56	276.90
729.89	276.38
730.22	275.64
730.55	275.02
730.89	274.38
731.22	273.55
731.55	272.79
731.88	272.45
732.21	271.36
732.54	270.38
732.87	269.48
733.20	268.88
733.53	268.26
733.86	267.83
734.19	266.93
734.52	266.40
734.85	267.12
735.18	266.26
735.51	266.55
735.84	266.05
736.17	265.79
736.50	264.19
736.83	265.86
737.16	265.43
737.49	265.10
737.82	264.38
738.15	263.90
738.48	263.36
738.81	262.67
739.14	261.83
739.47	261.33
739.80	260.71
740.13	260.07
740.46	258.98
740.79	258.19
741.12	257.76
741.45	257.21
741.78	255.86
742.11	255.79
742.44	254.67
742.77	254.26
743.10	253.55
743.43	253.02
743.75	250.36
744.08	252.60
744.41	252.21
744.74	251.60
745.07	250.83
745.40	250.62
745.73	250.79
746.06	250.50
746.39	250.50
746.71	250.14
747.04	249.50
747.37	249.21
747.70	248.98
748.03	248.64
748.36	248.38
748.68	247.71
749.01	246.79
749.34	246.69
749.67	246.07
750.00	246.21
750.33	247.19
750.65	247.31
750.98	244.10
751.31	243.74
751.64	243.60
751.97	244.55
752.29	244.19
752.62	243.10
752.95	242.52
753.28	241.69
753.60	241.38
753.93	241.83
754.26	241.69
754.59	240.98
754.91	240.29
755.24	239.90
755.57	239.52
755.90	239.29
756.22	238.48
756.55	237.93
756.88	236.98
757.20	235.36
757.53	234.50
757.86	234.50
758.19	234.60
758.51	234.17
758.84	232.45
759.17	231.88
759.49	231.86
759.82	232.40
760.15	232.50
760.47	231.93
760.80	230.81
761.13	230.88
761.45	230.48
761.78	230.31
762.11	230.07
762.43	229.79
762.76	229.48
763.08	229.88
763.41	229.81
763.74	229.74
764.06	229.64
764.39	229.31
764.71	228.83
765.04	228.05
765.37	227.86
765.69	227.95
766.02	227.81
766.34	227.50
766.67	226.88
767.00	227.07
767.32	228.05
767.65	229.52
767.97	229.05
768.30	229.02
768.62	228.83
768.95	228.36
769.27	228.19
769.60	228.60
769.92	227.55
770.25	227.19
770.57	226.86
770.90	226.45
771.22	226.12
771.55	226.45
771.87	226.36
772.20	226.36
772.52	227.88
772.85	230.10
773.17	229.81
773.50	229.48
773.82	228.69
774.15	227.76
774.47	226.12
774.80	226.07
775.12	225.95
775.45	226.02
775.77	226.07
776.09	226.05
776.42	225.69
776.74	226.71
777.07	226.62
777.39	226.67
777.72	226.62
778.04	227.02
778.36	226.43
778.69	226.64
779.01	226.33
779.33	224.52
779.66	222.10
779.98	221.93
780.31	221.81
780.63	223.05
780.95	223.17
781.28	223.24
781.60	222.93
781.92	222.90
782.25	222.71
782.57	222.81
782.89	222.48
783.22	222.29
783.54	221.48
783.86	221.67
784.19	221.45
784.51	221.95
784.83	221.45
785.16	221.57
785.48	221.52
