SpectraSuite Data File
++++++++++++++++++++++++++++++++++++
Date: Tue Apr 02 18:39:11 EDT 2013
User: group
Dark Spectrum Present: No
Reference Spectrum Present: No
Number of Sampled Component Spectra: 1
Spectrometers: USB2E7196
Integration Time (usec): 580000 (USB2E7196)
Spectra Averaged: 2 (USB2E7196)
Boxcar Smoothing: 10 (USB2E7196)
Correct for Electrical Dark: No (USB2E7196)
Strobe/Lamp Enabled: No (USB2E7196)
Correct for Detector Non-linearity: No (USB2E7196)
Correct for Stray Light: No (USB2E7196)
Number of Pixels in Processed Spectrum: 2048
>>>>>Begin Processed Spectral Data<<<<<
339.09	0.00
339.48	197.50
339.86	198.00
340.24	195.50
340.63	197.50
341.01	233.50
341.39	199.50
341.78	204.50
342.16	213.50
342.54	204.00
342.93	197.81
343.31	207.62
343.69	207.90
344.07	208.21
344.46	209.02
344.84	209.81
345.22	208.52
345.60	209.07
345.99	209.43
346.37	209.24
346.75	209.50
347.13	209.76
347.52	209.86
347.90	210.48
348.28	210.57
348.66	211.07
349.05	210.36
349.43	210.81
349.81	211.02
350.19	211.17
350.57	211.24
350.96	211.45
351.34	211.69
351.72	211.95
352.10	212.05
352.48	211.79
352.87	211.45
353.25	211.69
353.63	211.57
354.01	211.33
354.39	211.45
354.77	211.48
355.15	212.10
355.54	211.95
355.92	211.55
356.30	211.55
356.68	213.33
357.06	213.57
357.44	213.10
357.82	212.93
358.20	213.93
358.58	214.21
358.97	214.45
359.35	214.76
359.73	215.57
360.11	215.74
360.49	215.98
360.87	216.14
361.25	216.24
361.63	216.90
362.01	217.43
362.39	217.45
362.77	217.79
363.15	217.98
363.53	217.83
363.91	217.86
364.29	217.81
364.67	215.60
365.05	215.71
365.43	216.19
365.81	216.57
366.19	216.76
366.57	217.43
366.95	217.31
367.33	216.83
367.71	216.38
368.09	216.79
368.47	216.71
368.85	216.60
369.23	216.90
369.61	216.29
369.99	216.86
370.37	217.00
370.75	217.79
371.13	216.86
371.51	216.71
371.89	216.83
372.27	216.98
372.65	217.07
373.03	217.12
373.41	216.86
373.78	216.86
374.16	215.74
374.54	215.17
374.92	214.81
375.30	215.00
375.68	214.60
376.06	214.74
376.44	214.74
376.82	215.07
377.19	215.12
377.57	215.02
377.95	214.19
378.33	214.02
378.71	212.79
379.09	213.31
379.47	213.60
379.84	213.29
380.22	213.10
380.60	212.83
380.98	212.67
381.36	212.50
381.73	212.07
382.11	212.60
382.49	212.62
382.87	212.50
383.25	212.67
383.62	215.17
384.00	214.69
384.38	214.90
384.76	215.50
385.13	216.05
385.51	216.19
385.89	216.02
386.27	216.19
386.64	216.55
387.02	216.21
387.40	216.19
387.78	216.33
388.15	216.67
388.53	216.50
388.91	216.43
389.29	216.38
389.66	216.69
390.04	216.19
390.42	216.64
390.79	217.05
391.17	216.86
391.55	214.67
391.92	214.83
392.30	214.71
392.68	214.02
393.05	213.95
393.43	213.98
393.81	214.10
394.18	213.86
394.56	213.88
394.94	214.79
395.31	214.64
395.69	215.38
396.06	215.43
396.44	215.57
396.82	215.31
397.19	216.52
397.57	216.43
397.95	217.05
398.32	216.36
398.70	216.33
399.07	216.95
399.45	216.62
399.82	216.31
400.20	216.07
400.58	216.10
400.95	215.38
401.33	215.95
401.70	217.38
402.08	217.40
402.45	217.52
402.83	217.45
403.20	217.86
403.58	217.64
403.95	218.10
404.33	218.88
404.71	219.50
405.08	220.71
405.46	221.10
405.83	221.33
406.21	221.88
406.58	222.31
406.96	222.33
407.33	223.33
407.70	224.36
408.08	226.69
408.45	227.64
408.83	228.83
409.20	229.12
409.58	228.98
409.95	230.36
410.33	231.57
410.70	232.02
411.08	233.17
411.45	234.48
411.82	235.29
412.20	236.88
412.57	239.38
412.95	239.00
413.32	241.10
413.69	242.52
414.07	244.43
414.44	246.55
414.82	249.02
415.19	251.57
415.56	253.90
415.94	255.48
416.31	258.76
416.68	261.90
417.06	265.69
417.43	269.43
417.81	273.21
418.18	277.07
418.55	281.29
418.93	285.95
419.30	290.17
419.67	295.29
420.04	300.50
420.42	305.17
420.79	312.79
421.16	318.98
421.54	326.69
421.91	333.40
422.28	340.60
422.66	347.67
423.03	356.36
423.40	363.79
423.77	372.36
424.15	380.38
424.52	388.98
424.89	398.71
425.26	407.74
425.64	416.36
426.01	426.02
426.38	435.74
426.75	445.90
427.13	456.88
427.50	467.86
427.87	478.67
428.24	490.10
428.61	500.14
428.99	512.50
429.36	524.79
429.73	537.31
430.10	550.05
430.47	563.24
430.85	575.29
431.22	590.29
431.59	607.00
431.96	621.10
432.33	636.24
432.70	651.67
433.08	669.21
433.45	685.98
433.82	703.19
434.19	722.64
434.56	741.69
434.93	759.14
435.30	776.71
435.68	796.19
436.05	815.74
436.42	834.76
436.79	852.88
437.16	871.95
437.53	892.17
437.90	911.62
438.27	931.33
438.64	951.57
439.01	970.50
439.38	985.19
439.75	1002.36
440.13	1021.95
440.50	1039.40
440.87	1054.26
441.24	1069.50
441.61	1085.81
441.98	1098.21
442.35	1112.17
442.72	1127.24
443.09	1142.12
443.46	1151.64
443.83	1157.19
444.20	1163.05
444.57	1170.69
444.94	1174.50
445.31	1178.81
445.68	1185.12
446.05	1187.43
446.42	1185.40
446.79	1184.17
447.16	1181.93
447.53	1180.36
447.90	1173.57
448.27	1166.36
448.64	1156.48
449.01	1149.95
449.37	1137.57
449.74	1124.60
450.11	1111.50
450.48	1094.76
450.85	1076.60
451.22	1062.31
451.59	1048.81
451.96	1035.21
452.33	1016.79
452.70	1000.60
453.07	981.17
453.43	959.74
453.80	940.88
454.17	923.67
454.54	905.95
454.91	888.29
455.28	870.40
455.65	853.26
456.02	839.79
456.38	825.43
456.75	807.52
457.12	792.17
457.49	777.98
457.86	761.67
458.23	749.98
458.59	736.79
458.96	722.81
459.33	711.14
459.70	698.90
460.07	689.36
460.43	678.29
460.80	668.55
461.17	660.02
461.54	650.33
461.91	641.52
462.27	632.05
462.64	624.19
463.01	615.29
463.38	607.88
463.74	596.33
464.11	588.74
464.48	582.21
464.85	575.17
465.21	570.21
465.58	564.62
465.95	556.74
466.32	551.79
466.68	546.24
467.05	540.05
467.42	534.43
467.78	528.36
468.15	522.52
468.52	518.69
468.88	512.71
469.25	507.57
469.62	503.71
469.98	499.76
470.35	495.79
470.72	492.24
471.08	487.26
471.45	484.33
471.82	481.33
472.18	477.67
472.55	475.10
472.92	471.02
473.28	467.83
473.65	464.81
474.02	461.67
474.38	459.12
474.75	457.07
475.11	454.71
475.48	452.48
475.85	450.81
476.21	448.14
476.58	446.36
476.94	445.38
477.31	443.86
477.67	442.10
478.04	441.14
478.41	440.12
478.77	441.43
479.14	439.90
479.50	439.07
479.87	438.60
480.23	438.07
480.60	437.81
480.96	437.55
481.33	438.98
481.69	439.00
482.06	439.14
482.42	439.64
482.79	440.21
483.15	440.81
483.52	442.05
483.88	442.83
484.25	443.81
484.61	444.86
484.98	445.88
485.34	447.67
485.71	448.83
486.07	450.21
486.44	449.74
486.80	451.83
487.17	453.64
487.53	456.14
487.90	458.83
488.26	462.21
488.62	465.38
488.99	467.33
489.35	470.55
489.72	473.52
490.08	476.43
490.44	479.98
490.81	483.90
491.17	487.26
491.54	491.14
491.90	495.14
492.26	499.60
492.63	503.62
492.99	507.76
493.36	512.14
493.72	517.40
494.08	522.90
494.45	528.40
494.81	534.33
495.17	539.64
495.54	545.19
495.90	550.60
496.26	556.07
496.63	562.07
496.99	567.67
497.35	574.67
497.72	581.83
498.08	588.52
498.44	595.31
498.80	602.64
499.17	609.86
499.53	617.40
499.89	625.14
500.26	633.21
500.62	640.76
500.98	649.74
501.34	657.52
501.71	665.79
502.07	673.55
502.43	681.57
502.79	689.86
503.16	698.33
503.52	706.90
503.88	715.12
504.24	724.52
504.60	733.95
504.97	742.88
505.33	750.86
505.69	760.40
506.05	769.55
506.41	778.67
506.78	787.55
507.14	796.40
507.50	805.69
507.86	814.95
508.22	825.05
508.59	833.33
508.95	842.52
509.31	852.14
509.67	861.95
510.03	871.43
510.39	880.81
510.75	889.86
511.12	899.31
511.48	909.36
511.84	918.31
512.20	927.38
512.56	936.21
512.92	946.55
513.28	955.81
513.64	965.10
514.00	974.62
514.37	983.95
514.73	992.86
515.09	1002.67
515.45	1011.74
515.81	1020.36
516.17	1029.48
516.53	1038.48
516.89	1046.60
517.25	1055.10
517.61	1064.17
517.97	1072.33
518.33	1081.38
518.69	1090.12
519.05	1098.98
519.41	1107.40
519.77	1117.24
520.13	1124.93
520.49	1132.36
520.85	1139.67
521.21	1148.64
521.57	1155.81
521.93	1163.12
522.29	1170.81
522.65	1175.64
523.01	1183.55
523.37	1190.14
523.73	1196.69
524.09	1203.10
524.45	1209.52
524.81	1216.19
525.17	1222.55
525.53	1229.81
525.89	1236.07
526.25	1242.88
526.61	1247.81
526.97	1254.33
527.33	1260.02
527.68	1268.21
528.04	1274.48
528.40	1280.81
528.76	1286.14
529.12	1292.88
529.48	1299.00
529.84	1305.17
530.20	1312.83
530.56	1318.50
530.91	1325.43
531.27	1331.88
531.63	1338.24
531.99	1344.64
532.35	1350.19
532.71	1355.55
533.07	1361.26
533.42	1369.38
533.78	1375.07
534.14	1381.60
534.50	1387.48
534.86	1394.14
535.21	1398.60
535.57	1404.90
535.93	1410.76
536.29	1417.74
536.65	1422.48
537.00	1427.67
537.36	1432.55
537.72	1437.24
538.08	1442.33
538.44	1447.14
538.79	1453.45
539.15	1458.76
539.51	1464.26
539.87	1470.00
540.22	1475.48
540.58	1480.79
540.94	1482.81
541.29	1487.26
541.65	1491.60
542.01	1496.38
542.37	1500.29
542.72	1504.50
543.08	1507.74
543.44	1512.40
543.79	1514.40
544.15	1520.00
544.51	1524.69
544.87	1530.29
545.22	1534.83
545.58	1538.69
545.94	1542.40
546.29	1546.14
546.65	1550.50
547.01	1553.69
547.36	1557.69
547.72	1561.69
548.07	1565.62
548.43	1569.67
548.79	1572.95
549.14	1577.05
549.50	1580.64
549.86	1582.67
550.21	1586.19
550.57	1590.98
550.92	1593.31
551.28	1598.00
551.64	1600.83
551.99	1605.00
552.35	1608.36
552.70	1611.93
553.06	1615.26
553.41	1620.29
553.77	1624.67
554.13	1628.60
554.48	1633.31
554.84	1636.93
555.19	1641.48
555.55	1646.14
555.90	1650.14
556.26	1653.83
556.61	1657.55
556.97	1661.19
557.32	1666.10
557.68	1670.21
558.03	1673.62
558.39	1678.12
558.74	1681.45
559.10	1684.76
559.45	1688.33
559.81	1691.50
560.16	1694.93
560.52	1699.74
560.87	1703.10
561.23	1705.43
561.58	1710.71
561.94	1713.55
562.29	1717.40
562.64	1720.88
563.00	1723.83
563.35	1727.93
563.71	1731.71
564.06	1736.07
564.42	1739.76
564.77	1744.17
565.12	1749.17
565.48	1755.43
565.83	1759.95
566.19	1764.40
566.54	1769.48
566.89	1773.67
567.25	1778.76
567.60	1784.36
567.96	1789.74
568.31	1793.45
568.66	1798.38
569.02	1799.40
569.37	1802.64
569.72	1805.48
570.08	1807.26
570.43	1810.05
570.78	1812.43
571.14	1816.24
571.49	1818.71
571.84	1821.93
572.20	1823.81
572.55	1826.38
572.90	1826.76
573.26	1828.52
573.61	1828.74
573.96	1830.45
574.31	1832.43
574.67	1832.69
575.02	1833.17
575.37	1831.83
575.72	1831.98
576.08	1832.05
576.43	1832.48
576.78	1833.86
577.13	1834.95
577.49	1836.14
577.84	1836.43
578.19	1837.45
578.54	1837.48
578.90	1838.36
579.25	1837.81
579.60	1837.40
579.95	1834.88
580.30	1834.69
580.66	1835.05
581.01	1836.21
581.36	1834.81
581.71	1834.64
582.06	1836.60
582.42	1836.48
582.77	1836.21
583.12	1836.12
583.47	1835.07
583.82	1834.95
584.17	1834.64
584.53	1833.81
584.88	1832.64
585.23	1833.05
585.58	1831.26
585.93	1829.90
586.28	1828.52
586.63	1827.76
586.98	1826.98
587.34	1827.00
587.69	1824.64
588.04	1822.10
588.39	1820.67
588.74	1818.45
589.09	1815.48
589.44	1810.81
589.79	1808.55
590.14	1807.19
590.49	1804.26
590.84	1802.52
591.19	1801.02
591.54	1797.21
591.89	1794.00
592.25	1793.36
592.60	1788.50
592.95	1786.81
593.30	1783.93
593.65	1780.10
594.00	1776.02
594.35	1777.93
594.70	1773.43
595.05	1772.05
595.40	1769.83
595.75	1766.64
596.10	1764.60
596.45	1762.19
596.80	1760.12
597.15	1756.40
597.50	1752.83
597.85	1751.29
598.19	1746.81
598.54	1743.05
598.89	1741.31
599.24	1739.57
599.59	1734.90
599.94	1732.12
600.29	1728.36
600.64	1724.86
600.99	1722.29
601.34	1720.17
601.69	1712.36
602.04	1710.26
602.39	1705.07
602.74	1701.43
603.08	1697.48
603.43	1695.33
603.78	1692.26
604.13	1687.45
604.48	1683.48
604.83	1679.62
605.18	1675.24
605.53	1672.24
605.87	1667.55
606.22	1662.17
606.57	1657.00
606.92	1652.86
607.27	1649.48
607.62	1645.45
607.96	1641.21
608.31	1637.36
608.66	1632.17
609.01	1626.90
609.36	1621.81
609.70	1617.69
610.05	1611.62
610.40	1606.60
610.75	1599.62
611.10	1594.02
611.44	1588.57
611.79	1582.60
612.14	1576.71
612.49	1569.95
612.83	1563.79
613.18	1558.21
613.53	1552.71
613.88	1546.36
614.22	1540.12
614.57	1534.19
614.92	1526.98
615.27	1521.26
615.61	1514.31
615.96	1508.02
616.31	1501.19
616.65	1496.62
617.00	1489.81
617.35	1483.93
617.70	1477.83
618.04	1471.76
618.39	1464.86
618.74	1459.17
619.08	1453.07
619.43	1446.76
619.78	1441.52
620.12	1436.57
620.47	1430.88
620.82	1424.36
621.16	1417.48
621.51	1411.81
621.85	1404.50
622.20	1398.14
622.55	1391.07
622.89	1384.57
623.24	1378.62
623.59	1372.83
623.93	1365.62
624.28	1360.24
624.62	1356.64
624.97	1351.83
625.32	1346.19
625.66	1339.64
626.01	1333.83
626.35	1328.67
626.70	1323.24
627.04	1316.95
627.39	1309.95
627.73	1304.71
628.08	1299.60
628.43	1294.79
628.77	1288.10
629.12	1283.17
629.46	1278.83
629.81	1273.79
630.15	1267.93
630.50	1261.67
630.84	1255.43
631.19	1249.02
631.53	1242.02
631.88	1233.14
632.22	1224.93
632.57	1218.24
632.91	1212.71
633.26	1206.45
633.60	1199.88
633.95	1193.14
634.29	1186.29
634.64	1180.17
634.98	1172.43
635.32	1166.60
635.67	1161.00
636.01	1155.07
636.36	1148.36
636.70	1141.74
637.05	1134.93
637.39	1128.98
637.73	1122.62
638.08	1117.69
638.42	1111.48
638.77	1106.10
639.11	1100.19
639.45	1094.48
639.80	1088.19
640.14	1081.86
640.49	1075.57
640.83	1068.83
641.17	1062.62
641.52	1056.79
641.86	1050.40
642.20	1045.50
642.55	1038.29
642.89	1031.24
643.23	1024.67
643.58	1019.19
643.92	1012.64
644.26	1006.29
644.61	999.83
644.95	993.90
645.29	986.67
645.64	981.02
645.98	974.83
646.32	969.00
646.66	962.93
647.01	956.48
647.35	950.62
647.69	944.48
648.04	939.10
648.38	933.05
648.72	927.45
649.06	921.07
649.41	914.57
649.75	908.31
650.09	902.24
650.43	896.31
650.78	889.36
651.12	882.76
651.46	876.57
651.80	870.76
652.14	864.90
652.49	859.33
652.83	853.07
653.17	846.95
653.51	840.79
653.85	835.05
654.20	829.12
654.54	823.07
654.88	816.93
655.22	811.79
655.56	805.57
655.90	799.26
656.25	793.57
656.59	787.95
656.93	782.98
657.27	778.31
657.61	772.26
657.95	767.05
658.29	761.88
658.64	756.81
658.98	751.24
659.32	745.50
659.66	740.10
660.00	734.67
660.34	729.38
660.68	724.17
661.02	718.62
661.36	713.95
661.70	709.00
662.05	704.40
662.39	699.21
662.73	695.48
663.07	691.95
663.41	687.36
663.75	681.95
664.09	676.86
664.43	670.90
664.77	666.10
665.11	660.69
665.45	656.12
665.79	651.76
666.13	646.60
666.47	641.93
666.81	637.00
667.15	632.21
667.49	628.24
667.83	624.43
668.17	620.45
668.51	615.83
668.85	611.21
669.19	608.24
669.53	602.79
669.87	598.12
670.21	592.83
670.55	588.71
670.89	585.88
671.23	581.74
671.57	577.83
671.91	574.62
672.25	571.31
672.58	568.45
672.92	564.48
673.26	561.38
673.60	558.05
673.94	554.60
674.28	551.21
674.62	547.71
674.96	543.93
675.30	540.45
675.64	537.24
675.97	533.60
676.31	528.81
676.65	525.79
676.99	523.00
677.33	519.98
677.67	516.48
678.01	512.29
678.34	508.98
678.68	506.33
679.02	503.00
679.36	499.69
679.70	495.64
680.04	492.38
680.37	489.21
680.71	485.90
681.05	483.02
681.39	480.02
681.73	475.88
682.06	472.71
682.40	469.79
682.74	466.71
683.08	464.71
683.42	461.52
683.75	458.95
684.09	455.07
684.43	451.98
684.77	449.31
685.10	446.81
685.44	444.14
685.78	441.17
686.12	438.21
686.45	435.21
686.79	432.40
687.13	429.90
687.46	426.95
687.80	424.90
688.14	422.14
688.48	419.69
688.81	418.21
689.15	416.24
689.49	413.40
689.82	411.07
690.16	407.50
690.50	405.48
690.83	403.02
691.17	400.50
691.51	398.36
691.84	396.52
692.18	394.07
692.52	391.83
692.85	390.02
693.19	388.55
693.52	386.76
693.86	384.50
694.20	382.10
694.53	379.98
694.87	377.57
695.21	375.00
695.54	373.02
695.88	370.17
696.21	367.29
696.55	365.21
696.88	363.07
697.22	361.33
697.56	359.19
697.89	356.98
698.23	355.60
698.56	353.71
698.90	352.00
699.23	350.19
699.57	348.50
699.90	346.40
700.24	344.33
700.58	342.64
700.91	341.52
701.25	341.62
701.58	340.95
701.92	339.74
702.25	338.67
702.59	336.55
702.92	335.31
703.26	334.10
703.59	332.62
703.93	333.29
704.26	332.21
704.60	331.14
704.93	329.95
705.26	328.38
705.60	327.21
705.93	325.38
706.27	324.26
706.60	323.26
706.94	322.90
707.27	321.07
707.61	319.76
707.94	318.17
708.27	315.31
708.61	312.98
708.94	311.21
709.28	309.93
709.61	308.95
709.94	307.71
710.28	306.57
710.61	305.55
710.95	302.24
711.28	302.17
711.61	301.07
711.95	300.52
712.28	299.24
712.61	297.98
712.95	297.81
713.28	297.69
713.61	296.52
713.95	294.86
714.28	294.29
714.61	293.21
714.95	292.29
715.28	290.95
715.61	290.19
715.95	289.74
716.28	288.93
716.61	288.19
716.95	287.26
717.28	286.48
717.61	285.55
717.94	284.71
718.28	282.45
718.61	281.50
718.94	279.98
719.27	279.10
719.61	278.43
719.94	277.05
720.27	275.07
720.60	273.86
720.94	273.02
721.27	272.19
721.60	271.86
721.93	271.21
722.27	271.02
722.60	270.83
722.93	269.55
723.26	268.90
723.59	268.24
723.93	267.90
724.26	267.29
724.59	266.48
724.92	266.17
725.25	266.29
725.59	265.69
725.92	265.31
726.25	265.00
726.58	264.62
726.91	264.14
727.24	263.98
727.57	263.57
727.91	262.48
728.24	262.31
728.57	261.12
728.90	260.67
729.23	259.93
729.56	259.98
729.89	259.76
730.22	258.83
730.55	258.07
730.89	257.45
731.22	256.93
731.55	256.45
731.88	255.76
732.21	254.81
732.54	254.00
732.87	253.52
733.20	253.00
733.53	252.36
733.86	251.88
734.19	250.93
734.52	250.74
734.85	251.98
735.18	250.95
735.51	251.52
735.84	251.14
736.17	251.33
736.50	250.38
736.83	252.36
737.16	252.45
737.49	252.07
737.82	251.62
738.15	251.62
738.48	251.26
738.81	250.98
739.14	250.40
739.47	250.07
739.80	249.86
740.13	249.76
740.46	248.81
740.79	248.24
741.12	248.05
741.45	247.60
741.78	246.05
742.11	246.38
742.44	245.48
742.77	245.60
743.10	244.88
743.43	244.10
743.75	241.43
744.08	243.52
744.41	243.19
744.74	242.86
745.07	241.98
745.40	242.10
745.73	242.81
746.06	242.74
746.39	242.88
746.71	242.31
747.04	241.71
747.37	241.55
747.70	241.48
748.03	241.48
748.36	241.36
748.68	241.10
749.01	240.33
749.34	240.02
749.67	239.60
750.00	239.64
750.33	240.95
750.65	240.95
750.98	238.50
751.31	238.26
751.64	238.00
751.97	239.12
752.29	238.81
752.62	237.55
752.95	237.12
753.28	236.55
753.60	236.45
753.93	236.86
754.26	237.00
754.59	236.19
754.91	235.67
755.24	235.21
755.57	235.07
755.90	234.83
756.22	234.57
756.55	234.24
756.88	233.40
757.20	231.79
757.53	231.02
757.86	230.52
758.19	230.67
758.51	230.71
758.84	229.19
759.17	228.90
759.49	228.81
759.82	229.62
760.15	229.76
760.47	229.33
760.80	228.57
761.13	228.79
761.45	228.76
761.78	228.48
762.11	228.29
762.43	227.88
762.76	227.81
763.08	227.81
763.41	227.79
763.74	227.79
764.06	227.50
764.39	227.60
764.71	227.50
765.04	226.95
765.37	226.36
765.69	226.38
766.02	225.98
766.34	225.67
766.67	224.81
767.00	224.88
767.32	226.10
767.65	227.05
767.97	226.48
768.30	226.33
768.62	226.36
768.95	226.10
769.27	225.93
769.60	226.14
769.92	225.67
770.25	225.05
770.57	224.86
770.90	224.81
771.22	224.57
771.55	224.45
771.87	224.64
772.20	224.64
772.52	225.98
772.85	228.33
773.17	228.31
773.50	228.14
773.82	227.67
774.15	226.48
774.47	225.26
774.80	225.05
775.12	225.00
775.45	224.81
775.77	224.71
776.09	224.76
776.42	224.62
776.74	225.19
777.07	225.10
777.39	224.98
777.72	224.83
778.04	224.79
778.36	224.40
778.69	224.40
779.01	224.57
779.33	222.67
779.66	220.40
779.98	220.19
780.31	220.14
780.63	221.07
780.95	221.31
781.28	221.33
781.60	221.02
781.92	220.98
782.25	220.88
782.57	221.07
782.89	220.57
783.22	220.24
783.54	219.93
783.86	220.00
784.19	219.98
784.51	220.48
784.83	220.31
785.16	220.45
785.48	220.26
