SpectraSuite Data File
++++++++++++++++++++++++++++++++++++
Date: Tue Apr 02 18:38:33 EDT 2013
User: group
Dark Spectrum Present: No
Reference Spectrum Present: No
Number of Sampled Component Spectra: 1
Spectrometers: USB2E7196
Integration Time (usec): 580000 (USB2E7196)
Spectra Averaged: 2 (USB2E7196)
Boxcar Smoothing: 10 (USB2E7196)
Correct for Electrical Dark: No (USB2E7196)
Strobe/Lamp Enabled: No (USB2E7196)
Correct for Detector Non-linearity: No (USB2E7196)
Correct for Stray Light: No (USB2E7196)
Number of Pixels in Processed Spectrum: 2048
>>>>>Begin Processed Spectral Data<<<<<
339.09	0.00
339.48	191.50
339.86	195.50
340.24	197.00
340.63	194.50
341.01	233.50
341.39	200.50
341.78	206.50
342.16	206.50
342.54	204.50
342.93	197.57
343.31	207.19
343.69	207.76
344.07	208.38
344.46	209.12
344.84	210.00
345.22	208.76
345.60	209.26
345.99	209.36
346.37	209.69
346.75	209.88
347.13	209.83
347.52	209.79
347.90	210.48
348.28	210.19
348.66	210.67
349.05	210.29
349.43	210.36
349.81	210.45
350.19	210.50
350.57	210.52
350.96	210.76
351.34	211.21
351.72	211.36
352.10	211.29
352.48	210.98
352.87	210.74
353.25	210.79
353.63	210.76
354.01	210.90
354.39	210.86
354.77	210.86
355.15	211.29
355.54	211.43
355.92	210.81
356.30	211.17
356.68	212.40
357.06	212.69
357.44	212.31
357.82	212.40
358.20	213.38
358.58	213.40
358.97	213.50
359.35	214.05
359.73	214.50
360.11	214.69
360.49	215.19
360.87	215.21
361.25	215.67
361.63	216.36
362.01	216.57
362.39	216.45
362.77	216.62
363.15	216.69
363.53	216.79
363.91	217.12
364.29	217.02
364.67	215.02
365.05	215.10
365.43	215.29
365.81	215.43
366.19	215.33
366.57	216.10
366.95	216.24
367.33	215.60
367.71	215.62
368.09	215.98
368.47	215.98
368.85	216.10
369.23	216.31
369.61	215.64
369.99	216.17
370.37	216.38
370.75	217.43
371.13	217.12
371.51	216.93
371.89	217.10
372.27	217.31
372.65	217.52
373.03	217.38
373.41	217.60
373.78	217.52
374.16	216.71
374.54	216.14
374.92	215.76
375.30	215.93
375.68	215.43
376.06	215.45
376.44	215.19
376.82	215.45
377.19	215.26
377.57	215.10
377.95	214.45
378.33	214.48
378.71	213.26
379.09	213.52
379.47	213.62
379.84	213.29
380.22	213.02
380.60	212.90
380.98	212.86
381.36	212.60
381.73	212.38
382.11	212.55
382.49	212.48
382.87	212.40
383.25	212.38
383.62	214.81
384.00	214.43
384.38	214.38
384.76	214.55
385.13	215.43
385.51	215.50
385.89	215.07
386.27	215.14
386.64	215.38
387.02	215.17
387.40	214.88
387.78	215.14
388.15	215.24
388.53	215.10
388.91	215.33
389.29	215.31
389.66	215.67
390.04	215.43
390.42	215.69
390.79	215.83
391.17	215.81
391.55	213.74
391.92	213.83
392.30	214.12
392.68	213.69
393.05	213.55
393.43	213.67
393.81	214.17
394.18	213.64
394.56	213.86
394.94	214.33
395.31	214.33
395.69	215.00
396.06	215.48
396.44	215.60
396.82	215.40
397.19	216.57
397.57	216.21
397.95	216.67
398.32	216.33
398.70	216.71
399.07	217.21
399.45	217.10
399.82	217.14
400.20	217.19
400.58	217.21
400.95	216.48
401.33	216.86
401.70	218.10
402.08	218.29
402.45	218.38
402.83	219.05
403.20	219.36
403.58	219.07
403.95	219.48
404.33	220.10
404.71	220.43
405.08	221.33
405.46	221.98
405.83	222.21
406.21	222.64
406.58	222.98
406.96	223.21
407.33	224.24
407.70	225.05
408.08	226.93
408.45	228.29
408.83	229.48
409.20	230.12
409.58	229.95
409.95	231.48
410.33	232.50
410.70	232.88
411.08	234.43
411.45	235.67
411.82	236.52
412.20	238.24
412.57	240.86
412.95	240.86
413.32	242.74
413.69	244.90
414.07	246.95
414.44	248.95
414.82	251.62
415.19	254.26
415.56	256.67
415.94	258.48
416.31	261.52
416.68	264.67
417.06	268.55
417.43	272.57
417.81	276.48
418.18	280.86
418.55	285.07
418.93	289.90
419.30	294.98
419.67	300.12
420.04	305.43
420.42	310.45
420.79	318.69
421.16	325.14
421.54	332.90
421.91	340.07
422.28	347.62
422.66	355.10
423.03	363.69
423.40	372.12
423.77	380.71
424.15	389.26
424.52	398.48
424.89	408.64
425.26	418.05
425.64	427.10
426.01	436.88
426.38	447.43
426.75	458.45
427.13	469.38
427.50	480.81
427.87	492.74
428.24	504.76
428.61	514.95
428.99	528.45
429.36	540.07
429.73	552.81
430.10	566.31
430.47	580.31
430.85	593.33
431.22	607.83
431.59	624.74
431.96	639.62
432.33	656.29
432.70	672.52
433.08	691.36
433.45	709.48
433.82	727.64
434.19	747.67
434.56	767.74
434.93	786.05
435.30	805.17
435.68	826.12
436.05	846.90
436.42	867.71
436.79	886.40
437.16	908.07
437.53	930.10
437.90	951.29
438.27	972.55
438.64	994.00
439.01	1014.45
439.38	1031.40
439.75	1049.29
440.13	1068.64
440.50	1086.62
440.87	1102.45
441.24	1118.19
441.61	1135.17
441.98	1148.33
442.35	1162.31
442.72	1178.24
443.09	1193.98
443.46	1203.02
443.83	1209.00
444.20	1214.17
444.57	1221.26
444.94	1224.57
445.31	1228.98
445.68	1235.50
446.05	1237.26
446.42	1236.26
446.79	1235.67
447.16	1233.38
447.53	1232.02
447.90	1225.02
448.27	1217.69
448.64	1206.81
449.01	1200.26
449.37	1187.31
449.74	1174.62
450.11	1161.45
450.48	1143.52
450.85	1124.76
451.22	1109.79
451.59	1095.36
451.96	1081.21
452.33	1063.14
452.70	1047.07
453.07	1026.45
453.43	1003.29
453.80	983.76
454.17	964.62
454.54	945.81
454.91	926.76
455.28	907.88
455.65	890.26
456.02	876.17
456.38	861.33
456.75	842.48
457.12	826.90
457.49	811.79
457.86	794.98
458.23	783.17
458.59	769.10
458.96	754.40
459.33	742.17
459.70	729.93
460.07	719.83
460.43	707.81
460.80	697.57
461.17	688.88
461.54	678.50
461.91	669.21
462.27	659.07
462.64	650.74
463.01	641.95
463.38	634.17
463.74	622.05
464.11	614.38
464.48	607.14
464.85	599.71
465.21	593.98
465.58	587.79
465.95	580.10
466.32	574.64
466.68	568.79
467.05	562.81
467.42	556.86
467.78	550.50
468.15	544.86
468.52	540.38
468.88	533.67
469.25	528.55
469.62	524.52
469.98	520.29
470.35	516.00
470.72	511.50
471.08	505.95
471.45	502.67
471.82	498.90
472.18	495.07
472.55	492.21
472.92	488.19
473.28	484.55
473.65	481.40
474.02	477.98
474.38	475.55
474.75	472.93
475.11	470.26
475.48	468.38
475.85	465.98
476.21	463.69
476.58	462.45
476.94	461.07
477.31	459.62
477.67	457.71
478.04	456.50
478.41	455.86
478.77	457.17
479.14	456.31
479.50	455.62
479.87	454.98
480.23	454.69
480.60	454.40
480.96	454.38
481.33	455.05
481.69	455.40
482.06	455.83
482.42	456.57
482.79	457.48
483.15	457.86
483.52	459.36
483.88	460.45
484.25	461.21
484.61	462.12
484.98	462.95
485.34	465.05
485.71	466.93
486.07	468.71
486.44	468.76
486.80	470.36
487.17	472.48
487.53	476.00
487.90	478.40
488.26	481.40
488.62	484.74
488.99	487.33
489.35	490.38
489.72	493.48
490.08	496.74
490.44	500.17
490.81	504.45
491.17	508.07
491.54	512.00
491.90	516.79
492.26	521.48
492.63	526.14
492.99	530.86
493.36	535.71
493.72	541.24
494.08	546.90
494.45	553.33
494.81	559.43
495.17	564.69
495.54	570.95
495.90	577.24
496.26	583.14
496.63	589.98
496.99	597.00
497.35	604.67
497.72	612.17
498.08	619.19
498.44	627.17
498.80	635.10
499.17	643.71
499.53	651.17
499.89	660.02
500.26	669.29
500.62	678.10
500.98	687.76
501.34	696.81
501.71	706.57
502.07	715.90
502.43	725.07
502.79	734.64
503.16	744.38
503.52	754.05
503.88	764.12
504.24	774.29
504.60	784.29
504.97	794.40
505.33	804.50
505.69	816.05
506.05	826.14
506.41	836.33
506.78	846.02
507.14	856.50
507.50	867.31
507.86	877.36
508.22	888.24
508.59	898.00
508.95	908.10
509.31	919.48
509.67	929.83
510.03	940.36
510.39	951.45
510.75	962.12
511.12	973.12
511.48	984.24
511.84	994.60
512.20	1005.79
512.56	1016.64
512.92	1027.95
513.28	1038.43
513.64	1049.10
514.00	1060.38
514.37	1071.81
514.73	1083.07
515.09	1093.48
515.45	1104.29
515.81	1114.60
516.17	1124.98
516.53	1135.38
516.89	1144.57
517.25	1155.38
517.61	1165.98
517.97	1176.00
518.33	1186.24
518.69	1195.93
519.05	1206.10
519.41	1216.19
519.77	1227.40
520.13	1236.07
520.49	1244.74
520.85	1254.21
521.21	1263.74
521.57	1273.19
521.93	1281.36
522.29	1290.67
522.65	1299.21
523.01	1308.33
523.37	1316.24
523.73	1324.86
524.09	1333.57
524.45	1341.52
524.81	1349.00
525.17	1357.38
525.53	1365.38
525.89	1372.83
526.25	1381.43
526.61	1388.50
526.97	1396.38
527.33	1401.74
527.68	1410.93
528.04	1418.71
528.40	1425.83
528.76	1432.98
529.12	1439.88
529.48	1448.57
529.84	1455.69
530.20	1462.55
530.56	1469.52
530.91	1476.88
531.27	1484.26
531.63	1491.64
531.99	1498.40
532.35	1504.83
532.71	1511.55
533.07	1518.45
533.42	1528.07
533.78	1534.52
534.14	1541.26
534.50	1547.17
534.86	1554.69
535.21	1559.38
535.57	1566.02
535.93	1571.69
536.29	1578.93
536.65	1585.21
537.00	1589.12
537.36	1594.26
537.72	1599.62
538.08	1604.79
538.44	1610.67
538.79	1616.21
539.15	1620.98
539.51	1626.50
539.87	1631.69
540.22	1635.71
540.58	1639.76
540.94	1641.95
541.29	1645.79
541.65	1649.21
542.01	1654.24
542.37	1657.26
542.72	1661.24
543.08	1664.33
543.44	1667.88
543.79	1669.83
544.15	1673.50
544.51	1679.00
544.87	1683.05
545.22	1686.62
545.58	1689.57
545.94	1691.76
546.29	1693.52
546.65	1695.48
547.01	1697.71
547.36	1700.40
547.72	1703.36
548.07	1706.81
548.43	1709.52
548.79	1711.74
549.14	1714.29
549.50	1715.95
549.86	1717.19
550.21	1718.95
550.57	1721.05
550.92	1722.71
551.28	1724.79
551.64	1726.26
551.99	1726.98
552.35	1727.76
552.70	1728.60
553.06	1730.69
553.41	1733.00
553.77	1736.52
554.13	1739.33
554.48	1741.33
554.84	1743.62
555.19	1745.21
555.55	1747.74
555.90	1749.19
556.26	1751.29
556.61	1752.67
556.97	1753.64
557.32	1756.55
557.68	1758.50
558.03	1759.57
558.39	1760.57
558.74	1762.21
559.10	1762.76
559.45	1763.95
559.81	1765.10
560.16	1767.21
560.52	1767.79
560.87	1768.12
561.23	1767.88
561.58	1769.05
561.94	1769.60
562.29	1769.43
562.64	1770.62
563.00	1769.33
563.35	1769.24
563.71	1769.90
564.06	1771.17
564.42	1771.71
564.77	1772.10
565.12	1773.74
565.48	1776.19
565.83	1778.62
566.19	1779.14
566.54	1780.29
566.89	1780.76
567.25	1782.38
567.60	1783.76
567.96	1786.33
568.31	1788.10
568.66	1788.67
569.02	1787.26
569.37	1786.90
569.72	1787.48
570.08	1786.79
570.43	1786.81
570.78	1787.26
571.14	1786.69
571.49	1785.79
571.84	1785.76
572.20	1784.60
572.55	1783.36
572.90	1780.60
573.26	1778.24
573.61	1776.10
573.96	1774.81
574.31	1772.81
574.67	1769.79
575.02	1767.74
575.37	1764.24
575.72	1761.21
576.08	1759.14
576.43	1757.83
576.78	1755.24
577.13	1752.60
577.49	1749.71
577.84	1746.90
578.19	1743.24
578.54	1740.40
578.90	1737.02
579.25	1733.76
579.60	1730.67
579.95	1725.98
580.30	1722.26
580.66	1719.50
581.01	1716.67
581.36	1712.26
581.71	1708.95
582.06	1706.45
582.42	1702.12
582.77	1697.26
583.12	1694.00
583.47	1689.26
583.82	1684.93
584.17	1681.81
584.53	1678.48
584.88	1674.31
585.23	1670.21
585.58	1665.74
585.93	1659.98
586.28	1655.71
586.63	1651.57
586.98	1647.50
587.34	1643.98
587.69	1639.57
588.04	1634.33
588.39	1629.79
588.74	1624.74
589.09	1620.07
589.44	1613.71
589.79	1608.55
590.14	1603.79
590.49	1597.60
590.84	1593.38
591.19	1588.17
591.54	1582.50
591.89	1576.26
592.25	1573.02
592.60	1567.31
592.95	1562.36
593.30	1557.62
593.65	1551.74
594.00	1544.55
594.35	1544.24
594.70	1538.36
595.05	1532.98
595.40	1526.64
595.75	1520.02
596.10	1514.64
596.45	1508.45
596.80	1503.60
597.15	1497.52
597.50	1491.17
597.85	1485.98
598.19	1479.52
598.54	1473.52
598.89	1467.52
599.24	1462.05
599.59	1453.98
599.94	1448.33
600.29	1442.57
600.64	1436.83
600.99	1432.31
601.34	1427.71
601.69	1415.98
602.04	1409.98
602.39	1403.93
602.74	1399.14
603.08	1393.64
603.43	1388.71
603.78	1383.14
604.13	1377.29
604.48	1371.55
604.83	1367.10
605.18	1361.40
605.53	1355.52
605.87	1349.64
606.22	1344.12
606.57	1338.07
606.92	1333.24
607.27	1327.83
607.62	1322.55
607.96	1317.07
608.31	1311.64
608.66	1305.76
609.01	1299.83
609.36	1294.43
609.70	1289.21
610.05	1283.50
610.40	1277.88
610.75	1270.88
611.10	1265.21
611.44	1258.93
611.79	1253.17
612.14	1247.12
612.49	1240.40
612.83	1234.26
613.18	1228.12
613.53	1221.76
613.88	1215.67
614.22	1208.38
614.57	1202.21
614.92	1195.10
615.27	1189.33
615.61	1182.29
615.96	1175.55
616.31	1170.26
616.65	1163.62
617.00	1157.00
617.35	1150.93
617.70	1144.57
618.04	1138.98
618.39	1132.76
618.74	1127.29
619.08	1120.67
619.43	1114.69
619.78	1108.74
620.12	1103.48
620.47	1097.74
620.82	1090.86
621.16	1084.33
621.51	1080.12
621.85	1074.05
622.20	1068.33
622.55	1061.98
622.89	1056.02
623.24	1051.31
623.59	1045.45
623.93	1040.12
624.28	1035.64
624.62	1031.98
624.97	1027.67
625.32	1022.12
625.66	1016.52
626.01	1010.86
626.35	1005.95
626.70	1000.19
627.04	996.19
627.39	990.52
627.73	986.45
628.08	982.48
628.43	977.24
628.77	971.40
629.12	965.90
629.46	961.43
629.81	956.29
630.15	950.86
630.50	945.21
630.84	939.60
631.19	934.29
631.53	928.00
631.88	919.71
632.22	912.64
632.57	907.69
632.91	901.60
633.26	896.19
633.60	890.43
633.95	884.74
634.29	878.33
634.64	872.62
634.98	865.86
635.32	860.74
635.67	856.24
636.01	850.64
636.36	844.90
636.70	839.48
637.05	833.83
637.39	829.26
637.73	824.05
638.08	819.43
638.42	813.88
638.77	809.31
639.11	804.69
639.45	800.02
639.80	794.40
640.14	790.26
640.49	785.19
640.83	780.29
641.17	775.71
641.52	770.45
641.86	766.17
642.20	762.21
642.55	757.07
642.89	751.81
643.23	746.83
643.58	743.33
643.92	738.02
644.26	733.57
644.61	728.62
644.95	723.74
645.29	718.07
645.64	714.21
645.98	708.71
646.32	704.40
646.66	699.76
647.01	695.33
647.35	690.93
647.69	686.17
648.04	682.00
648.38	677.17
648.72	672.62
649.06	667.55
649.41	662.17
649.75	656.93
650.09	652.88
650.43	648.60
650.78	643.45
651.12	639.02
651.46	634.62
651.80	630.07
652.14	625.67
652.49	622.12
652.83	617.48
653.17	613.33
653.51	608.81
653.85	604.64
654.20	600.60
654.54	595.76
654.88	591.26
655.22	587.60
655.56	583.36
655.90	579.52
656.25	575.71
656.59	572.10
656.93	568.83
657.27	565.50
657.61	561.71
657.95	558.05
658.29	554.45
658.64	551.02
658.98	547.14
659.32	543.48
659.66	539.86
660.00	536.62
660.34	533.31
660.68	529.67
661.02	526.29
661.36	522.50
661.70	519.12
662.05	516.12
662.39	512.60
662.73	510.12
663.07	508.33
663.41	505.36
663.75	501.90
664.09	498.83
664.43	495.05
664.77	491.57
665.11	488.05
665.45	485.26
665.79	482.52
666.13	479.83
666.47	477.14
666.81	474.05
667.15	470.55
667.49	468.00
667.83	465.71
668.17	462.79
668.51	460.00
668.85	457.93
669.19	456.19
669.53	453.14
669.87	450.14
670.21	446.64
670.55	444.17
670.89	443.00
671.23	440.69
671.57	438.45
671.91	436.43
672.25	434.57
672.58	432.81
672.92	429.90
673.26	427.50
673.60	425.43
673.94	423.29
674.28	421.57
674.62	419.69
674.96	417.55
675.30	415.76
675.64	414.12
675.97	412.02
676.31	409.50
676.65	407.33
676.99	406.14
677.33	403.81
677.67	401.81
678.01	398.74
678.34	396.98
678.68	395.19
679.02	393.38
679.36	391.31
679.70	388.88
680.04	387.00
680.37	385.31
680.71	383.40
681.05	381.76
681.39	380.05
681.73	377.93
682.06	375.90
682.40	374.19
682.74	372.52
683.08	371.33
683.42	369.52
683.75	368.57
684.09	365.83
684.43	364.31
684.77	362.12
685.10	360.81
685.44	359.40
685.78	357.62
686.12	355.95
686.45	354.33
686.79	352.64
687.13	351.38
687.46	349.76
687.80	348.76
688.14	347.31
688.48	345.81
688.81	344.31
689.15	343.36
689.49	341.86
689.82	340.40
690.16	338.02
690.50	336.79
690.83	334.93
691.17	333.52
691.51	332.31
691.84	331.38
692.18	330.14
692.52	328.52
692.85	327.40
693.19	326.95
693.52	325.81
693.86	324.48
694.20	323.43
694.53	322.21
694.87	320.33
695.21	318.71
695.54	317.36
695.88	315.90
696.21	314.12
696.55	312.90
696.88	311.55
697.22	310.48
697.56	309.31
697.89	307.98
698.23	307.31
698.56	306.12
698.90	305.33
699.23	303.88
699.57	302.98
699.90	301.62
700.24	299.90
700.58	299.07
700.91	298.38
701.25	298.76
701.58	298.60
701.92	298.10
702.25	297.43
702.59	296.19
702.92	295.26
703.26	294.52
703.59	293.86
703.93	294.93
704.26	294.40
704.60	293.69
704.93	292.93
705.26	291.67
705.60	291.12
705.93	289.83
706.27	289.52
706.60	288.95
706.94	289.29
707.27	288.14
707.61	287.48
707.94	286.62
708.27	284.31
708.61	282.95
708.94	282.29
709.28	281.74
709.61	281.19
709.94	280.67
710.28	280.10
710.61	279.45
710.95	276.55
711.28	277.14
711.61	276.31
711.95	276.02
712.28	275.45
712.61	274.55
712.95	275.24
713.28	275.55
713.61	274.38
713.95	272.95
714.28	272.55
714.61	271.88
714.95	271.07
715.28	270.05
715.61	269.21
715.95	268.55
716.28	267.24
716.61	266.81
716.95	266.12
717.28	265.40
717.61	264.55
717.94	264.14
718.28	262.00
718.61	261.21
718.94	260.17
719.27	259.52
719.61	259.14
719.94	257.81
720.27	256.05
720.60	255.74
720.94	255.33
721.27	254.86
721.60	254.48
721.93	254.10
722.27	254.74
722.60	254.55
722.93	253.74
723.26	253.98
723.59	253.21
723.93	252.90
724.26	252.71
724.59	252.26
724.92	251.98
725.25	252.10
725.59	251.86
725.92	252.02
726.25	251.64
726.58	251.38
726.91	251.07
727.24	251.07
727.57	250.57
727.91	249.86
728.24	249.81
728.57	249.21
728.90	248.93
729.23	247.74
729.56	248.14
729.89	248.02
730.22	247.45
730.55	247.26
730.89	247.17
731.22	246.50
731.55	246.26
731.88	246.33
732.21	245.86
732.54	245.36
732.87	244.67
733.20	244.48
733.53	244.14
733.86	243.64
734.19	243.10
734.52	243.05
734.85	244.26
735.18	243.57
735.51	243.90
735.84	243.76
736.17	244.12
736.50	243.05
736.83	245.24
737.16	245.02
737.49	244.81
737.82	244.33
738.15	244.55
738.48	244.07
738.81	243.48
739.14	242.88
739.47	242.55
739.80	242.40
740.13	242.33
740.46	241.74
740.79	241.38
741.12	241.14
741.45	240.55
741.78	238.88
742.11	239.24
742.44	238.67
742.77	238.57
743.10	237.90
743.43	237.55
743.75	235.05
744.08	237.55
744.41	237.12
744.74	236.67
745.07	235.98
745.40	236.19
745.73	236.57
746.06	236.48
746.39	236.62
746.71	236.26
747.04	235.71
747.37	235.55
747.70	235.55
748.03	235.33
748.36	235.57
748.68	235.33
749.01	234.52
749.34	234.07
749.67	234.05
750.00	234.26
750.33	235.36
750.65	235.33
750.98	232.38
751.31	232.38
751.64	232.33
751.97	233.55
752.29	233.24
752.62	232.50
752.95	232.40
753.28	231.86
753.60	231.81
753.93	232.45
754.26	232.50
754.59	232.02
754.91	231.76
755.24	231.33
755.57	231.43
755.90	231.19
756.22	231.14
756.55	230.52
756.88	229.83
757.20	228.33
757.53	227.57
757.86	227.60
758.19	227.48
758.51	227.21
758.84	225.76
759.17	225.48
759.49	225.45
759.82	226.19
760.15	226.52
760.47	226.43
760.80	225.60
761.13	225.71
761.45	225.40
761.78	225.26
762.11	225.17
762.43	224.93
762.76	225.02
763.08	224.86
763.41	224.90
763.74	224.93
764.06	225.07
764.39	225.19
764.71	225.19
765.04	224.69
765.37	224.67
765.69	224.57
766.02	224.29
766.34	223.95
766.67	223.05
767.00	223.31
767.32	224.10
767.65	225.05
767.97	224.90
768.30	224.95
768.62	224.98
768.95	224.60
769.27	224.26
769.60	224.45
769.92	224.12
770.25	223.69
770.57	223.33
770.90	222.98
771.22	222.67
771.55	222.17
771.87	222.48
772.20	222.29
772.52	223.93
772.85	226.50
773.17	226.45
773.50	226.29
773.82	225.69
774.15	224.74
774.47	223.38
774.80	223.02
775.12	222.83
775.45	222.69
775.77	222.98
776.09	223.07
776.42	222.79
776.74	223.67
777.07	223.45
777.39	223.62
777.72	223.62
778.04	223.86
778.36	223.81
778.69	223.81
779.01	223.69
779.33	221.79
779.66	219.33
779.98	219.33
780.31	219.45
780.63	220.14
780.95	220.24
781.28	220.19
781.60	219.90
781.92	220.12
782.25	220.02
782.57	220.12
782.89	220.05
783.22	219.86
783.54	219.02
783.86	219.50
784.19	219.17
784.51	219.88
784.83	219.62
785.16	219.83
785.48	219.74
785.80	219.95
786.12	220.24
786.45	220.19
