SpectraSuite Data File
++++++++++++++++++++++++++++++++++++
Date: Tue Apr 02 18:40:14 EDT 2013
User: group
Dark Spectrum Present: No
Reference Spectrum Present: No
Number of Sampled Component Spectra: 1
Spectrometers: USB2E7196
Integration Time (usec): 580000 (USB2E7196)
Spectra Averaged: 2 (USB2E7196)
Boxcar Smoothing: 10 (USB2E7196)
Correct for Electrical Dark: No (USB2E7196)
Strobe/Lamp Enabled: No (USB2E7196)
Correct for Detector Non-linearity: No (USB2E7196)
Correct for Stray Light: No (USB2E7196)
Number of Pixels in Processed Spectrum: 2048
>>>>>Begin Processed Spectral Data<<<<<
339.09	0.00
339.48	193.50
339.86	192.50
340.24	196.00
340.63	198.00
341.01	231.50
341.39	201.50
341.78	208.50
342.16	208.00
342.54	200.50
342.93	197.12
343.31	206.83
343.69	207.45
344.07	208.17
344.46	209.05
344.84	209.81
345.22	208.55
345.60	208.98
345.99	208.95
346.37	209.00
346.75	209.60
347.13	209.64
347.52	210.05
347.90	210.76
348.28	210.69
348.66	211.10
349.05	210.26
349.43	210.45
349.81	210.93
350.19	210.98
350.57	211.12
350.96	211.45
351.34	211.71
351.72	212.00
352.10	212.07
352.48	211.83
352.87	211.40
353.25	211.60
353.63	211.57
354.01	211.62
354.39	211.90
354.77	211.90
355.15	212.74
355.54	212.79
355.92	212.24
356.30	212.33
356.68	213.62
357.06	213.86
357.44	213.36
357.82	213.31
358.20	214.33
358.58	214.40
358.97	214.64
359.35	214.95
359.73	215.00
360.11	215.05
360.49	215.24
360.87	215.36
361.25	215.74
361.63	216.40
362.01	216.88
362.39	216.88
362.77	216.86
363.15	216.43
363.53	216.24
363.91	216.43
364.29	216.33
364.67	214.12
365.05	213.95
365.43	214.38
365.81	214.64
366.19	214.67
366.57	215.40
366.95	215.31
367.33	215.02
367.71	215.26
368.09	215.57
368.47	215.45
368.85	215.43
369.23	215.52
369.61	214.86
369.99	215.48
370.37	215.38
370.75	216.57
371.13	216.33
371.51	216.12
371.89	216.14
372.27	216.36
372.65	216.88
373.03	217.24
373.41	217.14
373.78	216.98
374.16	215.83
374.54	215.24
374.92	215.14
375.30	215.26
375.68	214.64
376.06	214.79
376.44	214.69
376.82	215.02
377.19	215.19
377.57	215.14
377.95	214.14
378.33	214.26
378.71	212.83
379.09	213.10
379.47	213.50
379.84	213.05
380.22	212.88
380.60	212.43
380.98	212.33
381.36	212.36
381.73	212.10
382.11	212.74
382.49	212.76
382.87	212.43
383.25	212.38
383.62	215.02
384.00	214.67
384.38	215.00
384.76	215.31
385.13	215.98
385.51	216.10
385.89	215.83
386.27	215.64
386.64	216.12
387.02	216.05
387.40	215.81
387.78	216.24
388.15	216.29
388.53	216.24
388.91	216.21
389.29	215.98
389.66	216.19
390.04	215.95
390.42	216.19
390.79	216.43
391.17	216.36
391.55	213.93
391.92	214.00
392.30	213.76
392.68	213.21
393.05	213.05
393.43	212.98
393.81	213.38
394.18	213.31
394.56	213.21
394.94	213.48
395.31	213.10
395.69	213.64
396.06	213.86
396.44	214.12
396.82	213.74
397.19	214.90
397.57	214.62
397.95	214.95
398.32	214.50
398.70	214.95
399.07	215.67
399.45	215.83
399.82	215.71
400.20	215.67
400.58	215.86
400.95	215.02
401.33	215.57
401.70	217.02
402.08	217.29
402.45	217.31
402.83	217.95
403.20	218.31
403.58	218.10
403.95	218.88
404.33	219.62
404.71	220.17
405.08	221.45
405.46	222.17
405.83	222.50
406.21	222.79
406.58	223.21
406.96	223.31
407.33	223.79
407.70	224.69
408.08	227.10
408.45	227.90
408.83	229.00
409.20	229.62
409.58	228.90
409.95	229.95
410.33	231.19
410.70	231.31
411.08	232.81
411.45	234.10
411.82	234.81
412.20	236.14
412.57	238.88
412.95	238.55
413.32	240.26
413.69	241.88
414.07	243.79
414.44	245.67
414.82	247.74
415.19	250.26
415.56	252.52
415.94	253.74
416.31	256.86
416.68	259.57
417.06	262.88
417.43	266.81
417.81	270.45
418.18	274.55
418.55	278.71
418.93	282.79
419.30	287.31
419.67	291.81
420.04	296.48
420.42	300.71
420.79	308.19
421.16	314.31
421.54	321.31
421.91	327.83
422.28	334.38
422.66	341.48
423.03	349.76
423.40	357.26
423.77	364.95
424.15	372.69
424.52	380.86
424.89	390.12
425.26	398.31
425.64	406.79
426.01	415.60
426.38	425.24
426.75	435.14
427.13	444.98
427.50	455.86
427.87	466.57
428.24	477.26
428.61	486.64
428.99	498.19
429.36	509.36
429.73	521.67
430.10	533.81
430.47	546.26
430.85	558.14
431.22	571.07
431.59	587.07
431.96	600.50
432.33	615.55
432.70	630.10
433.08	647.81
433.45	663.57
433.82	679.33
434.19	697.36
434.56	715.55
434.93	732.33
435.30	748.52
435.68	766.76
436.05	785.33
436.42	803.50
436.79	820.81
437.16	839.74
437.53	858.67
437.90	878.10
438.27	897.69
438.64	916.81
439.01	935.36
439.38	950.36
439.75	966.76
440.13	985.02
440.50	1001.83
440.87	1014.95
441.24	1029.79
441.61	1045.95
441.98	1057.95
442.35	1070.81
442.72	1084.26
443.09	1099.05
443.46	1107.43
443.83	1113.31
444.20	1117.67
444.57	1123.64
444.94	1126.43
445.31	1130.45
445.68	1135.62
446.05	1136.40
446.42	1134.90
446.79	1133.67
447.16	1131.10
447.53	1129.48
447.90	1123.07
448.27	1115.69
448.64	1106.64
449.01	1099.90
449.37	1087.64
449.74	1075.38
450.11	1063.10
450.48	1048.17
450.85	1031.76
451.22	1018.43
451.59	1005.74
451.96	993.95
452.33	977.67
452.70	963.00
453.07	944.74
453.43	924.76
453.80	907.67
454.17	890.50
454.54	874.00
454.91	856.93
455.28	839.40
455.65	822.90
456.02	810.55
456.38	796.57
456.75	779.76
457.12	765.81
457.49	751.88
457.86	736.52
458.23	725.26
458.59	712.10
458.96	699.36
459.33	687.38
459.70	675.64
460.07	666.55
460.43	655.48
460.80	645.62
461.17	637.21
461.54	627.88
461.91	619.69
462.27	611.00
462.64	603.19
463.01	595.81
463.38	588.55
463.74	577.74
464.11	570.88
464.48	564.79
464.85	558.12
465.21	553.48
465.58	548.14
465.95	540.90
466.32	535.83
466.68	530.57
467.05	525.24
467.42	520.00
467.78	514.14
468.15	509.52
468.52	506.05
468.88	499.86
469.25	494.79
469.62	491.29
469.98	487.05
470.35	483.38
470.72	479.14
471.08	474.74
471.45	471.48
471.82	468.86
472.18	465.00
472.55	462.12
472.92	458.19
473.28	455.29
473.65	452.52
474.02	449.33
474.38	447.10
474.75	445.17
475.11	442.50
475.48	441.02
475.85	438.98
476.21	436.40
476.58	435.07
476.94	434.36
477.31	432.62
477.67	431.00
478.04	429.81
478.41	429.19
478.77	430.17
479.14	429.07
479.50	428.21
479.87	428.00
480.23	427.76
480.60	427.60
480.96	427.17
481.33	427.88
481.69	428.24
482.06	427.98
482.42	428.43
482.79	428.86
483.15	428.98
483.52	429.71
483.88	430.86
484.25	432.07
484.61	432.79
484.98	433.62
485.34	435.86
485.71	437.45
486.07	438.71
486.44	438.62
486.80	440.24
487.17	441.55
487.53	443.98
487.90	446.10
488.26	449.33
488.62	452.19
488.99	454.60
489.35	457.10
489.72	459.93
490.08	462.29
490.44	465.62
490.81	469.19
491.17	472.55
491.54	476.29
491.90	479.88
492.26	483.55
492.63	487.60
492.99	491.07
493.36	495.38
493.72	500.48
494.08	505.00
494.45	510.00
494.81	515.76
495.17	520.98
495.54	526.43
495.90	531.38
496.26	537.14
496.63	542.83
496.99	548.81
497.35	554.67
497.72	561.14
498.08	567.10
498.44	573.83
498.80	580.95
499.17	587.29
499.53	594.21
499.89	601.74
500.26	608.76
500.62	615.90
500.98	624.17
501.34	631.17
501.71	639.52
502.07	647.38
502.43	654.90
502.79	662.00
503.16	669.93
503.52	677.50
503.88	684.95
504.24	693.07
504.60	701.52
504.97	710.19
505.33	718.07
505.69	727.31
506.05	735.79
506.41	743.86
506.78	752.57
507.14	760.71
507.50	769.14
507.86	778.10
508.22	787.24
508.59	795.40
508.95	804.45
509.31	813.50
509.67	821.93
510.03	829.71
510.39	838.21
510.75	846.45
511.12	855.24
511.48	863.60
511.84	872.05
512.20	880.29
512.56	889.10
512.92	898.33
513.28	906.60
513.64	915.05
514.00	923.95
514.37	931.60
514.73	940.00
515.09	947.90
515.45	955.26
515.81	962.90
516.17	969.71
516.53	977.26
516.89	984.12
517.25	991.36
517.61	999.76
517.97	1007.12
518.33	1014.90
518.69	1022.83
519.05	1030.07
519.41	1037.45
519.77	1045.57
520.13	1052.26
520.49	1058.24
520.85	1064.81
521.21	1071.50
521.57	1078.29
521.93	1084.88
522.29	1091.48
522.65	1097.40
523.01	1104.05
523.37	1110.29
523.73	1117.10
524.09	1123.14
524.45	1129.07
524.81	1135.40
525.17	1141.45
525.53	1147.88
525.89	1153.24
526.25	1158.38
526.61	1164.02
526.97	1168.76
527.33	1173.86
527.68	1180.69
528.04	1187.10
528.40	1192.33
528.76	1197.26
529.12	1201.60
529.48	1208.43
529.84	1214.00
530.20	1219.38
530.56	1225.24
530.91	1230.50
531.27	1235.93
531.63	1240.93
531.99	1245.76
532.35	1250.62
532.71	1254.60
533.07	1259.62
533.42	1267.21
533.78	1272.29
534.14	1277.74
534.50	1282.95
534.86	1288.55
535.21	1291.86
535.57	1296.71
535.93	1301.79
536.29	1307.62
536.65	1313.10
537.00	1316.40
537.36	1320.07
537.72	1324.57
538.08	1328.52
538.44	1332.33
538.79	1336.81
539.15	1340.60
539.51	1344.90
539.87	1349.17
540.22	1353.50
540.58	1357.93
540.94	1360.62
541.29	1364.79
541.65	1368.07
542.01	1372.36
542.37	1375.50
542.72	1378.88
543.08	1381.69
543.44	1385.98
543.79	1388.00
544.15	1391.74
544.51	1396.52
544.87	1401.26
545.22	1405.81
545.58	1409.21
545.94	1413.83
546.29	1417.26
546.65	1421.55
547.01	1424.81
547.36	1428.69
547.72	1433.17
548.07	1436.79
548.43	1439.40
548.79	1442.38
549.14	1445.81
549.50	1448.98
549.86	1450.95
550.21	1454.64
550.57	1458.98
550.92	1461.50
551.28	1465.98
551.64	1469.31
551.99	1472.43
552.35	1475.43
552.70	1478.90
553.06	1483.43
553.41	1486.86
553.77	1491.86
554.13	1495.52
554.48	1501.43
554.84	1506.76
555.19	1510.71
555.55	1516.71
555.90	1521.14
556.26	1525.62
556.61	1530.74
556.97	1534.71
557.32	1540.67
557.68	1545.74
558.03	1550.55
558.39	1555.45
558.74	1559.57
559.10	1564.07
559.45	1569.33
559.81	1574.26
560.16	1578.40
560.52	1582.67
560.87	1587.40
561.23	1590.38
561.58	1596.98
561.94	1599.74
562.29	1602.93
562.64	1607.52
563.00	1610.57
563.35	1614.76
563.71	1619.81
564.06	1625.50
564.42	1631.40
564.77	1636.55
565.12	1642.43
565.48	1648.67
565.83	1654.45
566.19	1659.74
566.54	1664.88
566.89	1669.05
567.25	1674.71
567.60	1682.05
567.96	1689.55
568.31	1695.45
568.66	1701.86
569.02	1705.36
569.37	1710.74
569.72	1715.60
570.08	1721.26
570.43	1724.81
570.78	1729.74
571.14	1734.64
571.49	1738.64
571.84	1742.50
572.20	1746.60
572.55	1750.05
572.90	1752.07
573.26	1755.21
573.61	1759.05
573.96	1763.12
574.31	1766.98
574.67	1768.90
575.02	1770.29
575.37	1770.60
575.72	1772.38
576.08	1774.21
576.43	1776.40
576.78	1778.36
577.13	1781.45
577.49	1783.62
577.84	1787.19
578.19	1789.74
578.54	1792.33
578.90	1794.21
579.25	1796.57
579.60	1798.12
579.95	1799.52
580.30	1801.93
580.66	1804.55
581.01	1805.93
581.36	1806.40
581.71	1808.05
582.06	1811.07
582.42	1813.40
582.77	1815.17
583.12	1816.69
583.47	1818.14
583.82	1819.88
584.17	1822.05
584.53	1823.79
584.88	1824.12
585.23	1824.90
585.58	1825.29
585.93	1825.14
586.28	1825.57
586.63	1826.62
586.98	1827.95
587.34	1829.79
587.69	1830.07
588.04	1829.71
588.39	1830.57
588.74	1830.74
589.09	1830.76
589.44	1829.38
589.79	1828.88
590.14	1829.10
590.49	1828.83
590.84	1827.38
591.19	1826.79
591.54	1826.33
591.89	1824.74
592.25	1825.29
592.60	1823.81
592.95	1823.29
593.30	1823.19
593.65	1821.67
594.00	1819.33
594.35	1822.88
594.70	1820.02
595.05	1818.38
595.40	1816.48
595.75	1814.50
596.10	1813.93
596.45	1813.05
596.80	1813.05
597.15	1811.00
597.50	1809.10
597.85	1808.81
598.19	1807.50
598.54	1805.45
598.89	1803.12
599.24	1801.19
599.59	1798.40
599.94	1796.05
600.29	1794.48
600.64	1792.38
600.99	1791.05
601.34	1790.14
601.69	1782.62
602.04	1781.00
602.39	1779.17
602.74	1777.36
603.08	1774.93
603.43	1774.07
603.78	1770.14
604.13	1767.62
604.48	1765.21
604.83	1764.14
605.18	1761.31
605.53	1760.14
605.87	1757.52
606.22	1754.83
606.57	1752.93
606.92	1749.36
607.27	1747.69
607.62	1744.45
607.96	1741.88
608.31	1739.67
608.66	1736.19
609.01	1732.02
609.36	1728.74
609.70	1725.31
610.05	1720.98
610.40	1717.43
610.75	1711.83
611.10	1709.21
611.44	1704.57
611.79	1700.19
612.14	1694.95
612.49	1688.88
612.83	1683.19
613.18	1678.33
613.53	1673.57
613.88	1667.69
614.22	1662.62
614.57	1656.21
614.92	1650.40
615.27	1645.00
615.61	1638.07
615.96	1632.55
616.31	1627.76
616.65	1623.12
617.00	1617.55
617.35	1613.43
617.70	1608.02
618.04	1602.71
618.39	1596.05
618.74	1590.71
619.08	1585.21
619.43	1578.76
619.78	1574.26
620.12	1570.00
620.47	1565.21
620.82	1558.69
621.16	1552.76
621.51	1549.05
621.85	1543.52
622.20	1538.64
622.55	1532.24
622.89	1527.10
623.24	1521.93
623.59	1516.19
623.93	1510.00
624.28	1504.43
624.62	1501.21
624.97	1497.69
625.32	1492.33
625.66	1487.36
626.01	1481.74
626.35	1476.88
626.70	1472.26
627.04	1467.43
627.39	1461.17
627.73	1455.74
628.08	1452.31
628.43	1447.50
628.77	1441.57
629.12	1437.14
629.46	1432.14
629.81	1425.98
630.15	1420.60
630.50	1414.86
630.84	1409.21
631.19	1403.00
631.53	1397.26
631.88	1387.98
632.22	1379.52
632.57	1373.81
632.91	1367.57
633.26	1361.74
633.60	1355.43
633.95	1349.05
634.29	1340.69
634.64	1334.69
634.98	1328.31
635.32	1322.36
635.67	1316.43
636.01	1309.98
636.36	1303.43
636.70	1297.93
637.05	1292.79
637.39	1286.93
637.73	1281.69
638.08	1277.69
638.42	1272.12
638.77	1266.36
639.11	1261.31
639.45	1256.64
639.80	1250.31
640.14	1244.02
640.49	1238.10
640.83	1230.55
641.17	1224.17
641.52	1219.26
641.86	1213.24
642.20	1208.29
642.55	1200.71
642.89	1194.36
643.23	1188.52
643.58	1183.21
643.92	1175.43
644.26	1168.69
644.61	1162.31
644.95	1154.45
645.29	1145.76
645.64	1139.43
645.98	1133.00
646.32	1126.69
646.66	1119.31
647.01	1112.52
647.35	1105.98
647.69	1099.07
648.04	1094.50
648.38	1088.90
648.72	1082.74
649.06	1076.00
649.41	1068.43
649.75	1061.67
650.09	1055.48
650.43	1048.29
650.78	1040.38
651.12	1033.43
651.46	1027.00
651.80	1020.07
652.14	1014.62
652.49	1009.71
652.83	1002.79
653.17	995.60
653.51	988.14
653.85	982.69
654.20	975.90
654.54	969.98
654.88	963.48
655.22	956.98
655.56	949.43
655.90	942.88
656.25	936.05
656.59	929.48
656.93	924.21
657.27	917.71
657.61	911.14
657.95	906.33
658.29	900.76
658.64	894.45
658.98	888.29
659.32	881.07
659.66	874.29
660.00	868.62
660.34	863.40
660.68	857.69
661.02	851.05
661.36	845.62
661.70	839.81
662.05	834.55
662.39	829.02
662.73	824.90
663.07	820.38
663.41	815.24
663.75	809.88
664.09	803.71
664.43	797.95
664.77	792.57
665.11	785.86
665.45	780.10
665.79	775.19
666.13	769.57
666.47	764.43
666.81	759.05
667.15	753.45
667.49	748.67
667.83	744.43
668.17	739.40
668.51	734.64
668.85	729.81
669.19	724.93
669.53	718.93
669.87	712.57
670.21	706.40
670.55	701.45
670.89	697.64
671.23	693.21
671.57	688.55
671.91	683.83
672.25	679.79
672.58	676.24
672.92	671.38
673.26	666.93
673.60	662.74
673.94	658.62
674.28	654.36
674.62	649.81
674.96	645.10
675.30	640.69
675.64	636.36
675.97	631.95
676.31	627.50
676.65	623.05
676.99	619.76
677.33	615.48
677.67	611.40
678.01	606.02
678.34	602.12
678.68	598.50
679.02	594.29
679.36	590.21
679.70	585.38
680.04	581.43
680.37	577.67
680.71	573.43
681.05	569.43
681.39	565.50
681.73	561.29
682.06	557.48
682.40	553.31
682.74	549.19
683.08	545.83
683.42	541.52
683.75	538.48
684.09	534.24
684.43	530.76
684.77	526.98
685.10	523.67
685.44	520.10
685.78	516.21
686.12	512.88
686.45	509.43
686.79	506.02
687.13	502.95
687.46	499.76
687.80	497.02
688.14	493.55
688.48	490.67
688.81	487.50
689.15	484.52
689.49	481.74
689.82	478.93
690.16	475.17
690.50	472.17
690.83	468.79
691.17	465.43
691.51	462.00
691.84	459.40
692.18	456.21
692.52	452.95
692.85	450.24
693.19	448.36
693.52	445.17
693.86	441.95
694.20	438.50
694.53	435.64
694.87	432.64
695.21	429.48
695.54	426.33
695.88	423.02
696.21	419.50
696.55	416.62
696.88	413.86
697.22	410.98
697.56	408.43
697.89	405.62
698.23	403.55
698.56	401.00
698.90	398.50
699.23	396.12
699.57	393.52
699.90	390.98
700.24	388.00
700.58	386.07
700.91	384.40
701.25	384.10
701.58	382.45
701.92	380.79
702.25	378.64
702.59	376.21
702.92	374.29
703.26	372.45
703.59	370.38
703.93	369.90
704.26	368.71
704.60	366.90
704.93	364.86
705.26	362.40
705.60	361.40
705.93	358.98
706.27	357.71
706.60	356.36
706.94	355.17
707.27	352.93
707.61	351.24
707.94	349.24
708.27	345.93
708.61	343.60
708.94	341.48
709.28	340.31
709.61	338.71
709.94	337.29
710.28	335.95
710.61	334.67
710.95	331.31
711.28	330.81
711.61	329.07
711.95	328.29
712.28	326.98
712.61	325.02
712.95	324.93
713.28	324.38
713.61	322.86
713.95	321.36
714.28	320.57
714.61	318.88
714.95	317.88
715.28	316.36
715.61	315.07
715.95	314.00
716.28	312.29
716.61	311.43
716.95	309.79
717.28	308.31
717.61	306.88
717.94	305.67
718.28	303.00
718.61	301.95
718.94	300.36
719.27	299.19
719.61	298.19
719.94	296.21
720.27	293.98
720.60	292.74
720.94	291.40
721.27	290.07
721.60	289.45
721.93	288.05
722.27	287.90
722.60	287.24
722.93	286.07
723.26	285.60
723.59	284.67
723.93	284.29
724.26	283.55
724.59	282.79
724.92	282.17
725.25	282.07
725.59	281.02
725.92	280.48
726.25	279.81
726.58	279.19
726.91	278.43
727.24	277.79
727.57	277.07
727.91	275.88
728.24	275.52
728.57	274.36
728.90	274.14
729.23	272.64
729.56	272.76
729.89	272.07
730.22	271.12
730.55	270.40
730.89	269.67
731.22	269.07
731.55	268.33
731.88	267.86
732.21	266.90
732.54	266.31
732.87	265.52
733.20	265.00
733.53	264.52
733.86	264.26
734.19	263.50
734.52	263.29
734.85	264.31
735.18	263.40
735.51	263.88
735.84	263.48
736.17	263.69
736.50	262.00
736.83	263.55
737.16	263.19
737.49	262.69
737.82	262.17
738.15	261.71
738.48	261.12
738.81	260.62
739.14	259.60
739.47	258.98
739.80	258.43
740.13	258.07
740.46	257.10
740.79	256.52
741.12	255.93
741.45	255.12
741.78	253.57
742.11	253.67
742.44	252.57
742.77	252.24
743.10	251.48
743.43	251.24
743.75	248.95
744.08	250.88
744.41	250.17
744.74	249.76
745.07	249.14
745.40	249.17
745.73	249.45
746.06	249.38
746.39	249.45
746.71	249.00
747.04	248.43
747.37	248.12
747.70	247.86
748.03	247.64
748.36	247.69
748.68	247.38
749.01	246.45
749.34	246.07
749.67	245.50
750.00	245.55
750.33	246.74
750.65	246.36
750.98	243.76
751.31	243.79
751.64	243.24
751.97	244.21
752.29	243.71
752.62	242.38
752.95	241.98
753.28	241.14
753.60	240.76
753.93	241.10
754.26	240.83
754.59	239.88
754.91	239.10
755.24	238.52
755.57	238.19
755.90	237.69
756.22	237.17
756.55	236.76
756.88	235.88
757.20	234.14
757.53	233.43
757.86	233.05
758.19	232.93
758.51	232.95
758.84	231.55
759.17	231.29
759.49	231.29
759.82	232.10
760.15	232.31
760.47	232.26
760.80	231.45
761.13	231.64
761.45	231.48
761.78	231.50
762.11	231.26
762.43	230.76
762.76	230.45
763.08	230.74
763.41	230.60
763.74	230.52
764.06	230.62
764.39	230.83
764.71	230.71
765.04	230.07
765.37	229.74
765.69	229.50
766.02	229.21
766.34	229.00
766.67	228.05
767.00	228.02
767.32	228.86
767.65	229.98
767.97	229.62
768.30	229.81
768.62	229.62
768.95	229.36
769.27	229.24
769.60	229.62
769.92	228.90
770.25	228.52
770.57	228.17
770.90	228.00
771.22	227.62
771.55	227.40
771.87	227.55
772.20	227.36
772.52	228.88
772.85	231.12
773.17	230.74
773.50	230.40
773.82	230.31
774.15	229.17
774.47	227.67
774.80	227.38
775.12	227.21
775.45	227.29
775.77	227.26
776.09	227.50
776.42	227.40
776.74	228.19
777.07	228.10
777.39	227.81
777.72	227.29
778.04	227.24
778.36	227.19
778.69	227.02
779.01	226.81
779.33	224.95
779.66	222.55
779.98	222.50
780.31	222.36
780.63	223.05
780.95	223.52
781.28	223.50
781.60	223.21
781.92	222.86
782.25	222.69
782.57	222.50
782.89	222.12
783.22	221.76
783.54	221.02
783.86	221.17
784.19	221.26
784.51	221.67
784.83	221.31
785.16	220.93
785.48	220.83
