SpectraSuite Data File
++++++++++++++++++++++++++++++++++++
Date: Tue Apr 02 18:40:26 EDT 2013
User: group
Dark Spectrum Present: No
Reference Spectrum Present: No
Number of Sampled Component Spectra: 1
Spectrometers: USB2E7196
Integration Time (usec): 580000 (USB2E7196)
Spectra Averaged: 2 (USB2E7196)
Boxcar Smoothing: 10 (USB2E7196)
Correct for Electrical Dark: No (USB2E7196)
Strobe/Lamp Enabled: No (USB2E7196)
Correct for Detector Non-linearity: No (USB2E7196)
Correct for Stray Light: No (USB2E7196)
Number of Pixels in Processed Spectrum: 2048
>>>>>Begin Processed Spectral Data<<<<<
339.09	0.00
339.48	191.00
339.86	194.00
340.24	197.00
340.63	197.00
341.01	228.50
341.39	200.50
341.78	205.50
342.16	208.00
342.54	205.50
342.93	196.62
343.31	206.38
343.69	207.05
344.07	207.57
344.46	208.19
344.84	209.02
345.22	207.93
345.60	208.36
345.99	208.50
346.37	208.64
346.75	208.71
347.13	208.64
347.52	208.69
347.90	209.74
348.28	209.71
348.66	210.33
349.05	209.90
349.43	210.19
349.81	210.76
350.19	210.95
350.57	211.24
350.96	211.62
351.34	211.98
351.72	212.10
352.10	212.26
352.48	212.43
352.87	212.36
353.25	212.57
353.63	212.90
354.01	213.07
354.39	213.29
354.77	213.36
355.15	214.17
355.54	214.19
355.92	213.48
356.30	213.57
356.68	214.95
357.06	214.93
357.44	214.50
357.82	214.45
358.20	215.33
358.58	215.26
358.97	215.50
359.35	216.02
359.73	216.60
360.11	216.69
360.49	216.83
360.87	216.64
361.25	217.00
361.63	217.45
362.01	217.60
362.39	217.40
362.77	217.74
363.15	217.55
363.53	217.69
363.91	218.07
364.29	218.05
364.67	216.10
365.05	216.17
365.43	216.48
365.81	216.52
366.19	216.52
366.57	217.31
366.95	217.26
367.33	216.71
367.71	216.76
368.09	217.14
368.47	216.86
368.85	217.05
369.23	217.29
369.61	216.45
369.99	217.12
370.37	217.45
370.75	218.26
371.13	218.00
371.51	217.76
371.89	217.90
372.27	217.88
372.65	218.21
373.03	218.52
373.41	218.36
373.78	218.43
374.16	217.69
374.54	217.14
374.92	216.95
375.30	217.21
375.68	216.71
376.06	216.86
376.44	216.93
376.82	217.02
377.19	217.00
377.57	217.05
377.95	216.40
378.33	216.17
378.71	215.31
379.09	215.55
379.47	215.76
379.84	215.31
380.22	215.05
380.60	214.45
380.98	214.17
381.36	214.12
381.73	213.69
382.11	213.88
382.49	213.86
382.87	213.45
383.25	213.31
383.62	215.62
384.00	215.12
384.38	215.14
384.76	215.40
385.13	215.69
385.51	215.83
385.89	215.60
386.27	215.64
386.64	215.55
387.02	215.45
387.40	215.24
387.78	215.21
388.15	215.43
388.53	215.38
388.91	215.40
389.29	215.60
389.66	215.64
390.04	215.62
390.42	215.90
390.79	216.24
391.17	216.10
391.55	213.83
391.92	213.79
392.30	214.14
392.68	213.67
393.05	213.83
393.43	213.83
393.81	213.90
394.18	213.69
394.56	213.81
394.94	213.95
395.31	213.60
395.69	214.45
396.06	214.81
396.44	215.07
396.82	214.88
397.19	215.81
397.57	215.98
397.95	216.17
398.32	215.43
398.70	215.50
399.07	215.86
399.45	216.00
399.82	216.05
400.20	215.74
400.58	215.90
400.95	215.14
401.33	215.50
401.70	216.95
402.08	217.29
402.45	217.38
402.83	217.95
403.20	218.57
403.58	218.29
403.95	218.57
404.33	219.10
404.71	219.48
405.08	220.69
405.46	220.83
405.83	221.21
406.21	221.83
406.58	222.21
406.96	222.74
407.33	223.26
407.70	223.86
408.08	226.17
408.45	226.95
408.83	227.98
409.20	228.48
409.58	228.10
409.95	229.26
410.33	230.40
410.70	231.00
411.08	232.21
411.45	233.31
411.82	234.38
412.20	235.93
412.57	238.48
412.95	238.14
413.32	240.07
413.69	241.38
414.07	243.26
414.44	245.24
414.82	247.17
415.19	249.55
415.56	252.10
415.94	253.19
416.31	256.05
416.68	259.05
417.06	262.36
417.43	266.07
417.81	269.62
418.18	273.43
418.55	277.33
418.93	281.67
419.30	286.07
419.67	290.81
420.04	295.02
420.42	299.55
420.79	306.83
421.16	312.69
421.54	319.86
421.91	326.43
422.28	333.33
422.66	340.50
423.03	348.98
423.40	356.43
423.77	364.43
424.15	372.26
424.52	380.48
424.89	389.67
425.26	397.76
425.64	405.76
426.01	414.55
426.38	423.64
426.75	433.74
427.13	443.74
427.50	453.76
427.87	464.71
428.24	474.79
428.61	484.10
428.99	496.57
429.36	508.00
429.73	519.81
430.10	532.29
430.47	544.52
430.85	555.76
431.22	568.95
431.59	584.67
431.96	597.76
432.33	612.57
432.70	627.12
433.08	644.24
433.45	660.38
433.82	676.29
434.19	694.33
434.56	711.55
434.93	728.02
435.30	744.83
435.68	763.48
436.05	782.10
436.42	800.02
436.79	816.33
437.16	834.98
437.53	853.74
437.90	872.02
438.27	890.48
438.64	909.57
439.01	928.21
439.38	942.26
439.75	958.90
440.13	976.64
440.50	993.10
440.87	1006.36
441.24	1020.48
441.61	1035.69
441.98	1047.95
442.35	1061.10
442.72	1074.31
443.09	1088.93
443.46	1097.74
443.83	1103.64
444.20	1108.69
444.57	1114.98
444.94	1117.95
445.31	1122.38
445.68	1128.52
446.05	1130.45
446.42	1128.76
446.79	1126.98
447.16	1125.83
447.53	1124.48
447.90	1118.14
448.27	1111.76
448.64	1103.43
449.01	1097.36
449.37	1086.45
449.74	1074.02
450.11	1061.69
450.48	1046.86
450.85	1030.07
451.22	1015.50
451.59	1002.83
451.96	990.55
452.33	974.10
452.70	959.07
453.07	940.69
453.43	919.98
453.80	902.48
454.17	885.86
454.54	869.19
454.91	851.40
455.28	834.07
455.65	817.90
456.02	805.26
456.38	791.48
456.75	774.95
457.12	760.36
457.49	747.07
457.86	732.05
458.23	721.31
458.59	708.60
458.96	696.48
459.33	685.05
459.70	673.86
460.07	664.93
460.43	654.60
460.80	645.00
461.17	636.50
461.54	627.24
461.91	618.95
462.27	610.71
462.64	602.95
463.01	595.10
463.38	587.64
463.74	576.57
464.11	569.29
464.48	562.81
464.85	556.38
465.21	551.76
465.58	546.86
465.95	539.79
466.32	534.71
466.68	529.12
467.05	523.67
467.42	518.38
467.78	512.43
468.15	506.74
468.52	502.79
468.88	497.43
469.25	492.86
469.62	489.29
469.98	484.69
470.35	480.79
470.72	476.64
471.08	472.14
471.45	469.07
471.82	466.17
472.18	462.33
472.55	459.55
472.92	455.40
473.28	451.74
473.65	448.57
474.02	445.50
474.38	443.38
474.75	441.14
475.11	438.98
475.48	437.62
475.85	436.14
476.21	434.38
476.58	432.93
476.94	431.95
477.31	430.52
477.67	429.40
478.04	428.81
478.41	428.29
478.77	429.67
479.14	428.24
479.50	427.55
479.87	427.21
480.23	426.83
480.60	426.12
480.96	426.33
481.33	427.36
481.69	427.10
482.06	427.38
482.42	427.93
482.79	427.86
483.15	427.98
483.52	429.10
483.88	429.33
484.25	430.00
484.61	430.50
484.98	431.36
485.34	433.36
485.71	435.10
486.07	436.57
486.44	436.14
486.80	438.36
487.17	439.88
487.53	442.67
487.90	445.10
488.26	448.62
488.62	451.79
488.99	453.86
489.35	456.86
489.72	459.52
490.08	462.24
490.44	465.00
490.81	468.62
491.17	471.71
491.54	475.60
491.90	479.50
492.26	483.60
492.63	487.24
492.99	490.33
493.36	494.26
493.72	498.69
494.08	503.76
494.45	508.33
494.81	513.76
495.17	518.33
495.54	523.55
495.90	528.57
496.26	533.14
496.63	538.60
496.99	544.02
497.35	549.93
497.72	556.29
498.08	562.74
498.44	569.07
498.80	575.98
499.17	582.52
499.53	588.74
499.89	596.00
500.26	603.64
500.62	611.17
500.98	618.50
501.34	626.38
501.71	634.21
502.07	641.93
502.43	649.55
502.79	656.95
503.16	664.55
503.52	671.83
503.88	679.83
504.24	688.07
504.60	696.60
504.97	704.83
505.33	712.79
505.69	722.19
506.05	731.40
506.41	739.60
506.78	747.88
507.14	756.31
507.50	764.31
507.86	772.43
508.22	781.21
508.59	789.07
508.95	797.05
509.31	806.00
509.67	814.29
510.03	822.81
510.39	831.43
510.75	839.86
511.12	848.07
511.48	856.10
511.84	864.10
512.20	871.90
512.56	880.76
512.92	888.93
513.28	896.81
513.64	904.19
514.00	912.07
514.37	920.93
514.73	929.21
515.09	938.19
515.45	945.76
515.81	953.31
516.17	961.50
516.53	969.12
516.89	975.74
517.25	983.67
517.61	991.29
517.97	998.02
518.33	1005.14
518.69	1013.60
519.05	1021.02
519.41	1028.00
519.77	1036.52
520.13	1042.83
520.49	1049.07
520.85	1055.10
521.21	1062.19
521.57	1068.79
521.93	1074.02
522.29	1080.67
522.65	1085.69
523.01	1092.62
523.37	1097.88
523.73	1104.14
524.09	1109.40
524.45	1115.21
524.81	1120.02
525.17	1125.55
525.53	1131.52
525.89	1137.40
526.25	1141.95
526.61	1146.60
526.97	1152.31
527.33	1157.00
527.68	1164.10
528.04	1170.33
528.40	1175.05
528.76	1180.17
529.12	1185.57
529.48	1191.88
529.84	1195.62
530.20	1201.43
530.56	1206.02
530.91	1211.88
531.27	1216.95
531.63	1222.95
531.99	1227.86
532.35	1232.67
532.71	1236.95
533.07	1242.64
533.42	1249.36
533.78	1254.95
534.14	1261.17
534.50	1265.79
534.86	1271.31
535.21	1274.31
535.57	1279.29
535.93	1283.60
536.29	1288.29
536.65	1292.62
537.00	1296.29
537.36	1301.48
537.72	1305.48
538.08	1309.95
538.44	1313.88
538.79	1317.55
539.15	1321.05
539.51	1325.40
539.87	1330.45
540.22	1335.12
540.58	1339.12
540.94	1341.00
541.29	1344.93
541.65	1347.12
542.01	1352.02
542.37	1354.55
542.72	1357.74
543.08	1360.93
543.44	1365.57
543.79	1368.19
544.15	1372.02
544.51	1375.95
544.87	1380.31
545.22	1383.90
545.58	1387.98
545.94	1392.31
546.29	1396.52
546.65	1400.00
547.01	1402.74
547.36	1405.69
547.72	1408.64
548.07	1411.74
548.43	1415.10
548.79	1417.95
549.14	1421.52
549.50	1424.55
549.86	1428.19
550.21	1431.38
550.57	1435.10
550.92	1438.45
551.28	1442.69
551.64	1446.45
551.99	1450.31
552.35	1453.64
552.70	1457.24
553.06	1460.81
553.41	1463.93
553.77	1468.60
554.13	1472.48
554.48	1478.12
554.84	1483.45
555.19	1487.31
555.55	1493.10
555.90	1497.76
556.26	1502.71
556.61	1507.86
556.97	1510.64
557.32	1514.79
557.68	1519.81
558.03	1524.21
558.39	1528.00
558.74	1531.71
559.10	1536.14
559.45	1540.71
559.81	1544.93
560.16	1548.88
560.52	1552.90
560.87	1557.98
561.23	1561.57
561.58	1568.12
561.94	1571.95
562.29	1576.21
562.64	1581.50
563.00	1584.67
563.35	1589.36
563.71	1594.02
564.06	1599.64
564.42	1605.69
564.77	1612.02
565.12	1618.26
565.48	1625.29
565.83	1632.55
566.19	1639.17
566.54	1644.10
566.89	1649.40
567.25	1655.14
567.60	1662.95
567.96	1670.64
568.31	1677.10
568.66	1682.76
569.02	1686.12
569.37	1690.60
569.72	1695.95
570.08	1700.38
570.43	1705.31
570.78	1710.26
571.14	1715.12
571.49	1719.40
571.84	1724.36
572.20	1727.64
572.55	1731.74
572.90	1733.52
573.26	1736.76
573.61	1739.50
573.96	1744.17
574.31	1747.36
574.67	1750.69
575.02	1751.86
575.37	1753.12
575.72	1753.98
576.08	1756.29
576.43	1759.45
576.78	1761.60
577.13	1763.60
577.49	1766.26
577.84	1768.76
578.19	1771.10
578.54	1773.79
578.90	1776.83
579.25	1778.33
579.60	1780.45
579.95	1781.05
580.30	1784.07
580.66	1786.17
581.01	1788.43
581.36	1788.98
581.71	1791.64
582.06	1795.02
582.42	1798.14
582.77	1798.81
583.12	1801.83
583.47	1804.19
583.82	1805.48
584.17	1807.52
584.53	1810.10
584.88	1811.43
585.23	1812.86
585.58	1813.67
585.93	1813.79
586.28	1813.50
586.63	1815.29
586.98	1816.50
587.34	1818.64
587.69	1817.88
588.04	1817.90
588.39	1818.57
588.74	1817.83
589.09	1817.95
589.44	1816.10
589.79	1816.00
590.14	1817.14
590.49	1816.24
590.84	1816.02
591.19	1816.12
591.54	1816.29
591.89	1814.76
592.25	1816.48
592.60	1815.83
592.95	1816.24
593.30	1816.26
593.65	1815.69
594.00	1814.10
594.35	1818.29
594.70	1815.83
595.05	1815.81
595.40	1814.69
595.75	1813.26
596.10	1814.02
596.45	1812.83
596.80	1812.79
597.15	1811.02
597.50	1809.98
597.85	1809.55
598.19	1807.07
598.54	1806.62
598.89	1805.26
599.24	1804.90
599.59	1802.48
599.94	1801.10
600.29	1799.81
600.64	1798.19
600.99	1797.14
601.34	1795.79
601.69	1789.62
602.04	1788.60
602.39	1786.88
602.74	1785.79
603.08	1784.10
603.43	1783.52
603.78	1781.31
604.13	1779.05
604.48	1777.10
604.83	1774.79
605.18	1773.57
605.53	1772.38
605.87	1768.98
606.22	1766.48
606.57	1763.90
606.92	1760.88
607.27	1758.71
607.62	1756.76
607.96	1754.33
608.31	1751.90
608.66	1749.62
609.01	1746.33
609.36	1743.31
609.70	1739.74
610.05	1735.69
610.40	1732.52
610.75	1728.07
611.10	1724.19
611.44	1719.62
611.79	1715.79
612.14	1711.76
612.49	1706.05
612.83	1701.52
613.18	1696.81
613.53	1691.76
613.88	1686.07
614.22	1681.38
614.57	1674.64
614.92	1668.71
615.27	1663.10
615.61	1656.90
615.96	1650.71
616.31	1645.19
616.65	1640.76
617.00	1636.21
617.35	1631.55
617.70	1626.05
618.04	1619.95
618.39	1614.38
618.74	1609.00
619.08	1602.76
619.43	1597.76
619.78	1593.21
620.12	1588.76
620.47	1583.86
620.82	1578.07
621.16	1571.93
621.51	1567.26
621.85	1562.60
622.20	1556.52
622.55	1551.64
622.89	1547.07
623.24	1542.81
623.59	1537.38
623.93	1531.83
624.28	1526.48
624.62	1523.19
624.97	1519.57
625.32	1513.88
625.66	1508.74
626.01	1504.17
626.35	1500.74
626.70	1495.05
627.04	1489.57
627.39	1483.50
627.73	1479.93
628.08	1476.93
628.43	1473.07
628.77	1467.83
629.12	1463.74
629.46	1459.33
629.81	1453.74
630.15	1447.29
630.50	1441.14
630.84	1435.38
631.19	1429.07
631.53	1422.93
631.88	1414.05
632.22	1406.38
632.57	1402.57
632.91	1396.38
633.26	1390.50
633.60	1383.36
633.95	1377.57
634.29	1371.62
634.64	1365.31
634.98	1357.24
635.32	1350.98
635.67	1344.50
636.01	1338.67
636.36	1331.50
636.70	1326.02
637.05	1320.19
637.39	1315.88
637.73	1310.67
638.08	1306.17
638.42	1301.14
638.77	1296.00
639.11	1290.86
639.45	1285.55
639.80	1278.26
640.14	1272.88
640.49	1266.76
640.83	1261.31
641.17	1255.33
641.52	1249.10
641.86	1243.88
642.20	1239.79
642.55	1232.64
642.89	1227.19
643.23	1220.26
643.58	1215.19
643.92	1207.43
644.26	1201.05
644.61	1194.45
644.95	1187.12
645.29	1179.26
645.64	1173.02
645.98	1166.76
646.32	1161.05
646.66	1153.62
647.01	1147.07
647.35	1140.76
647.69	1134.24
648.04	1127.93
648.38	1121.83
648.72	1115.19
649.06	1108.05
649.41	1100.12
649.75	1093.74
650.09	1086.67
650.43	1079.57
650.78	1072.33
651.12	1066.05
651.46	1059.21
651.80	1051.40
652.14	1045.71
652.49	1039.83
652.83	1033.21
653.17	1026.19
653.51	1018.90
653.85	1012.88
654.20	1006.19
654.54	998.62
654.88	992.26
655.22	985.40
655.56	977.98
655.90	971.67
656.25	965.36
656.59	958.86
656.93	952.55
657.27	946.76
657.61	940.21
657.95	934.17
658.29	928.31
658.64	922.26
658.98	916.62
659.32	909.83
659.66	903.98
660.00	897.29
660.34	891.55
660.68	885.69
661.02	879.69
661.36	873.69
661.70	869.00
662.05	862.90
662.39	857.24
662.73	852.69
663.07	847.69
663.41	842.02
663.75	836.43
664.09	830.98
664.43	824.74
664.77	819.12
665.11	813.26
665.45	807.38
665.79	801.98
666.13	796.40
666.47	790.93
666.81	784.76
667.15	778.98
667.49	773.17
667.83	768.98
668.17	763.88
668.51	758.74
668.85	753.24
669.19	749.45
669.53	744.00
669.87	737.76
670.21	731.76
670.55	726.07
670.89	722.07
671.23	716.95
671.57	711.60
671.91	707.40
672.25	702.76
672.58	698.55
672.92	693.74
673.26	688.90
673.60	684.21
673.94	679.86
674.28	675.79
674.62	671.64
674.96	666.05
675.30	661.83
675.64	657.40
675.97	652.86
676.31	647.36
676.65	642.64
676.99	639.43
677.33	634.86
677.67	631.14
678.01	625.98
678.34	621.76
678.68	618.17
679.02	613.64
679.36	609.05
679.70	604.38
680.04	600.17
680.37	596.31
680.71	592.40
681.05	588.36
681.39	584.26
681.73	580.07
682.06	575.64
682.40	571.31
682.74	567.57
683.08	564.50
683.42	560.69
683.75	556.79
684.09	552.24
684.43	548.29
684.77	544.21
685.10	540.14
685.44	536.10
685.78	532.10
686.12	528.38
686.45	525.02
686.79	521.24
687.13	517.79
687.46	514.10
687.80	511.45
688.14	507.52
688.48	504.36
688.81	500.95
689.15	498.48
689.49	494.86
689.82	491.79
690.16	487.26
690.50	483.33
690.83	479.98
691.17	476.19
691.51	473.19
691.84	470.21
692.18	467.55
692.52	464.40
692.85	461.62
693.19	459.55
693.52	456.71
693.86	453.60
694.20	450.62
694.53	447.74
694.87	443.67
695.21	440.79
695.54	437.24
695.88	433.36
696.21	429.52
696.55	426.93
696.88	423.76
697.22	421.19
697.56	419.05
697.89	416.50
698.23	414.60
698.56	411.74
698.90	409.24
699.23	406.38
699.57	404.02
699.90	401.02
700.24	397.62
700.58	394.90
700.91	392.86
701.25	391.69
701.58	389.79
701.92	388.21
702.25	386.07
702.59	384.14
702.92	382.24
703.26	380.50
703.59	378.17
703.93	377.74
704.26	375.93
704.60	373.95
704.93	372.05
705.26	369.71
705.60	368.40
705.93	366.12
706.27	364.74
706.60	363.79
706.94	362.64
707.27	361.02
707.61	359.55
707.94	357.69
708.27	354.45
708.61	352.21
708.94	350.36
709.28	349.14
709.61	347.19
709.94	345.74
710.28	343.86
710.61	342.31
710.95	338.88
711.28	338.76
711.61	337.24
711.95	335.95
712.28	334.26
712.61	332.45
712.95	332.14
713.28	331.33
713.61	329.14
713.95	327.19
714.28	325.57
714.61	323.71
714.95	322.19
715.28	320.52
715.61	318.95
715.95	317.79
716.28	315.76
716.61	314.81
716.95	313.40
717.28	312.24
717.61	310.81
717.94	309.76
718.28	306.71
718.61	305.31
718.94	303.74
719.27	302.43
719.61	301.21
719.94	299.31
720.27	296.93
720.60	295.29
720.94	294.19
721.27	293.24
721.60	292.79
721.93	291.55
722.27	291.48
722.60	290.86
722.93	289.38
723.26	288.86
723.59	287.60
723.93	287.02
724.26	286.26
724.59	285.21
724.92	284.19
725.25	283.90
725.59	283.00
725.92	282.79
726.25	282.12
726.58	281.50
726.91	280.79
727.24	280.67
727.57	280.14
727.91	279.38
728.24	278.67
728.57	277.52
728.90	277.10
729.23	275.69
729.56	275.93
729.89	275.38
730.22	274.43
730.55	273.71
730.89	272.98
731.22	272.21
731.55	271.67
731.88	271.55
732.21	270.40
732.54	269.40
732.87	268.24
733.20	267.67
733.53	267.26
733.86	266.60
734.19	265.48
734.52	264.93
734.85	265.57
735.18	264.81
735.51	264.95
735.84	264.67
736.17	264.76
736.50	263.10
736.83	264.88
737.16	264.52
737.49	264.05
737.82	263.48
738.15	263.12
738.48	262.60
738.81	261.69
739.14	261.52
739.47	261.21
739.80	260.71
740.13	260.24
740.46	259.29
740.79	258.67
741.12	258.21
741.45	257.64
741.78	255.95
742.11	255.69
742.44	254.76
742.77	254.36
743.10	253.21
743.43	252.74
743.75	250.02
744.08	251.88
744.41	251.21
744.74	250.67
745.07	249.71
745.40	249.83
745.73	250.33
746.06	249.93
746.39	249.67
746.71	249.00
747.04	248.50
747.37	248.17
747.70	248.19
748.03	247.98
748.36	248.02
748.68	247.83
749.01	247.19
749.34	246.86
749.67	246.26
750.00	246.50
750.33	247.62
750.65	247.43
750.98	244.67
751.31	244.74
751.64	244.02
751.97	245.14
752.29	244.52
752.62	242.95
752.95	242.33
753.28	241.71
753.60	241.50
753.93	241.79
754.26	241.48
754.59	240.29
754.91	239.60
755.24	238.98
755.57	238.64
755.90	238.43
756.22	238.14
756.55	237.45
756.88	236.62
757.20	234.93
757.53	234.31
757.86	233.93
758.19	233.67
758.51	233.50
758.84	231.98
759.17	231.45
759.49	231.52
759.82	232.36
760.15	232.07
760.47	231.86
760.80	230.93
761.13	231.12
761.45	231.05
761.78	230.88
762.11	230.81
762.43	230.38
762.76	229.98
763.08	229.93
763.41	230.10
763.74	230.19
764.06	229.83
764.39	229.52
764.71	229.52
765.04	229.07
765.37	228.93
765.69	229.02
766.02	228.90
766.34	228.62
766.67	227.62
767.00	228.07
767.32	228.95
767.65	229.98
767.97	229.31
768.30	229.21
768.62	229.12
768.95	228.79
769.27	228.45
769.60	228.60
769.92	227.86
770.25	227.48
770.57	226.74
770.90	226.76
771.22	226.45
771.55	226.31
771.87	226.14
772.20	225.95
772.52	227.38
772.85	229.76
773.17	229.71
773.50	229.48
773.82	229.02
774.15	227.83
774.47	226.31
774.80	226.55
775.12	226.76
775.45	226.64
775.77	226.36
776.09	226.52
776.42	226.52
776.74	227.12
777.07	226.90
777.39	227.07
777.72	226.71
778.04	226.93
778.36	226.76
778.69	226.95
779.01	227.10
779.33	225.33
779.66	222.86
779.98	222.69
780.31	222.88
780.63	223.71
780.95	223.93
781.28	223.95
781.60	223.33
781.92	222.90
782.25	222.79
782.57	223.05
782.89	222.83
783.22	222.60
783.54	222.21
783.86	222.19
784.19	222.00
784.51	222.50
784.83	222.05
785.16	221.71
