SpectraSuite Data File
++++++++++++++++++++++++++++++++++++
Date: Tue Apr 02 18:46:45 EDT 2013
User: group
Dark Spectrum Present: No
Reference Spectrum Present: No
Number of Sampled Component Spectra: 1
Spectrometers: USB2E7196
Integration Time (usec): 580000 (USB2E7196)
Spectra Averaged: 2 (USB2E7196)
Boxcar Smoothing: 10 (USB2E7196)
Correct for Electrical Dark: No (USB2E7196)
Strobe/Lamp Enabled: No (USB2E7196)
Correct for Detector Non-linearity: No (USB2E7196)
Correct for Stray Light: No (USB2E7196)
Number of Pixels in Processed Spectrum: 2048
>>>>>Begin Processed Spectral Data<<<<<
339.09	0.00
339.48	194.50
339.86	195.50
340.24	198.00
340.63	196.00
341.01	230.50
341.39	200.00
341.78	207.00
342.16	212.50
342.54	205.50
342.93	197.83
343.31	207.79
343.69	208.50
344.07	209.00
344.46	209.60
344.84	210.21
345.22	209.12
345.60	209.81
345.99	210.07
346.37	209.76
346.75	209.90
347.13	209.86
347.52	210.10
347.90	210.93
348.28	211.19
348.66	211.95
349.05	211.24
349.43	211.55
349.81	211.76
350.19	211.81
350.57	211.79
350.96	211.60
351.34	211.57
351.72	211.64
352.10	211.52
352.48	211.21
352.87	211.14
353.25	211.05
353.63	210.83
354.01	210.67
354.39	211.00
354.77	211.10
355.15	211.83
355.54	211.62
355.92	210.71
356.30	210.83
356.68	211.76
357.06	211.86
357.44	211.43
357.82	211.40
358.20	212.14
358.58	212.14
358.97	212.48
359.35	212.83
359.73	213.14
360.11	213.24
360.49	213.43
360.87	213.48
361.25	214.07
361.63	214.62
362.01	214.86
362.39	214.64
362.77	214.83
363.15	214.36
363.53	214.33
363.91	214.74
364.29	214.62
364.67	212.88
365.05	213.12
365.43	213.29
365.81	213.50
366.19	213.69
366.57	214.69
366.95	214.55
367.33	214.07
367.71	213.95
368.09	214.45
368.47	214.60
368.85	214.52
369.23	214.67
369.61	213.83
369.99	214.48
370.37	214.76
370.75	215.71
371.13	215.50
371.51	215.33
371.89	215.21
372.27	215.52
372.65	215.69
373.03	215.69
373.41	215.60
373.78	215.57
374.16	214.64
374.54	213.86
374.92	213.64
375.30	213.88
375.68	213.67
376.06	213.79
376.44	213.69
376.82	213.86
377.19	214.00
377.57	214.00
377.95	213.00
378.33	212.74
378.71	211.29
379.09	211.69
379.47	211.83
379.84	211.69
380.22	211.36
380.60	211.14
380.98	210.95
381.36	211.00
381.73	210.62
382.11	211.10
382.49	211.14
382.87	211.00
383.25	211.10
383.62	213.43
384.00	213.00
384.38	213.12
384.76	213.62
385.13	214.21
385.51	214.48
385.89	214.57
386.27	214.57
386.64	215.02
387.02	214.76
387.40	214.88
387.78	215.07
388.15	215.40
388.53	215.19
388.91	215.45
389.29	215.26
389.66	215.55
390.04	215.26
390.42	215.69
390.79	215.90
391.17	215.93
391.55	213.67
391.92	213.93
392.30	214.31
392.68	213.86
393.05	213.81
393.43	213.95
393.81	214.00
394.18	214.00
394.56	214.21
394.94	214.79
395.31	214.74
395.69	215.12
396.06	215.40
396.44	215.67
396.82	215.10
397.19	216.24
397.57	216.12
397.95	216.48
398.32	216.05
398.70	216.21
399.07	216.45
399.45	216.26
399.82	216.14
400.20	215.83
400.58	216.07
400.95	215.10
401.33	215.52
401.70	217.24
402.08	217.26
402.45	217.40
402.83	217.79
403.20	217.83
403.58	217.83
403.95	217.98
404.33	218.48
404.71	219.00
405.08	220.17
405.46	220.31
405.83	220.50
406.21	220.83
406.58	221.21
406.96	221.52
407.33	222.24
407.70	223.02
408.08	225.21
408.45	225.76
408.83	226.81
409.20	227.10
409.58	226.60
409.95	227.60
410.33	228.36
410.70	228.57
411.08	230.12
411.45	231.12
411.82	231.90
412.20	233.40
412.57	235.95
412.95	235.62
413.32	237.69
413.69	239.14
414.07	240.83
414.44	242.64
414.82	244.52
415.19	246.83
415.56	248.67
415.94	249.71
416.31	252.60
416.68	255.31
417.06	258.69
417.43	262.10
417.81	265.71
418.18	269.19
418.55	273.07
418.93	276.93
419.30	281.02
419.67	285.69
420.04	289.86
420.42	293.86
420.79	300.95
421.16	306.43
421.54	313.50
421.91	319.74
422.28	325.95
422.66	332.71
423.03	340.64
423.40	347.74
423.77	354.71
424.15	361.57
424.52	369.10
424.89	377.31
425.26	384.71
425.64	392.26
426.01	400.62
426.38	409.24
426.75	418.07
427.13	427.02
427.50	436.64
427.87	446.67
428.24	456.17
428.61	464.31
428.99	475.60
429.36	486.00
429.73	496.98
430.10	507.81
430.47	519.55
430.85	529.95
431.22	542.50
431.59	557.43
431.96	570.64
432.33	584.64
432.70	598.52
433.08	614.74
433.45	630.21
433.82	645.05
434.19	661.60
434.56	678.48
434.93	694.24
435.30	709.57
435.68	726.86
436.05	744.17
436.42	761.93
436.79	777.50
437.16	794.43
437.53	812.38
437.90	830.69
438.27	848.76
438.64	866.74
439.01	883.62
439.38	897.57
439.75	911.98
440.13	929.05
440.50	944.12
440.87	956.83
441.24	970.05
441.61	984.45
441.98	995.67
442.35	1007.38
442.72	1021.10
443.09	1034.26
443.46	1042.60
443.83	1047.88
444.20	1051.52
444.57	1057.60
444.94	1061.12
445.31	1064.48
445.68	1069.95
446.05	1071.00
446.42	1070.00
446.79	1068.48
447.16	1066.14
447.53	1065.38
447.90	1058.81
448.27	1052.57
448.64	1043.98
449.01	1038.26
449.37	1028.12
449.74	1016.79
450.11	1006.26
450.48	990.98
450.85	975.60
451.22	962.57
451.59	951.36
451.96	939.69
452.33	923.88
452.70	909.48
453.07	892.76
453.43	873.07
453.80	856.07
454.17	840.17
454.54	824.81
454.91	809.45
455.28	793.33
455.65	778.07
456.02	766.76
456.38	754.10
456.75	738.36
457.12	724.69
457.49	712.05
457.86	697.76
458.23	687.86
458.59	676.29
458.96	664.57
459.33	653.60
459.70	644.19
460.07	635.98
460.43	626.62
460.80	618.31
461.17	611.50
461.54	603.83
461.91	595.90
462.27	588.29
462.64	580.79
463.01	573.05
463.38	567.05
463.74	556.79
464.11	550.40
464.48	544.19
464.85	538.05
465.21	534.00
465.58	528.95
465.95	522.31
466.32	517.43
466.68	512.05
467.05	507.10
467.42	501.69
467.78	496.33
468.15	491.24
468.52	487.02
468.88	481.26
469.25	476.67
469.62	473.60
469.98	469.55
470.35	466.05
470.72	462.79
471.08	458.07
471.45	455.52
471.82	453.05
472.18	450.10
472.55	448.12
472.92	444.26
473.28	441.17
473.65	438.50
474.02	435.88
474.38	434.07
474.75	432.24
475.11	429.88
475.48	428.26
475.85	426.48
476.21	424.95
476.58	423.81
476.94	422.38
477.31	420.55
477.67	419.88
478.04	418.60
478.41	417.83
478.77	419.31
479.14	417.83
479.50	416.76
479.87	416.12
480.23	415.60
480.60	415.36
480.96	415.31
481.33	416.38
481.69	416.24
482.06	416.24
482.42	416.33
482.79	417.21
483.15	417.33
483.52	418.21
483.88	418.33
484.25	418.79
484.61	419.88
484.98	420.86
485.34	421.71
485.71	423.48
486.07	424.52
486.44	424.19
486.80	425.79
487.17	427.00
487.53	429.24
487.90	431.24
488.26	434.40
488.62	437.00
488.99	438.57
489.35	441.21
489.72	443.64
490.08	446.69
490.44	449.29
490.81	452.90
491.17	456.24
491.54	459.88
491.90	463.67
492.26	467.26
492.63	470.93
492.99	474.90
493.36	478.86
493.72	483.71
494.08	488.29
494.45	492.88
494.81	498.14
495.17	502.43
495.54	507.48
495.90	512.10
496.26	516.88
496.63	522.31
496.99	527.52
497.35	533.31
497.72	539.21
498.08	544.83
498.44	551.02
498.80	557.00
499.17	563.24
499.53	570.00
499.89	576.71
500.26	583.55
500.62	590.36
500.98	597.71
501.34	604.45
501.71	611.93
502.07	618.98
502.43	625.83
502.79	633.26
503.16	640.12
503.52	647.10
503.88	654.50
504.24	662.21
504.60	669.76
504.97	677.62
505.33	684.90
505.69	693.60
506.05	700.76
506.41	708.69
506.78	716.55
507.14	724.05
507.50	731.62
507.86	739.60
508.22	747.26
508.59	754.40
508.95	762.43
509.31	770.64
509.67	778.38
510.03	786.79
510.39	794.62
510.75	802.64
511.12	810.07
511.48	818.17
511.84	825.12
512.20	833.36
512.56	840.29
512.92	848.05
513.28	855.19
513.64	862.69
514.00	869.93
514.37	877.12
514.73	884.21
515.09	891.57
515.45	898.57
515.81	905.62
516.17	912.60
516.53	919.02
516.89	924.48
517.25	931.62
517.61	937.98
517.97	944.36
518.33	950.98
518.69	958.48
519.05	964.48
519.41	970.69
519.77	978.24
520.13	984.57
520.49	989.57
520.85	994.31
521.21	1000.95
521.57	1006.71
521.93	1011.67
522.29	1017.33
522.65	1022.12
523.01	1027.69
523.37	1032.31
523.73	1037.64
524.09	1042.33
524.45	1047.57
524.81	1052.33
525.17	1057.14
525.53	1061.98
525.89	1066.19
526.25	1070.14
526.61	1074.24
526.97	1079.07
527.33	1082.83
527.68	1089.17
528.04	1094.43
528.40	1099.19
528.76	1102.93
529.12	1107.05
529.48	1112.05
529.84	1115.71
530.20	1120.57
530.56	1125.19
530.91	1130.31
531.27	1134.38
531.63	1138.43
531.99	1142.33
532.35	1145.93
532.71	1149.33
533.07	1153.62
533.42	1159.81
533.78	1164.10
534.14	1168.60
534.50	1172.31
534.86	1176.05
535.21	1177.64
535.57	1181.90
535.93	1185.60
536.29	1190.60
536.65	1194.88
537.00	1198.36
537.36	1201.33
537.72	1204.57
538.08	1207.45
538.44	1209.88
538.79	1213.05
539.15	1216.43
539.51	1219.52
539.87	1222.83
540.22	1226.74
540.58	1229.79
540.94	1231.31
541.29	1233.90
541.65	1236.02
542.01	1238.88
542.37	1240.69
542.72	1243.33
543.08	1245.12
543.44	1248.31
543.79	1249.10
544.15	1251.38
544.51	1254.24
544.87	1258.24
545.22	1260.69
545.58	1263.90
545.94	1266.81
546.29	1269.55
546.65	1272.31
547.01	1274.95
547.36	1277.60
547.72	1279.50
548.07	1282.00
548.43	1284.17
548.79	1286.67
549.14	1289.38
549.50	1292.50
549.86	1294.79
550.21	1297.88
550.57	1301.05
550.92	1303.07
551.28	1307.00
551.64	1310.10
551.99	1312.67
552.35	1314.38
552.70	1316.50
553.06	1318.60
553.41	1321.50
553.77	1325.26
554.13	1328.57
554.48	1333.24
554.84	1337.29
555.19	1341.02
555.55	1346.60
555.90	1350.29
556.26	1353.83
556.61	1357.12
556.97	1359.43
557.32	1363.88
557.68	1367.83
558.03	1371.55
558.39	1375.67
558.74	1378.81
559.10	1382.81
559.45	1386.95
559.81	1392.12
560.16	1397.05
560.52	1401.67
560.87	1406.48
561.23	1410.48
561.58	1416.07
561.94	1418.98
562.29	1422.93
562.64	1427.45
563.00	1430.64
563.35	1435.05
563.71	1440.26
564.06	1447.12
564.42	1452.90
564.77	1458.43
565.12	1464.45
565.48	1471.71
565.83	1477.60
566.19	1483.12
566.54	1488.10
566.89	1492.81
567.25	1498.40
567.60	1505.26
567.96	1512.90
568.31	1518.98
568.66	1525.43
569.02	1530.36
569.37	1536.43
569.72	1542.02
570.08	1547.45
570.43	1551.74
570.78	1557.29
571.14	1563.43
571.49	1567.31
571.84	1573.17
572.20	1577.40
572.55	1581.71
572.90	1584.69
573.26	1589.71
573.61	1593.14
573.96	1597.55
574.31	1602.52
574.67	1606.67
575.02	1610.55
575.37	1611.95
575.72	1615.36
576.08	1618.76
576.43	1622.21
576.78	1625.55
577.13	1629.24
577.49	1632.38
577.84	1636.93
578.19	1640.67
578.54	1643.95
578.90	1648.40
579.25	1651.17
579.60	1654.57
579.95	1657.90
580.30	1661.57
580.66	1665.00
581.01	1670.86
581.36	1674.19
581.71	1678.29
582.06	1682.38
582.42	1685.93
582.77	1689.76
583.12	1692.40
583.47	1695.71
583.82	1699.62
584.17	1703.19
584.53	1706.43
584.88	1710.24
585.23	1713.71
585.58	1716.79
585.93	1719.17
586.28	1722.19
586.63	1726.74
586.98	1730.67
587.34	1733.98
587.69	1736.67
588.04	1739.79
588.39	1741.71
588.74	1742.76
589.09	1744.57
589.44	1745.45
589.79	1747.17
590.14	1750.50
590.49	1753.07
590.84	1754.29
591.19	1755.83
591.54	1758.00
591.89	1758.90
592.25	1762.29
592.60	1763.33
592.95	1765.38
593.30	1768.05
593.65	1769.71
594.00	1769.48
594.35	1776.17
594.70	1776.12
595.05	1777.45
595.40	1777.76
595.75	1778.24
596.10	1780.98
596.45	1782.98
596.80	1785.12
597.15	1786.10
597.50	1786.12
597.85	1786.88
598.19	1787.29
598.54	1787.81
598.89	1788.43
599.24	1791.02
599.59	1790.90
599.94	1791.24
600.29	1791.00
600.64	1790.05
600.99	1789.69
601.34	1791.50
601.69	1785.98
602.04	1785.55
602.39	1785.14
602.74	1785.74
603.08	1785.17
603.43	1786.71
603.78	1786.02
604.13	1785.19
604.48	1784.00
604.83	1783.76
605.18	1784.14
605.53	1784.10
605.87	1782.69
606.22	1781.52
606.57	1779.76
606.92	1778.10
607.27	1777.71
607.62	1778.19
607.96	1777.45
608.31	1776.98
608.66	1774.71
609.01	1772.69
609.36	1773.14
609.70	1771.98
610.05	1770.29
610.40	1769.64
610.75	1766.24
611.10	1764.57
611.44	1762.62
611.79	1761.02
612.14	1758.50
612.49	1754.62
612.83	1752.71
613.18	1751.07
613.53	1749.64
613.88	1746.36
614.22	1742.74
614.57	1738.60
614.92	1734.14
615.27	1731.52
615.61	1727.21
615.96	1724.10
616.31	1721.38
616.65	1718.95
617.00	1716.29
617.35	1712.38
617.70	1709.10
618.04	1705.48
618.39	1701.45
618.74	1698.00
619.08	1694.67
619.43	1690.98
619.78	1688.86
620.12	1685.33
620.47	1682.00
620.82	1677.40
621.16	1673.26
621.51	1671.26
621.85	1668.10
622.20	1664.24
622.55	1659.90
622.89	1657.07
623.24	1654.26
623.59	1650.71
623.93	1646.12
624.28	1641.62
624.62	1639.71
624.97	1636.64
625.32	1633.48
625.66	1629.57
626.01	1625.12
626.35	1621.26
626.70	1617.93
627.04	1614.62
627.39	1609.86
627.73	1606.71
628.08	1603.33
628.43	1600.50
628.77	1595.81
629.12	1592.14
629.46	1589.19
629.81	1585.86
630.15	1580.67
630.50	1575.33
630.84	1570.50
631.19	1565.10
631.53	1559.67
631.88	1552.81
632.22	1546.29
632.57	1541.98
632.91	1537.26
633.26	1533.43
633.60	1527.86
633.95	1522.95
634.29	1517.90
634.64	1514.86
634.98	1509.07
635.32	1505.00
635.67	1500.93
636.01	1497.10
636.36	1491.81
636.70	1487.07
637.05	1481.62
637.39	1477.14
637.73	1473.33
638.08	1469.57
638.42	1465.40
638.77	1461.98
639.11	1457.57
639.45	1453.26
639.80	1448.26
640.14	1443.12
640.49	1437.05
640.83	1432.43
641.17	1428.02
641.52	1422.52
641.86	1416.17
642.20	1412.48
642.55	1405.79
642.89	1399.81
643.23	1393.81
643.58	1390.02
643.92	1383.52
644.26	1378.88
644.61	1374.24
644.95	1368.12
645.29	1361.95
645.64	1356.90
645.98	1351.38
646.32	1346.38
646.66	1340.62
647.01	1334.31
647.35	1330.21
647.69	1325.95
648.04	1321.07
648.38	1315.07
648.72	1309.17
649.06	1303.38
649.41	1296.83
649.75	1291.52
650.09	1285.90
650.43	1279.88
650.78	1272.76
651.12	1266.74
651.46	1259.74
651.80	1253.26
652.14	1247.76
652.49	1242.52
652.83	1236.40
653.17	1230.19
653.51	1223.98
653.85	1218.50
654.20	1213.19
654.54	1205.69
654.88	1198.81
655.22	1193.33
655.56	1186.83
655.90	1180.55
656.25	1174.40
656.59	1167.95
656.93	1161.62
657.27	1156.45
657.61	1150.60
657.95	1144.93
658.29	1138.98
658.64	1134.19
658.98	1127.83
659.32	1120.88
659.66	1114.17
660.00	1108.19
660.34	1101.26
660.68	1095.55
661.02	1089.50
661.36	1082.50
661.70	1076.64
662.05	1070.62
662.39	1064.71
662.73	1058.90
663.07	1054.50
663.41	1048.74
663.75	1042.88
664.09	1037.88
664.43	1031.26
664.77	1025.19
665.11	1019.36
665.45	1013.83
665.79	1007.55
666.13	1002.05
666.47	997.10
666.81	991.43
667.15	985.40
667.49	980.98
667.83	975.71
668.17	970.38
668.51	965.48
668.85	960.74
669.19	956.95
669.53	950.29
669.87	944.64
670.21	938.48
670.55	933.26
670.89	928.86
671.23	923.21
671.57	917.81
671.91	912.88
672.25	907.90
672.58	903.24
672.92	897.38
673.26	892.69
673.60	887.69
673.94	882.67
674.28	877.74
674.62	872.74
674.96	867.50
675.30	862.38
675.64	856.93
675.97	851.55
676.31	845.67
676.65	840.57
676.99	836.95
677.33	831.45
677.67	826.79
678.01	820.81
678.34	815.83
678.68	811.67
679.02	805.88
679.36	800.17
679.70	795.17
680.04	790.88
680.37	785.52
680.71	779.57
681.05	774.81
681.39	770.36
681.73	765.76
682.06	760.69
682.40	756.17
682.74	751.83
683.08	747.43
683.42	741.83
683.75	737.43
684.09	731.36
684.43	726.69
684.77	721.10
685.10	716.24
685.44	711.50
685.78	706.02
686.12	701.98
686.45	697.86
686.79	692.62
687.13	688.48
687.46	683.93
687.80	680.05
688.14	675.50
688.48	670.64
688.81	665.81
689.15	661.86
689.49	657.12
689.82	652.55
690.16	647.76
690.50	643.93
690.83	639.79
691.17	635.02
691.51	630.93
691.84	627.21
692.18	623.14
692.52	618.64
692.85	614.76
693.19	611.71
693.52	607.21
693.86	602.88
694.20	598.19
694.53	593.74
694.87	589.33
695.21	584.64
695.54	580.74
695.88	576.36
696.21	571.07
696.55	567.05
696.88	562.76
697.22	558.62
697.56	555.50
697.89	551.14
698.23	547.69
698.56	543.38
698.90	539.86
699.23	536.05
699.57	532.67
699.90	528.62
700.24	523.81
700.58	520.31
700.91	517.33
701.25	514.93
701.58	512.55
701.92	509.79
702.25	506.76
702.59	503.07
702.92	499.71
703.26	496.76
703.59	493.48
703.93	492.52
704.26	489.74
704.60	485.79
704.93	482.71
705.26	479.62
705.60	477.26
705.93	473.57
706.27	471.36
706.60	468.26
706.94	466.50
707.27	462.93
707.61	460.38
707.94	457.64
708.27	453.67
708.61	450.17
708.94	447.38
709.28	444.55
709.61	441.76
709.94	438.95
710.28	436.62
710.61	433.98
710.95	429.45
711.28	428.14
711.61	425.83
711.95	424.02
712.28	421.69
712.61	418.76
712.95	417.74
713.28	415.79
713.61	413.26
713.95	410.02
714.28	408.36
714.61	405.81
714.95	403.24
715.28	401.02
715.61	398.76
715.95	396.48
716.28	394.12
716.61	392.31
716.95	389.88
717.28	387.24
717.61	384.95
717.94	382.48
718.28	378.83
718.61	376.67
718.94	374.07
719.27	372.10
719.61	370.57
719.94	368.10
720.27	364.83
720.60	362.81
720.94	361.00
721.27	359.14
721.60	357.64
721.93	355.83
722.27	354.90
722.60	353.21
722.93	351.21
723.26	349.98
723.59	348.12
723.93	347.00
724.26	345.76
724.59	344.05
724.92	343.00
725.25	342.05
725.59	340.43
725.92	339.38
726.25	337.60
726.58	335.93
726.91	334.21
727.24	333.19
727.57	331.93
727.91	329.88
728.24	328.74
728.57	326.86
728.90	325.86
729.23	323.67
729.56	323.17
729.89	322.07
730.22	320.43
730.55	318.83
730.89	317.74
731.22	316.50
731.55	315.48
731.88	314.26
732.21	312.71
732.54	311.40
732.87	309.98
733.20	309.21
733.53	308.33
733.86	307.57
734.19	306.02
734.52	305.21
734.85	305.95
735.18	304.69
735.51	304.60
735.84	303.67
736.17	303.17
736.50	301.38
736.83	302.48
737.16	301.76
737.49	301.12
737.82	299.86
738.15	299.12
738.48	297.93
738.81	297.00
739.14	295.95
739.47	295.07
739.80	293.98
740.13	292.98
740.46	291.64
740.79	290.26
741.12	289.55
741.45	288.29
741.78	286.17
742.11	285.86
742.44	284.24
742.77	283.31
743.10	282.00
743.43	280.86
743.75	277.62
744.08	279.02
744.41	278.17
744.74	277.05
745.07	275.74
745.40	275.55
745.73	275.52
746.06	274.76
746.39	274.19
746.71	273.50
747.04	272.43
747.37	271.33
747.70	271.10
748.03	270.36
748.36	270.00
748.68	269.17
749.01	268.05
749.34	267.57
749.67	266.95
750.00	266.86
750.33	268.07
750.65	268.17
750.98	265.19
751.31	264.83
751.64	264.79
751.97	265.60
752.29	264.76
752.62	263.17
752.95	262.33
753.28	261.50
753.60	261.07
753.93	261.43
754.26	261.36
754.59	260.19
754.91	259.67
755.24	259.14
755.57	258.50
755.90	257.69
756.22	257.17
756.55	256.36
756.88	255.10
757.20	253.00
757.53	251.74
757.86	251.43
758.19	250.88
758.51	250.14
758.84	248.50
759.17	247.93
759.49	247.67
759.82	248.36
760.15	247.86
760.47	247.36
760.80	246.38
761.13	246.19
761.45	245.40
761.78	244.90
762.11	244.33
762.43	243.76
762.76	243.45
763.08	243.12
763.41	242.90
763.74	242.67
764.06	242.40
764.39	241.90
764.71	241.60
765.04	240.98
765.37	240.29
765.69	240.05
766.02	239.69
766.34	239.24
766.67	238.36
767.00	238.48
767.32	239.02
767.65	239.81
767.97	239.31
768.30	239.45
768.62	239.31
768.95	238.88
769.27	238.76
769.60	238.57
769.92	237.93
770.25	237.38
770.57	236.88
770.90	236.60
771.22	236.36
771.55	235.95
771.87	235.79
772.20	235.60
772.52	236.88
772.85	239.21
773.17	238.88
773.50	238.48
773.82	237.86
774.15	236.83
774.47	235.12
774.80	234.81
775.12	234.50
775.45	234.26
775.77	234.02
776.09	234.14
776.42	233.95
776.74	234.52
777.07	234.26
777.39	234.24
777.72	233.93
778.04	234.00
778.36	233.50
778.69	233.24
779.01	233.48
779.33	231.40
779.66	228.71
779.98	228.64
780.31	228.36
780.63	229.14
780.95	229.38
781.28	229.21
781.60	229.12
781.92	228.76
782.25	228.40
782.57	228.43
782.89	228.19
783.22	228.10
783.54	227.43
783.86	227.40
784.19	227.02
784.51	227.45
784.83	226.90
