SpectraSuite Data File
++++++++++++++++++++++++++++++++++++
Date: Tue Apr 02 18:43:19 EDT 2013
User: group
Dark Spectrum Present: No
Reference Spectrum Present: No
Number of Sampled Component Spectra: 1
Spectrometers: USB2E7196
Integration Time (usec): 580000 (USB2E7196)
Spectra Averaged: 2 (USB2E7196)
Boxcar Smoothing: 10 (USB2E7196)
Correct for Electrical Dark: No (USB2E7196)
Strobe/Lamp Enabled: No (USB2E7196)
Correct for Detector Non-linearity: No (USB2E7196)
Correct for Stray Light: No (USB2E7196)
Number of Pixels in Processed Spectrum: 2048
>>>>>Begin Processed Spectral Data<<<<<
339.09	0.00
339.48	192.50
339.86	195.50
340.24	195.00
340.63	198.00
341.01	228.00
341.39	199.00
341.78	206.50
342.16	211.00
342.54	207.00
342.93	197.05
343.31	207.07
343.69	207.60
344.07	208.12
344.46	209.21
344.84	209.67
345.22	208.95
345.60	209.62
345.99	209.62
346.37	209.62
346.75	209.76
347.13	210.14
347.52	210.50
347.90	211.12
348.28	211.21
348.66	211.81
349.05	211.31
349.43	211.71
349.81	212.12
350.19	212.33
350.57	212.45
350.96	212.95
351.34	212.95
351.72	213.31
352.10	213.36
352.48	212.98
352.87	213.19
353.25	212.95
353.63	212.74
354.01	213.05
354.39	213.29
354.77	213.19
355.15	213.43
355.54	213.19
355.92	212.45
356.30	212.36
356.68	213.64
357.06	213.83
357.44	213.62
357.82	213.40
358.20	214.36
358.58	214.33
358.97	214.31
359.35	214.64
359.73	214.93
360.11	215.05
360.49	215.12
360.87	214.95
361.25	215.29
361.63	216.29
362.01	216.24
362.39	215.95
362.77	216.19
363.15	215.81
363.53	215.74
363.91	216.00
364.29	215.98
364.67	213.98
365.05	214.14
365.43	214.40
365.81	214.76
366.19	214.90
366.57	215.62
366.95	215.67
367.33	215.40
367.71	215.31
368.09	215.74
368.47	215.62
368.85	215.62
369.23	216.14
369.61	215.26
369.99	215.95
370.37	216.36
370.75	217.64
371.13	217.36
371.51	217.14
371.89	217.26
372.27	217.48
372.65	217.62
373.03	217.71
373.41	217.45
373.78	217.24
374.16	216.10
374.54	215.76
374.92	215.52
375.30	215.48
375.68	215.12
376.06	215.43
376.44	215.48
376.82	215.81
377.19	215.55
377.57	215.36
377.95	214.52
378.33	214.29
378.71	212.83
379.09	213.24
379.47	213.55
379.84	213.45
380.22	213.17
380.60	212.81
380.98	212.69
381.36	212.67
381.73	212.17
382.11	212.52
382.49	212.31
382.87	211.95
383.25	211.98
383.62	214.48
384.00	213.79
384.38	213.88
384.76	214.24
385.13	214.98
385.51	215.07
385.89	215.05
386.27	214.98
386.64	215.29
387.02	215.02
387.40	214.83
387.78	214.71
388.15	215.07
388.53	215.05
388.91	215.10
389.29	214.86
389.66	215.43
390.04	215.17
390.42	215.50
390.79	215.76
391.17	215.83
391.55	213.55
391.92	213.55
392.30	213.76
392.68	213.19
393.05	212.90
393.43	213.00
393.81	213.24
394.18	213.07
394.56	213.10
394.94	213.62
395.31	213.40
395.69	214.00
396.06	214.10
396.44	214.60
396.82	214.19
397.19	215.52
397.57	215.21
397.95	215.60
398.32	215.12
398.70	215.45
399.07	215.69
399.45	215.50
399.82	215.45
400.20	215.24
400.58	215.29
400.95	214.52
401.33	214.95
401.70	216.40
402.08	216.57
402.45	216.50
402.83	217.21
403.20	217.71
403.58	217.60
403.95	217.95
404.33	218.10
404.71	218.71
405.08	219.50
405.46	219.93
405.83	220.00
406.21	220.31
406.58	220.69
406.96	220.93
407.33	221.83
407.70	222.71
408.08	224.60
408.45	225.36
408.83	226.40
409.20	226.95
409.58	226.40
409.95	227.55
410.33	228.43
410.70	228.62
411.08	229.79
411.45	230.93
411.82	231.86
412.20	233.24
412.57	235.57
412.95	235.33
413.32	237.10
413.69	238.67
414.07	240.38
414.44	242.19
414.82	244.05
415.19	246.36
415.56	248.19
415.94	249.79
416.31	252.62
416.68	255.57
417.06	258.69
417.43	262.10
417.81	265.40
418.18	269.17
418.55	272.86
418.93	276.67
419.30	281.00
419.67	285.50
420.04	290.14
420.42	294.21
420.79	301.43
421.16	306.93
421.54	313.93
421.91	320.24
422.28	326.43
422.66	333.38
423.03	341.43
423.40	348.86
423.77	355.86
424.15	363.14
424.52	370.90
424.89	379.24
425.26	387.07
425.64	394.76
426.01	403.12
426.38	411.62
426.75	421.05
427.13	430.29
427.50	440.00
427.87	450.12
428.24	460.24
428.61	468.62
428.99	480.10
429.36	490.40
429.73	501.64
430.10	513.00
430.47	524.86
430.85	535.57
431.22	548.17
431.59	563.10
431.96	575.90
432.33	590.02
432.70	603.90
433.08	620.24
433.45	635.88
433.82	650.67
434.19	668.00
434.56	685.45
434.93	701.07
435.30	716.98
435.68	734.83
436.05	752.33
436.42	769.14
436.79	784.83
437.16	802.17
437.53	820.19
437.90	837.74
438.27	855.21
438.64	873.19
439.01	890.45
439.38	904.76
439.75	919.05
440.13	935.71
440.50	951.31
440.87	963.19
441.24	976.38
441.61	991.69
441.98	1002.86
442.35	1013.71
442.72	1026.45
443.09	1039.83
443.46	1046.74
443.83	1051.45
444.20	1056.62
444.57	1062.90
444.94	1066.12
445.31	1069.14
445.68	1075.00
446.05	1076.31
446.42	1074.90
446.79	1073.17
447.16	1070.60
447.53	1070.31
447.90	1063.74
448.27	1057.31
448.64	1049.05
449.01	1042.45
449.37	1031.05
449.74	1019.95
450.11	1009.02
450.48	994.79
450.85	979.14
451.22	966.38
451.59	954.90
451.96	943.29
452.33	927.52
452.70	913.33
453.07	896.55
453.43	876.93
453.80	860.67
454.17	844.98
454.54	829.67
454.91	813.57
455.28	797.02
455.65	782.17
456.02	770.55
456.38	758.29
456.75	743.12
457.12	730.10
457.49	717.07
457.86	703.21
458.23	693.24
458.59	681.21
458.96	669.62
459.33	658.55
459.70	648.19
460.07	639.98
460.43	630.19
460.80	621.29
461.17	614.43
461.54	606.36
461.91	598.17
462.27	589.88
462.64	582.71
463.01	575.71
463.38	569.33
463.74	558.62
464.11	551.88
464.48	545.69
464.85	539.45
465.21	534.76
465.58	529.43
465.95	522.60
466.32	517.67
466.68	512.38
467.05	507.31
467.42	502.05
467.78	496.57
468.15	491.88
468.52	488.43
468.88	482.48
469.25	477.79
469.62	474.26
469.98	470.55
470.35	467.29
470.72	463.50
471.08	458.79
471.45	456.14
471.82	453.12
472.18	449.83
472.55	447.00
472.92	443.57
473.28	440.60
473.65	437.60
474.02	435.00
474.38	432.95
474.75	431.17
475.11	428.93
475.48	427.12
475.85	425.12
476.21	423.26
476.58	422.00
476.94	420.48
477.31	419.19
477.67	417.83
478.04	416.62
478.41	415.69
478.77	416.81
479.14	415.71
479.50	415.43
479.87	415.33
480.23	415.29
480.60	414.93
480.96	415.12
481.33	416.02
481.69	416.07
482.06	416.21
482.42	416.76
482.79	417.24
483.15	417.62
483.52	418.67
483.88	418.90
484.25	419.29
484.61	420.36
484.98	421.00
485.34	422.69
485.71	424.36
486.07	425.74
486.44	425.26
486.80	426.86
487.17	428.17
487.53	430.36
487.90	432.19
488.26	435.48
488.62	437.83
488.99	439.62
489.35	441.88
489.72	444.38
490.08	446.83
490.44	449.10
490.81	452.24
491.17	455.19
491.54	458.88
491.90	462.81
492.26	466.31
492.63	470.14
492.99	473.67
493.36	477.40
493.72	482.10
494.08	486.69
494.45	491.50
494.81	496.29
495.17	500.64
495.54	505.93
495.90	510.05
496.26	515.50
496.63	520.93
496.99	526.69
497.35	532.93
497.72	538.81
498.08	545.00
498.44	551.33
498.80	557.81
499.17	564.05
499.53	570.57
499.89	577.55
500.26	584.60
500.62	591.60
500.98	599.00
501.34	605.55
501.71	613.57
502.07	620.24
502.43	627.10
502.79	634.21
503.16	640.93
503.52	648.02
503.88	654.64
504.24	661.98
504.60	669.76
504.97	677.12
505.33	684.52
505.69	693.07
506.05	700.69
506.41	708.07
506.78	715.55
507.14	722.88
507.50	730.76
507.86	738.45
508.22	745.79
508.59	752.14
508.95	760.69
509.31	768.88
509.67	777.26
510.03	785.07
510.39	792.31
510.75	800.43
511.12	808.90
511.48	816.55
511.84	824.48
512.20	831.57
512.56	838.98
512.92	846.79
513.28	854.21
513.64	861.38
514.00	868.67
514.37	876.50
514.73	884.55
515.09	892.24
515.45	899.07
515.81	906.50
516.17	914.45
516.53	920.86
516.89	926.71
517.25	932.67
517.61	939.76
517.97	946.81
518.33	953.74
518.69	960.50
519.05	967.55
519.41	973.69
519.77	981.69
520.13	988.00
520.49	992.88
520.85	998.00
521.21	1004.76
521.57	1010.76
521.93	1015.62
522.29	1020.71
522.65	1024.95
523.01	1030.48
523.37	1035.50
523.73	1040.88
524.09	1045.43
524.45	1049.74
524.81	1055.36
525.17	1060.67
525.53	1065.26
525.89	1068.81
526.25	1073.10
526.61	1077.14
526.97	1081.21
527.33	1084.93
527.68	1091.12
528.04	1096.79
528.40	1101.00
528.76	1104.29
529.12	1108.14
529.48	1112.90
529.84	1116.90
530.20	1121.48
530.56	1125.62
530.91	1129.60
531.27	1133.67
531.63	1137.95
531.99	1142.24
532.35	1146.50
532.71	1150.38
533.07	1154.88
533.42	1162.02
533.78	1166.05
534.14	1170.55
534.50	1174.98
534.86	1178.45
535.21	1180.33
535.57	1183.98
535.93	1188.02
536.29	1193.29
536.65	1198.07
537.00	1201.95
537.36	1205.71
537.72	1208.93
538.08	1212.83
538.44	1216.57
538.79	1220.48
539.15	1223.57
539.51	1226.74
539.87	1230.10
540.22	1233.69
540.58	1237.40
540.94	1238.57
541.29	1241.67
541.65	1243.69
542.01	1246.86
542.37	1249.76
542.72	1252.38
543.08	1255.21
543.44	1258.19
543.79	1258.76
544.15	1261.95
544.51	1264.81
544.87	1267.19
545.22	1270.00
545.58	1272.71
545.94	1275.05
546.29	1277.00
546.65	1279.90
547.01	1283.36
547.36	1285.81
547.72	1287.60
548.07	1290.31
548.43	1292.21
548.79	1294.98
549.14	1298.21
549.50	1300.98
549.86	1303.07
550.21	1306.14
550.57	1309.81
550.92	1311.67
551.28	1315.64
551.64	1317.64
551.99	1319.67
552.35	1323.02
552.70	1325.71
553.06	1328.95
553.41	1331.81
553.77	1336.48
554.13	1340.07
554.48	1343.79
554.84	1348.00
555.19	1351.74
555.55	1356.52
555.90	1361.12
556.26	1364.88
556.61	1367.90
556.97	1371.12
557.32	1375.21
557.68	1379.33
558.03	1382.69
558.39	1387.12
558.74	1391.43
559.10	1395.62
559.45	1400.95
559.81	1405.29
560.16	1409.93
560.52	1414.19
560.87	1419.79
561.23	1422.88
561.58	1428.74
561.94	1433.17
562.29	1436.90
562.64	1441.45
563.00	1444.45
563.35	1448.19
563.71	1452.93
564.06	1458.98
564.42	1464.98
564.77	1470.19
565.12	1476.10
565.48	1483.76
565.83	1490.38
566.19	1495.79
566.54	1501.29
566.89	1507.19
567.25	1513.14
567.60	1520.24
567.96	1528.05
568.31	1534.43
568.66	1541.52
569.02	1545.36
569.37	1549.60
569.72	1555.60
570.08	1560.69
570.43	1566.10
570.78	1572.29
571.14	1578.40
571.49	1584.05
571.84	1589.26
572.20	1594.79
572.55	1599.21
572.90	1601.67
573.26	1606.79
573.61	1611.71
573.96	1616.88
574.31	1620.90
574.67	1624.74
575.02	1628.36
575.37	1630.48
575.72	1633.24
576.08	1636.60
576.43	1640.62
576.78	1645.52
577.13	1648.71
577.49	1653.21
577.84	1656.93
578.19	1660.52
578.54	1663.43
578.90	1667.81
579.25	1671.43
579.60	1673.79
579.95	1676.29
580.30	1680.02
580.66	1683.24
581.01	1686.98
581.36	1688.71
581.71	1692.07
582.06	1697.07
582.42	1700.88
582.77	1704.07
583.12	1707.60
583.47	1710.52
583.82	1713.43
584.17	1716.71
584.53	1720.17
584.88	1723.02
585.23	1726.55
585.58	1728.48
585.93	1731.43
586.28	1732.26
586.63	1734.05
586.98	1737.50
587.34	1741.48
587.69	1743.33
588.04	1744.83
588.39	1746.45
588.74	1748.40
589.09	1750.62
589.44	1750.90
589.79	1752.29
590.14	1754.81
590.49	1755.79
590.84	1756.55
591.19	1758.81
591.54	1759.36
591.89	1760.36
592.25	1763.98
592.60	1764.67
592.95	1767.19
593.30	1768.98
593.65	1771.52
594.00	1771.95
594.35	1778.50
594.70	1777.79
595.05	1778.12
595.40	1778.60
595.75	1779.52
596.10	1781.79
596.45	1782.00
596.80	1782.64
597.15	1783.02
597.50	1782.88
597.85	1784.76
598.19	1785.88
598.54	1785.31
598.89	1785.90
599.24	1787.57
599.59	1785.71
599.94	1786.14
600.29	1786.17
600.64	1785.48
600.99	1784.60
601.34	1786.36
601.69	1780.45
602.04	1780.43
602.39	1780.17
602.74	1781.02
603.08	1779.90
603.43	1780.69
603.78	1780.29
604.13	1779.69
604.48	1779.17
604.83	1779.36
605.18	1778.45
605.53	1777.83
605.87	1777.62
606.22	1776.67
606.57	1774.29
606.92	1772.90
607.27	1772.26
607.62	1770.88
607.96	1769.98
608.31	1768.83
608.66	1767.29
609.01	1766.26
609.36	1766.07
609.70	1765.12
610.05	1761.71
610.40	1761.10
610.75	1757.17
611.10	1755.50
611.44	1753.10
611.79	1750.55
612.14	1746.86
612.49	1742.62
612.83	1739.12
613.18	1736.17
613.53	1733.19
613.88	1730.19
614.22	1727.43
614.57	1722.79
614.92	1718.81
615.27	1714.95
615.61	1710.71
615.96	1706.38
616.31	1702.50
616.65	1699.67
617.00	1696.79
617.35	1693.95
617.70	1689.67
618.04	1686.07
618.39	1681.36
618.74	1677.62
619.08	1673.86
619.43	1670.29
619.78	1667.81
620.12	1664.33
620.47	1660.45
620.82	1655.76
621.16	1651.10
621.51	1646.81
621.85	1643.81
622.20	1639.93
622.55	1635.14
622.89	1632.19
623.24	1629.12
623.59	1625.26
623.93	1620.36
624.28	1615.86
624.62	1614.43
624.97	1611.76
625.32	1607.86
625.66	1605.12
626.01	1601.07
626.35	1597.26
626.70	1592.62
627.04	1588.98
627.39	1584.83
627.73	1582.40
628.08	1579.69
628.43	1575.86
628.77	1572.12
629.12	1568.17
629.46	1565.02
629.81	1561.21
630.15	1555.86
630.50	1550.74
630.84	1546.67
631.19	1541.57
631.53	1536.02
631.88	1528.07
632.22	1521.36
632.57	1516.98
632.91	1510.24
633.26	1505.79
633.60	1500.40
633.95	1496.40
634.29	1490.67
634.64	1486.19
634.98	1480.31
635.32	1476.05
635.67	1471.93
636.01	1467.52
636.36	1462.38
636.70	1457.90
637.05	1453.74
637.39	1450.21
637.73	1445.40
638.08	1440.48
638.42	1436.07
638.77	1432.48
639.11	1427.76
639.45	1422.50
639.80	1417.07
640.14	1412.52
640.49	1406.33
640.83	1400.74
641.17	1395.45
641.52	1389.67
641.86	1384.24
642.20	1380.02
642.55	1373.45
642.89	1367.64
643.23	1361.71
643.58	1356.40
643.92	1349.19
644.26	1342.55
644.61	1337.19
644.95	1331.19
645.29	1324.48
645.64	1318.60
645.98	1312.02
646.32	1307.00
646.66	1301.10
647.01	1294.64
647.35	1288.83
647.69	1284.12
648.04	1278.29
648.38	1271.74
648.72	1266.36
649.06	1259.71
649.41	1252.76
649.75	1247.19
650.09	1240.81
650.43	1234.24
650.78	1226.62
651.12	1220.64
651.46	1214.64
651.80	1207.02
652.14	1201.14
652.49	1195.50
652.83	1188.07
653.17	1181.64
653.51	1175.19
653.85	1169.21
654.20	1162.83
654.54	1155.86
654.88	1147.95
655.22	1141.71
655.56	1134.98
655.90	1128.07
656.25	1121.98
656.59	1114.64
656.93	1107.81
657.27	1102.12
657.61	1095.14
657.95	1090.12
658.29	1084.02
658.64	1078.29
658.98	1072.19
659.32	1065.26
659.66	1058.88
660.00	1053.17
660.34	1046.74
660.68	1040.36
661.02	1034.24
661.36	1028.43
661.70	1023.50
662.05	1018.60
662.39	1012.95
662.73	1007.83
663.07	1002.93
663.41	997.29
663.75	991.36
664.09	985.38
664.43	978.95
664.77	973.62
665.11	967.17
665.45	961.21
665.79	954.55
666.13	948.10
666.47	942.55
666.81	936.26
667.15	930.24
667.49	925.10
667.83	919.86
668.17	913.88
668.51	907.95
668.85	902.02
669.19	897.26
669.53	891.17
669.87	884.98
670.21	878.67
670.55	872.81
670.89	868.19
671.23	863.19
671.57	858.14
671.91	852.33
672.25	847.21
672.58	842.31
672.92	837.29
673.26	832.05
673.60	826.00
673.94	820.50
674.28	815.74
674.62	810.21
674.96	804.43
675.30	800.05
675.64	795.45
675.97	790.24
676.31	784.14
676.65	779.10
676.99	775.10
677.33	770.05
677.67	765.00
678.01	759.00
678.34	753.57
678.68	748.95
679.02	744.00
679.36	738.79
679.70	733.55
680.04	728.31
680.37	723.50
680.71	718.93
681.05	714.71
681.39	710.45
681.73	705.79
682.06	700.95
682.40	696.05
682.74	692.07
683.08	688.17
683.42	683.19
683.75	678.93
684.09	673.29
684.43	668.45
684.77	663.38
685.10	659.02
685.44	654.64
685.78	649.48
686.12	645.12
686.45	640.88
686.79	636.12
687.13	632.50
687.46	628.43
687.80	624.86
688.14	620.50
688.48	615.79
688.81	611.29
689.15	607.98
689.49	602.98
689.82	597.83
690.16	592.69
690.50	588.76
690.83	584.17
691.17	579.62
691.51	575.60
691.84	572.17
692.18	568.48
692.52	564.60
692.85	561.31
693.19	558.57
693.52	554.67
693.86	550.69
694.20	546.64
694.53	542.55
694.87	538.05
695.21	534.29
695.54	530.29
695.88	526.19
696.21	521.57
696.55	518.05
696.88	514.86
697.22	511.14
697.56	508.26
697.89	505.07
698.23	502.36
698.56	498.76
698.90	495.40
699.23	491.81
699.57	488.50
699.90	484.93
700.24	480.40
700.58	476.71
700.91	473.50
701.25	471.81
701.58	469.57
701.92	467.55
702.25	464.69
702.59	461.67
702.92	459.07
703.26	456.26
703.59	453.29
703.93	451.90
704.26	449.98
704.60	446.81
704.93	443.60
705.26	440.38
705.60	438.24
705.93	435.19
706.27	432.98
706.60	430.36
706.94	428.45
707.27	425.93
707.61	423.76
707.94	421.24
708.27	416.98
708.61	413.64
708.94	410.62
709.28	408.07
709.61	405.81
709.94	403.69
710.28	401.31
710.61	399.05
710.95	394.69
711.28	393.12
711.61	390.69
711.95	389.29
712.28	387.31
712.61	384.67
712.95	383.50
713.28	382.10
713.61	379.88
713.95	377.24
714.28	375.40
714.61	373.17
714.95	371.45
715.28	369.38
715.61	367.36
715.95	365.45
716.28	363.45
716.61	361.83
716.95	359.76
717.28	357.62
717.61	355.83
717.94	354.26
718.28	351.24
718.61	349.48
718.94	347.07
719.27	345.10
719.61	343.74
719.94	341.64
720.27	338.52
720.60	336.43
720.94	334.31
721.27	332.95
721.60	331.81
721.93	330.26
722.27	329.60
722.60	328.64
722.93	326.93
723.26	325.55
723.59	323.88
723.93	322.79
724.26	321.57
724.59	320.40
724.92	319.21
725.25	318.31
725.59	317.19
725.92	316.45
726.25	315.40
726.58	314.19
726.91	312.62
727.24	312.60
727.57	311.69
727.91	310.62
728.24	309.45
728.57	308.07
728.90	307.29
729.23	305.50
729.56	305.17
729.89	304.07
730.22	302.71
730.55	301.33
730.89	300.05
731.22	299.02
731.55	297.93
731.88	296.83
732.21	295.69
732.54	294.57
732.87	293.38
733.20	292.43
733.53	291.55
733.86	290.93
734.19	289.43
734.52	288.64
734.85	289.24
735.18	288.12
735.51	287.81
735.84	286.81
736.17	286.14
736.50	284.36
736.83	286.05
737.16	285.64
737.49	285.12
737.82	284.55
738.15	284.17
738.48	283.21
738.81	282.29
739.14	281.52
739.47	280.69
739.80	279.74
740.13	279.19
740.46	278.10
740.79	277.14
741.12	276.29
741.45	275.62
741.78	273.71
742.11	273.48
742.44	272.31
742.77	272.21
743.10	271.57
743.43	270.74
743.75	267.62
744.08	269.14
744.41	268.24
744.74	267.33
745.07	266.24
745.40	266.02
745.73	266.38
746.06	265.50
746.39	265.12
746.71	264.62
747.04	263.60
747.37	263.02
747.70	262.79
748.03	262.36
748.36	262.02
748.68	261.45
749.01	260.45
749.34	259.90
749.67	259.02
750.00	258.81
750.33	259.93
750.65	259.98
750.98	257.17
751.31	256.98
751.64	256.52
751.97	257.24
752.29	256.50
752.62	255.02
752.95	254.57
753.28	253.98
753.60	253.43
753.93	253.38
754.26	253.43
754.59	252.26
754.91	251.60
755.24	250.88
755.57	250.19
755.90	249.74
756.22	249.40
756.55	248.62
756.88	247.90
757.20	246.19
757.53	244.90
757.86	244.57
758.19	244.26
758.51	244.17
758.84	242.60
759.17	242.38
759.49	242.07
759.82	242.69
760.15	242.52
760.47	241.79
760.80	241.10
761.13	240.76
761.45	240.33
761.78	240.05
762.11	239.52
762.43	239.36
762.76	238.98
763.08	238.62
763.41	238.52
763.74	238.10
764.06	237.60
764.39	237.55
764.71	237.14
765.04	236.40
765.37	235.69
765.69	235.62
766.02	235.21
766.34	234.90
766.67	233.74
767.00	233.64
767.32	234.62
767.65	235.67
767.97	235.14
768.30	235.43
768.62	235.10
768.95	234.86
769.27	234.31
769.60	234.38
769.92	233.90
770.25	233.12
770.57	232.74
770.90	232.55
771.22	232.14
771.55	231.81
771.87	231.74
772.20	231.67
772.52	233.00
772.85	235.29
773.17	235.10
773.50	235.10
773.82	234.57
774.15	233.31
774.47	231.81
774.80	231.31
775.12	230.81
775.45	230.52
775.77	230.55
776.09	230.60
776.42	230.33
776.74	230.83
777.07	230.67
777.39	230.33
777.72	230.07
778.04	230.21
778.36	229.81
778.69	229.88
779.01	229.88
779.33	227.95
779.66	225.33
779.98	225.00
780.31	224.76
780.63	225.48
780.95	226.05
781.28	225.90
781.60	225.76
781.92	225.50
782.25	225.55
782.57	225.40
782.89	225.36
783.22	225.00
783.54	224.40
783.86	224.67
784.19	224.36
784.51	224.67
784.83	224.31
785.16	224.43
