SpectraSuite Data File
++++++++++++++++++++++++++++++++++++
Date: Tue Apr 02 18:44:52 EDT 2013
User: group
Dark Spectrum Present: No
Reference Spectrum Present: No
Number of Sampled Component Spectra: 1
Spectrometers: USB2E7196
Integration Time (usec): 580000 (USB2E7196)
Spectra Averaged: 2 (USB2E7196)
Boxcar Smoothing: 10 (USB2E7196)
Correct for Electrical Dark: No (USB2E7196)
Strobe/Lamp Enabled: No (USB2E7196)
Correct for Detector Non-linearity: No (USB2E7196)
Correct for Stray Light: No (USB2E7196)
Number of Pixels in Processed Spectrum: 2048
>>>>>Begin Processed Spectral Data<<<<<
339.09	0.00
339.48	192.00
339.86	192.00
340.24	192.50
340.63	193.50
341.01	228.50
341.39	196.50
341.78	202.00
342.16	212.50
342.54	201.00
342.93	195.98
343.31	205.79
343.69	206.50
344.07	207.21
344.46	208.05
344.84	208.79
345.22	207.90
345.60	208.81
345.99	209.21
346.37	209.24
346.75	209.45
347.13	209.62
347.52	210.00
347.90	210.79
348.28	211.07
348.66	211.45
349.05	210.79
349.43	210.76
349.81	211.02
350.19	211.10
350.57	211.21
350.96	211.67
351.34	212.10
351.72	212.12
352.10	211.98
352.48	211.98
352.87	212.07
353.25	212.26
353.63	212.07
354.01	212.12
354.39	212.33
354.77	212.45
355.15	212.83
355.54	212.71
355.92	212.29
356.30	212.55
356.68	213.79
357.06	214.07
357.44	214.29
357.82	214.17
358.20	215.48
358.58	215.69
358.97	215.90
359.35	216.33
359.73	216.83
360.11	217.14
360.49	217.36
360.87	217.43
361.25	217.67
361.63	218.38
362.01	218.52
362.39	218.19
362.77	218.71
363.15	218.76
363.53	218.79
363.91	218.93
364.29	218.86
364.67	217.14
365.05	217.24
365.43	217.26
365.81	217.60
366.19	217.48
366.57	218.26
366.95	217.90
367.33	217.26
367.71	217.10
368.09	217.48
368.47	217.48
368.85	217.31
369.23	217.71
369.61	217.05
369.99	217.79
370.37	218.19
370.75	218.95
371.13	218.60
371.51	218.26
371.89	218.31
372.27	218.31
372.65	218.33
373.03	218.29
373.41	218.17
373.78	218.21
374.16	217.07
374.54	216.19
374.92	216.10
375.30	216.21
375.68	216.19
376.06	216.10
376.44	215.79
376.82	216.00
377.19	215.60
377.57	215.48
377.95	214.48
378.33	214.17
378.71	212.88
379.09	213.10
379.47	213.29
379.84	213.07
380.22	212.98
380.60	212.83
380.98	212.74
381.36	212.74
381.73	212.33
382.11	212.67
382.49	212.76
382.87	212.60
383.25	212.52
383.62	214.62
384.00	214.40
384.38	214.57
384.76	215.02
385.13	215.69
385.51	215.67
385.89	215.62
386.27	215.88
386.64	216.21
387.02	216.24
387.40	216.10
387.78	216.29
388.15	216.19
388.53	216.31
388.91	216.36
389.29	216.19
389.66	216.38
390.04	216.14
390.42	216.43
390.79	216.55
391.17	216.50
391.55	214.17
391.92	214.14
392.30	214.24
392.68	213.83
393.05	213.64
393.43	213.83
393.81	213.98
394.18	213.48
394.56	213.38
394.94	213.64
395.31	213.64
395.69	214.19
396.06	214.64
396.44	214.62
396.82	214.43
397.19	215.62
397.57	215.26
397.95	215.71
398.32	215.26
398.70	215.57
399.07	216.02
399.45	216.29
399.82	216.31
400.20	216.00
400.58	216.00
400.95	215.31
401.33	215.86
401.70	217.50
402.08	217.86
402.45	217.79
402.83	218.48
403.20	218.62
403.58	218.38
403.95	218.67
404.33	219.14
404.71	219.60
405.08	220.57
405.46	220.95
405.83	221.05
406.21	221.45
406.58	221.90
406.96	222.33
407.33	222.79
407.70	223.26
408.08	225.88
408.45	226.57
408.83	227.69
409.20	227.88
409.58	227.29
409.95	228.43
410.33	229.64
410.70	229.48
411.08	230.74
411.45	231.93
411.82	232.93
412.20	234.48
412.57	236.76
412.95	236.52
413.32	238.55
413.69	239.95
414.07	241.67
414.44	243.33
414.82	245.05
415.19	247.45
415.56	249.98
415.94	251.10
416.31	253.90
416.68	256.60
417.06	259.98
417.43	263.57
417.81	266.88
418.18	270.81
418.55	274.69
418.93	278.86
419.30	283.02
419.67	287.36
420.04	291.57
420.42	295.71
420.79	302.98
421.16	308.36
421.54	315.36
421.91	321.38
422.28	327.45
422.66	333.88
423.03	341.98
423.40	348.38
423.77	355.38
424.15	362.36
424.52	369.88
424.89	378.14
425.26	385.88
425.64	393.67
426.01	401.26
426.38	410.31
426.75	419.64
427.13	428.57
427.50	437.86
427.87	447.69
428.24	457.76
428.61	465.93
428.99	477.19
429.36	487.36
429.73	498.90
430.10	510.57
430.47	522.90
430.85	533.40
431.22	546.55
431.59	561.79
431.96	575.05
432.33	588.95
432.70	602.52
433.08	618.55
433.45	633.33
433.82	648.74
434.19	665.71
434.56	682.38
434.93	698.48
435.30	714.38
435.68	732.55
436.05	749.69
436.42	766.64
436.79	781.93
437.16	799.88
437.53	817.12
437.90	834.45
438.27	851.14
438.64	869.17
439.01	885.76
439.38	898.90
439.75	913.14
440.13	930.07
440.50	945.79
440.87	958.52
441.24	972.17
441.61	987.00
441.98	997.52
442.35	1009.24
442.72	1021.86
443.09	1035.24
443.46	1041.88
443.83	1047.07
444.20	1051.55
444.57	1057.67
444.94	1059.93
445.31	1063.67
445.68	1070.12
446.05	1072.69
446.42	1071.24
446.79	1070.95
447.16	1069.55
447.53	1068.76
447.90	1062.31
448.27	1055.81
448.64	1047.00
449.01	1040.71
449.37	1029.36
449.74	1018.38
450.11	1007.14
450.48	992.64
450.85	976.88
451.22	964.76
451.59	952.50
451.96	941.19
452.33	925.74
452.70	911.57
453.07	894.10
453.43	873.69
453.80	856.67
454.17	841.38
454.54	825.26
454.91	808.62
455.28	792.00
455.65	777.38
456.02	765.69
456.38	753.14
456.75	737.86
457.12	724.86
457.49	712.05
457.86	697.71
458.23	687.45
458.59	675.48
458.96	663.64
459.33	653.19
459.70	642.36
460.07	634.33
460.43	625.07
460.80	617.38
461.17	610.36
461.54	601.90
461.91	593.38
462.27	584.93
462.64	577.86
463.01	571.12
463.38	564.62
463.74	554.24
464.11	547.24
464.48	541.62
464.85	535.05
465.21	530.90
465.58	526.26
465.95	519.88
466.32	515.38
466.68	509.90
467.05	505.17
467.42	500.86
467.78	495.52
468.15	490.74
468.52	486.57
468.88	480.93
469.25	476.64
469.62	473.40
469.98	469.57
470.35	466.02
470.72	462.52
471.08	457.67
471.45	455.21
471.82	452.83
472.18	448.95
472.55	446.69
472.92	442.62
473.28	439.69
473.65	436.98
474.02	434.17
474.38	432.31
474.75	430.17
475.11	427.19
475.48	425.43
475.85	423.67
476.21	421.86
476.58	420.90
476.94	419.71
477.31	418.24
477.67	417.29
478.04	416.55
478.41	415.64
478.77	417.19
479.14	415.76
479.50	415.14
479.87	414.81
480.23	414.31
480.60	414.38
480.96	414.17
481.33	414.79
481.69	414.74
482.06	414.81
482.42	415.43
482.79	416.24
483.15	416.83
483.52	418.07
483.88	418.40
484.25	418.67
484.61	419.40
484.98	419.74
485.34	421.81
485.71	423.10
486.07	424.21
486.44	423.79
486.80	425.48
487.17	426.50
487.53	428.83
487.90	431.55
488.26	434.38
488.62	437.10
488.99	439.05
489.35	441.69
489.72	444.36
490.08	446.64
490.44	449.26
490.81	452.26
491.17	454.71
491.54	458.07
491.90	461.90
492.26	465.29
492.63	469.50
492.99	472.45
493.36	475.98
493.72	480.14
494.08	484.64
494.45	489.33
494.81	494.74
495.17	499.00
495.54	503.48
495.90	508.19
496.26	513.31
496.63	518.86
496.99	524.40
497.35	529.90
497.72	535.55
498.08	541.00
498.44	546.95
498.80	553.38
499.17	559.86
499.53	566.05
499.89	573.19
500.26	580.24
500.62	587.26
500.98	594.81
501.34	602.33
501.71	609.88
502.07	617.14
502.43	624.00
502.79	630.90
503.16	638.38
503.52	645.29
503.88	651.74
504.24	659.33
504.60	666.74
504.97	675.17
505.33	683.00
505.69	692.05
506.05	700.07
506.41	707.98
506.78	715.19
507.14	722.81
507.50	730.71
507.86	737.93
508.22	745.50
508.59	752.55
508.95	760.19
509.31	768.55
509.67	775.79
510.03	783.57
510.39	791.43
510.75	799.05
511.12	806.86
511.48	815.12
511.84	822.62
512.20	830.69
512.56	837.62
512.92	845.57
513.28	852.88
513.64	859.62
514.00	866.71
514.37	874.29
514.73	881.62
515.09	888.67
515.45	895.79
515.81	902.74
516.17	910.10
516.53	916.29
516.89	921.69
517.25	928.76
517.61	935.57
517.97	941.64
518.33	947.88
518.69	954.74
519.05	961.10
519.41	966.69
519.77	973.43
520.13	979.33
520.49	984.26
520.85	989.26
521.21	996.14
521.57	1002.52
521.93	1007.76
522.29	1013.24
522.65	1018.31
523.01	1024.10
523.37	1028.95
523.73	1034.26
524.09	1039.50
524.45	1044.62
524.81	1049.71
525.17	1055.10
525.53	1059.86
525.89	1064.83
526.25	1069.31
526.61	1072.67
526.97	1077.38
527.33	1081.10
527.68	1086.93
528.04	1091.95
528.40	1096.43
528.76	1100.05
529.12	1103.76
529.48	1108.55
529.84	1112.55
530.20	1117.02
530.56	1120.90
530.91	1125.69
531.27	1129.52
531.63	1133.26
531.99	1136.45
532.35	1139.88
532.71	1142.48
533.07	1147.74
533.42	1153.64
533.78	1157.79
534.14	1163.29
534.50	1167.21
534.86	1171.74
535.21	1174.05
535.57	1178.79
535.93	1182.07
536.29	1186.93
536.65	1190.76
537.00	1194.00
537.36	1197.60
537.72	1200.21
538.08	1203.67
538.44	1206.57
538.79	1210.48
539.15	1213.93
539.51	1218.19
539.87	1221.17
540.22	1224.83
540.58	1227.00
540.94	1227.81
541.29	1230.69
541.65	1232.29
542.01	1234.86
542.37	1236.98
542.72	1239.19
543.08	1240.48
543.44	1244.02
543.79	1245.52
544.15	1248.31
544.51	1252.21
544.87	1255.74
545.22	1259.67
545.58	1262.40
545.94	1264.62
546.29	1267.55
546.65	1270.98
547.01	1272.88
547.36	1276.36
547.72	1278.40
548.07	1281.38
548.43	1284.33
548.79	1285.40
549.14	1288.29
549.50	1292.33
549.86	1295.17
550.21	1298.26
550.57	1301.81
550.92	1304.14
551.28	1307.67
551.64	1310.24
551.99	1312.26
552.35	1314.31
552.70	1316.19
553.06	1319.62
553.41	1323.17
553.77	1327.26
554.13	1330.71
554.48	1335.40
554.84	1339.24
555.19	1343.74
555.55	1348.98
555.90	1352.69
556.26	1357.88
556.61	1361.52
556.97	1364.52
557.32	1367.76
557.68	1372.48
558.03	1375.86
558.39	1380.40
558.74	1383.31
559.10	1387.07
559.45	1391.02
559.81	1396.12
560.16	1400.36
560.52	1404.14
560.87	1408.55
561.23	1411.69
561.58	1416.98
561.94	1420.50
562.29	1424.17
562.64	1429.38
563.00	1432.50
563.35	1437.21
563.71	1441.79
564.06	1447.60
564.42	1452.26
564.77	1458.29
565.12	1463.36
565.48	1471.07
565.83	1476.24
566.19	1482.88
566.54	1488.43
566.89	1493.88
567.25	1499.40
567.60	1506.86
567.96	1515.17
568.31	1521.86
568.66	1528.52
569.02	1532.67
569.37	1538.29
569.72	1543.71
570.08	1548.12
570.43	1553.57
570.78	1559.45
571.14	1565.71
571.49	1570.76
571.84	1576.83
572.20	1581.98
572.55	1587.33
572.90	1590.26
573.26	1594.95
573.61	1599.33
573.96	1604.19
574.31	1609.52
574.67	1612.90
575.02	1616.05
575.37	1618.17
575.72	1621.62
576.08	1625.50
576.43	1629.29
576.78	1632.33
577.13	1636.60
577.49	1640.76
577.84	1645.21
578.19	1648.86
578.54	1651.62
578.90	1656.19
579.25	1659.33
579.60	1661.50
579.95	1664.24
580.30	1668.00
580.66	1672.14
581.01	1675.43
581.36	1678.60
581.71	1681.69
582.06	1687.38
582.42	1691.38
582.77	1693.64
583.12	1696.71
583.47	1699.43
583.82	1703.45
584.17	1707.31
584.53	1711.00
584.88	1714.62
585.23	1718.43
585.58	1720.57
585.93	1723.00
586.28	1725.24
586.63	1728.79
586.98	1732.76
587.34	1736.33
587.69	1738.79
588.04	1741.14
588.39	1743.83
588.74	1745.67
589.09	1748.10
589.44	1747.67
589.79	1749.17
590.14	1751.74
590.49	1753.07
590.84	1754.21
591.19	1756.29
591.54	1758.50
591.89	1759.43
592.25	1761.83
592.60	1761.83
592.95	1764.33
593.30	1767.00
593.65	1768.00
594.00	1767.86
594.35	1774.93
594.70	1775.38
595.05	1776.24
595.40	1776.45
595.75	1776.24
596.10	1778.38
596.45	1779.10
596.80	1780.67
597.15	1781.79
597.50	1781.76
597.85	1782.50
598.19	1783.12
598.54	1782.81
598.89	1783.00
599.24	1784.14
599.59	1783.69
599.94	1784.50
600.29	1784.50
600.64	1783.95
600.99	1784.17
601.34	1784.64
601.69	1777.67
602.04	1775.88
602.39	1775.74
602.74	1775.62
603.08	1775.93
603.43	1775.38
603.78	1774.29
604.13	1773.98
604.48	1772.93
604.83	1772.86
605.18	1773.02
605.53	1772.67
605.87	1771.90
606.22	1770.55
606.57	1768.93
606.92	1767.29
607.27	1765.71
607.62	1765.02
607.96	1764.93
608.31	1764.19
608.66	1763.33
609.01	1762.76
609.36	1763.74
609.70	1762.69
610.05	1761.21
610.40	1759.55
610.75	1756.71
611.10	1755.45
611.44	1752.43
611.79	1750.40
612.14	1748.00
612.49	1744.62
612.83	1741.21
613.18	1737.60
613.53	1735.45
613.88	1732.12
614.22	1729.24
614.57	1725.26
614.92	1720.69
615.27	1716.24
615.61	1711.74
615.96	1707.76
616.31	1704.60
616.65	1701.24
617.00	1697.24
617.35	1694.21
617.70	1690.93
618.04	1688.40
618.39	1684.81
618.74	1682.62
619.08	1677.88
619.43	1674.90
619.78	1671.93
620.12	1669.81
620.47	1667.43
620.82	1662.98
621.16	1658.95
621.51	1655.19
621.85	1652.50
622.20	1649.07
622.55	1645.12
622.89	1642.62
623.24	1640.50
623.59	1636.83
623.93	1632.90
624.28	1628.81
624.62	1626.71
624.97	1624.60
625.32	1620.31
625.66	1616.33
626.01	1612.05
626.35	1609.88
626.70	1605.55
627.04	1602.17
627.39	1597.17
627.73	1593.52
628.08	1591.33
628.43	1587.33
628.77	1583.69
629.12	1579.60
629.46	1576.12
629.81	1573.31
630.15	1567.60
630.50	1561.19
630.84	1556.05
631.19	1551.24
631.53	1547.33
631.88	1539.76
632.22	1532.57
632.57	1528.86
632.91	1524.00
633.26	1519.10
633.60	1513.33
633.95	1507.71
634.29	1502.55
634.64	1498.90
634.98	1493.48
635.32	1488.43
635.67	1484.95
636.01	1479.98
636.36	1475.31
636.70	1471.52
637.05	1466.26
637.39	1462.55
637.73	1459.67
638.08	1455.90
638.42	1451.12
638.77	1447.26
639.11	1443.24
639.45	1439.12
639.80	1433.45
640.14	1428.67
640.49	1424.00
640.83	1418.90
641.17	1414.90
641.52	1409.64
641.86	1403.81
642.20	1400.26
642.55	1394.07
642.89	1388.24
643.23	1383.31
643.58	1378.48
643.92	1372.19
644.26	1366.40
644.61	1360.86
644.95	1354.19
645.29	1347.98
645.64	1342.55
645.98	1336.38
646.32	1331.83
646.66	1325.76
647.01	1319.36
647.35	1313.76
647.69	1307.69
648.04	1302.74
648.38	1297.12
648.72	1292.12
649.06	1286.40
649.41	1279.17
649.75	1273.12
650.09	1268.12
650.43	1261.31
650.78	1253.86
651.12	1246.74
651.46	1240.50
651.80	1234.64
652.14	1229.00
652.49	1223.31
652.83	1217.33
653.17	1209.64
653.51	1202.95
653.85	1196.48
654.20	1191.07
654.54	1184.21
654.88	1178.48
655.22	1172.29
655.56	1166.02
655.90	1158.26
656.25	1152.21
656.59	1146.29
656.93	1140.90
657.27	1135.19
657.61	1128.79
657.95	1124.57
658.29	1118.76
658.64	1112.88
658.98	1106.38
659.32	1099.67
659.66	1092.45
660.00	1085.71
660.34	1080.57
660.68	1073.93
661.02	1068.14
661.36	1061.26
661.70	1055.52
662.05	1048.88
662.39	1042.43
662.73	1036.93
663.07	1032.67
663.41	1026.07
663.75	1020.12
664.09	1013.95
664.43	1006.76
664.77	1001.45
665.11	994.10
665.45	988.79
665.79	983.17
666.13	976.50
666.47	971.12
666.81	966.10
667.15	960.17
667.49	954.62
667.83	949.52
668.17	943.81
668.51	938.26
668.85	933.19
669.19	928.76
669.53	923.02
669.87	916.45
670.21	910.00
670.55	903.95
670.89	899.14
671.23	893.86
671.57	888.17
671.91	882.64
672.25	877.62
672.58	872.57
672.92	866.38
673.26	861.57
673.60	855.74
673.94	850.29
674.28	845.76
674.62	840.33
674.96	834.81
675.30	829.79
675.64	824.86
675.97	819.24
676.31	813.36
676.65	808.05
676.99	804.02
677.33	798.81
677.67	794.17
678.01	787.74
678.34	782.90
678.68	778.43
679.02	773.31
679.36	768.45
679.70	762.93
680.04	758.07
680.37	753.31
680.71	748.67
681.05	744.33
681.39	739.14
681.73	734.76
682.06	729.50
682.40	725.14
682.74	720.98
683.08	717.10
683.42	711.86
683.75	707.40
684.09	701.93
684.43	697.48
684.77	693.21
685.10	689.02
685.44	683.52
685.78	678.86
686.12	674.45
686.45	669.62
686.79	664.86
687.13	660.79
687.46	656.26
687.80	652.55
688.14	647.81
688.48	643.45
688.81	638.76
689.15	634.95
689.49	629.98
689.82	625.38
690.16	619.71
690.50	615.60
690.83	611.00
691.17	606.40
691.51	602.05
691.84	598.31
692.18	593.64
692.52	589.90
692.85	586.33
693.19	583.17
693.52	579.24
693.86	575.19
694.20	570.98
694.53	567.07
694.87	562.02
695.21	558.05
695.54	554.19
695.88	549.69
696.21	545.48
696.55	541.69
696.88	538.12
697.22	534.45
697.56	531.21
697.89	528.02
698.23	525.00
698.56	521.33
698.90	517.33
699.23	513.52
699.57	509.88
699.90	505.86
700.24	501.52
700.58	498.17
700.91	495.26
701.25	493.93
701.58	491.62
701.92	489.17
702.25	486.10
702.59	482.36
702.92	479.38
703.26	476.21
703.59	473.38
703.93	471.81
704.26	469.02
704.60	465.93
704.93	462.52
705.26	459.07
705.60	456.62
705.93	453.33
706.27	451.31
706.60	448.93
706.94	446.79
707.27	443.50
707.61	440.76
707.94	437.45
708.27	432.48
708.61	428.88
708.94	426.17
709.28	423.74
709.61	421.55
709.94	419.43
710.28	417.26
710.61	414.71
710.95	410.40
711.28	409.81
711.61	407.12
711.95	405.29
712.28	403.05
712.61	400.21
712.95	399.29
713.28	398.10
713.61	395.36
713.95	392.45
714.28	390.79
714.61	388.43
714.95	386.79
715.28	384.81
715.61	382.62
715.95	380.26
716.28	377.55
716.61	375.69
716.95	373.02
717.28	370.48
717.61	368.71
717.94	366.81
718.28	362.90
718.61	361.00
718.94	358.62
719.27	357.12
719.61	355.50
719.94	352.86
720.27	349.83
720.60	348.14
720.94	346.33
721.27	344.86
721.60	343.83
721.93	341.98
722.27	341.07
722.60	339.62
722.93	338.02
723.26	337.02
723.59	334.93
723.93	334.00
724.26	332.83
724.59	331.12
724.92	329.76
725.25	329.38
725.59	328.48
725.92	327.31
726.25	325.90
726.58	324.71
726.91	323.21
727.24	322.31
727.57	321.05
727.91	319.69
728.24	318.48
728.57	316.76
728.90	315.69
729.23	313.93
729.56	313.60
729.89	312.48
730.22	311.14
730.55	309.83
730.89	308.62
731.22	307.36
731.55	306.26
731.88	305.33
732.21	303.79
732.54	302.02
732.87	301.05
733.20	300.05
733.53	299.17
733.86	298.21
734.19	296.74
734.52	296.12
734.85	296.57
735.18	295.50
735.51	295.45
735.84	294.81
736.17	294.50
736.50	292.90
736.83	294.21
737.16	293.50
737.49	293.14
737.82	292.05
738.15	291.50
738.48	290.45
738.81	289.52
739.14	288.48
739.47	287.86
739.80	286.93
740.13	286.21
740.46	284.90
740.79	283.95
741.12	283.36
741.45	282.19
741.78	280.12
742.11	279.79
742.44	278.33
742.77	277.64
743.10	276.38
743.43	275.36
743.75	272.60
744.08	274.02
744.41	272.93
744.74	272.31
745.07	271.07
745.40	270.79
745.73	270.71
746.06	269.93
746.39	269.55
746.71	268.71
747.04	267.67
747.37	267.21
747.70	267.10
748.03	266.62
748.36	266.24
748.68	265.69
749.01	264.31
749.34	263.45
749.67	262.48
750.00	262.19
750.33	263.26
750.65	262.79
750.98	259.57
751.31	259.17
751.64	258.62
751.97	259.67
752.29	259.14
752.62	257.86
752.95	257.43
753.28	256.62
753.60	256.36
753.93	256.50
754.26	255.90
754.59	254.60
754.91	253.48
755.24	252.71
755.57	252.45
755.90	252.00
756.22	251.64
756.55	251.00
756.88	250.24
757.20	248.14
757.53	247.19
757.86	246.81
758.19	246.52
758.51	246.21
758.84	244.38
759.17	243.71
759.49	243.64
759.82	244.17
760.15	243.98
760.47	243.26
760.80	242.26
761.13	242.24
761.45	242.10
761.78	241.83
762.11	241.71
762.43	240.98
762.76	240.57
763.08	240.43
763.41	240.10
763.74	239.83
764.06	239.50
764.39	239.14
764.71	239.00
765.04	238.52
765.37	237.98
765.69	237.83
766.02	237.26
766.34	236.69
766.67	235.62
767.00	235.40
767.32	236.38
767.65	237.43
767.97	237.00
768.30	236.81
768.62	236.71
768.95	236.17
769.27	235.95
769.60	236.10
769.92	235.31
770.25	234.90
770.57	234.40
770.90	234.14
771.22	233.83
771.55	233.57
771.87	233.50
772.20	233.33
772.52	234.76
772.85	237.31
773.17	237.12
773.50	236.74
773.82	236.38
774.15	235.14
774.47	233.48
774.80	233.29
775.12	232.76
775.45	232.55
775.77	232.29
776.09	232.38
776.42	232.19
776.74	232.86
777.07	232.62
777.39	232.45
777.72	232.10
778.04	232.24
778.36	231.71
778.69	231.50
779.01	231.57
779.33	229.60
779.66	227.17
779.98	226.79
780.31	226.64
780.63	227.31
780.95	227.52
781.28	227.64
781.60	227.17
781.92	227.21
782.25	227.02
782.57	227.29
782.89	226.81
783.22	226.55
783.54	225.88
783.86	226.00
784.19	225.90
784.51	226.76
784.83	226.02
785.16	226.07
