SpectraSuite Data File
++++++++++++++++++++++++++++++++++++
Date: Tue Apr 02 18:46:38 EDT 2013
User: group
Dark Spectrum Present: No
Reference Spectrum Present: No
Number of Sampled Component Spectra: 1
Spectrometers: USB2E7196
Integration Time (usec): 580000 (USB2E7196)
Spectra Averaged: 2 (USB2E7196)
Boxcar Smoothing: 10 (USB2E7196)
Correct for Electrical Dark: No (USB2E7196)
Strobe/Lamp Enabled: No (USB2E7196)
Correct for Detector Non-linearity: No (USB2E7196)
Correct for Stray Light: No (USB2E7196)
Number of Pixels in Processed Spectrum: 2048
>>>>>Begin Processed Spectral Data<<<<<
339.09	0.00
339.48	196.00
339.86	198.50
340.24	202.00
340.63	201.00
341.01	233.50
341.39	201.00
341.78	205.50
342.16	213.00
342.54	204.50
342.93	198.83
343.31	208.86
343.69	209.29
344.07	209.76
344.46	210.26
344.84	210.81
345.22	209.71
345.60	210.36
345.99	210.60
346.37	210.48
346.75	210.74
347.13	210.79
347.52	210.76
347.90	211.36
348.28	211.40
348.66	212.00
349.05	211.60
349.43	211.86
349.81	211.98
350.19	212.24
350.57	212.40
350.96	212.95
351.34	213.12
351.72	213.40
352.10	213.48
352.48	213.31
352.87	213.14
353.25	213.17
353.63	212.88
354.01	212.69
354.39	212.79
354.77	212.74
355.15	213.33
355.54	213.29
355.92	212.74
356.30	212.81
356.68	214.10
357.06	214.26
357.44	214.00
357.82	214.10
358.20	214.95
358.58	214.86
358.97	214.57
359.35	214.76
359.73	214.98
360.11	214.93
360.49	215.07
360.87	215.12
361.25	215.17
361.63	215.93
362.01	216.17
362.39	216.14
362.77	216.38
363.15	216.07
363.53	216.14
363.91	216.33
364.29	216.24
364.67	214.36
365.05	214.36
365.43	214.57
365.81	214.62
366.19	214.40
366.57	215.26
366.95	215.40
367.33	215.00
367.71	214.88
368.09	215.29
368.47	215.43
368.85	215.31
369.23	215.76
369.61	215.00
369.99	215.69
370.37	215.98
370.75	216.81
371.13	216.57
371.51	216.48
371.89	216.62
372.27	216.69
372.65	216.98
373.03	216.81
373.41	216.43
373.78	216.31
374.16	215.33
374.54	214.71
374.92	214.69
375.30	214.71
375.68	214.43
376.06	214.55
376.44	214.40
376.82	214.50
377.19	214.40
377.57	214.29
377.95	213.48
378.33	213.19
378.71	211.90
379.09	212.19
379.47	212.38
379.84	212.05
380.22	211.86
380.60	211.36
380.98	211.36
381.36	211.31
381.73	211.10
382.11	211.55
382.49	211.50
382.87	211.24
383.25	211.40
383.62	213.88
384.00	213.33
384.38	213.40
384.76	213.79
385.13	214.43
385.51	214.67
385.89	214.55
386.27	214.64
386.64	215.14
387.02	214.90
387.40	214.55
387.78	214.55
388.15	214.67
388.53	214.74
388.91	214.81
389.29	214.81
389.66	215.21
390.04	214.93
390.42	215.45
390.79	215.38
391.17	215.21
391.55	212.88
391.92	212.93
392.30	213.17
392.68	212.90
393.05	212.98
393.43	213.02
393.81	213.36
394.18	213.14
394.56	213.31
394.94	213.81
395.31	213.71
395.69	214.64
396.06	214.76
396.44	215.05
396.82	214.86
397.19	215.93
397.57	215.76
397.95	216.26
398.32	215.57
398.70	215.93
399.07	216.33
399.45	216.24
399.82	216.36
400.20	216.21
400.58	216.29
400.95	215.21
401.33	215.57
401.70	216.93
402.08	217.29
402.45	217.29
402.83	217.76
403.20	218.10
403.58	217.88
403.95	218.40
404.33	218.81
404.71	219.21
405.08	220.48
405.46	220.88
405.83	221.05
406.21	221.55
406.58	221.71
406.96	222.24
407.33	222.98
407.70	223.52
408.08	225.33
408.45	226.26
408.83	227.48
409.20	228.02
409.58	227.43
409.95	228.36
410.33	229.26
410.70	229.55
411.08	230.81
411.45	231.52
411.82	232.12
412.20	233.55
412.57	235.98
412.95	235.38
413.32	237.00
413.69	238.33
414.07	240.02
414.44	242.07
414.82	244.05
415.19	246.33
415.56	248.74
415.94	250.10
416.31	252.69
416.68	255.38
417.06	258.71
417.43	262.57
417.81	266.02
418.18	269.83
418.55	273.71
418.93	277.60
419.30	281.93
419.67	286.71
420.04	291.31
420.42	295.10
420.79	302.36
421.16	307.76
421.54	314.71
421.91	320.64
422.28	326.88
422.66	333.52
423.03	341.57
423.40	348.55
423.77	356.00
424.15	362.93
424.52	370.88
424.89	379.50
425.26	386.71
425.64	394.24
426.01	402.33
426.38	410.83
426.75	420.10
427.13	429.69
427.50	439.55
427.87	449.21
428.24	459.40
428.61	467.83
428.99	478.98
429.36	489.31
429.73	501.14
430.10	512.24
430.47	523.45
430.85	533.43
431.22	545.19
431.59	559.60
431.96	572.81
432.33	586.83
432.70	600.02
433.08	615.93
433.45	631.10
433.82	646.52
434.19	663.74
434.56	680.86
434.93	696.33
435.30	711.83
435.68	729.86
436.05	747.29
436.42	763.86
436.79	779.71
437.16	797.12
437.53	814.45
437.90	832.24
438.27	849.95
438.64	868.71
439.01	886.33
439.38	899.69
439.75	913.74
440.13	930.55
440.50	945.88
440.87	959.26
441.24	972.31
441.61	986.57
441.98	996.60
442.35	1008.52
442.72	1020.74
443.09	1034.02
443.46	1041.02
443.83	1045.88
444.20	1050.81
444.57	1057.31
444.94	1060.67
445.31	1064.24
445.68	1069.60
446.05	1070.67
446.42	1069.24
446.79	1068.19
447.16	1066.69
447.53	1066.17
447.90	1059.21
448.27	1052.93
448.64	1043.76
449.01	1037.95
449.37	1026.60
449.74	1016.50
450.11	1004.67
450.48	990.57
450.85	974.76
451.22	962.26
451.59	950.55
451.96	938.60
452.33	922.52
452.70	908.10
453.07	891.12
453.43	872.07
453.80	856.10
454.17	839.95
454.54	824.38
454.91	808.02
455.28	792.17
455.65	778.00
456.02	767.05
456.38	754.26
456.75	738.64
457.12	725.88
457.49	712.95
457.86	698.86
458.23	688.95
458.59	677.76
458.96	665.86
459.33	655.38
459.70	645.76
460.07	637.57
460.43	627.81
460.80	619.31
461.17	611.93
461.54	603.71
461.91	596.31
462.27	588.29
462.64	581.33
463.01	573.90
463.38	566.48
463.74	555.71
464.11	549.88
464.48	544.19
464.85	538.07
465.21	533.74
465.58	528.93
465.95	522.55
466.32	517.19
466.68	512.00
467.05	507.02
467.42	501.48
467.78	496.17
468.15	491.50
468.52	487.76
468.88	482.07
469.25	477.50
469.62	474.14
469.98	469.98
470.35	466.55
470.72	462.48
471.08	458.12
471.45	455.05
471.82	451.90
472.18	448.45
472.55	445.90
472.92	442.07
473.28	439.12
473.65	436.38
474.02	433.62
474.38	431.95
474.75	430.10
475.11	427.83
475.48	426.40
475.85	424.79
476.21	422.52
476.58	421.62
476.94	420.50
477.31	418.88
477.67	417.62
478.04	416.55
478.41	415.95
478.77	417.93
479.14	417.12
479.50	416.36
479.87	416.40
480.23	415.90
480.60	415.57
480.96	415.21
481.33	415.93
481.69	416.45
482.06	416.38
482.42	416.52
482.79	417.24
483.15	417.38
483.52	418.17
483.88	418.81
484.25	419.12
484.61	419.60
484.98	419.81
485.34	421.45
485.71	423.17
486.07	424.69
486.44	424.14
486.80	425.43
487.17	427.00
487.53	429.14
487.90	431.55
488.26	434.79
488.62	437.93
488.99	439.55
489.35	441.93
489.72	444.33
490.08	446.86
490.44	449.26
490.81	452.81
491.17	455.60
491.54	459.10
491.90	462.98
492.26	467.12
492.63	471.31
492.99	475.19
493.36	479.40
493.72	483.45
494.08	487.36
494.45	492.21
494.81	497.43
495.17	501.52
495.54	506.36
495.90	510.45
496.26	515.07
496.63	520.43
496.99	525.60
497.35	530.95
497.72	536.88
498.08	542.69
498.44	548.05
498.80	554.60
499.17	560.50
499.53	567.02
499.89	574.17
500.26	580.98
500.62	587.67
500.98	594.93
501.34	601.95
501.71	609.74
502.07	616.79
502.43	623.74
502.79	630.74
503.16	637.36
503.52	644.81
503.88	652.00
504.24	659.50
504.60	667.33
504.97	675.60
505.33	683.12
505.69	692.00
506.05	700.19
506.41	707.40
506.78	715.21
507.14	722.02
507.50	728.88
507.86	736.83
508.22	744.62
508.59	751.81
508.95	759.83
509.31	768.24
509.67	776.52
510.03	784.48
510.39	792.81
510.75	801.21
511.12	809.00
511.48	816.93
511.84	824.05
512.20	832.24
512.56	840.48
512.92	848.74
513.28	856.29
513.64	863.71
514.00	871.21
514.37	879.14
514.73	886.76
515.09	894.33
515.45	901.86
515.81	909.19
516.17	915.64
516.53	922.12
516.89	928.02
517.25	933.81
517.61	940.57
517.97	946.52
518.33	952.64
518.69	959.17
519.05	965.17
519.41	972.48
519.77	978.79
520.13	983.93
520.49	989.00
520.85	993.88
521.21	1000.45
521.57	1006.74
521.93	1011.12
522.29	1017.76
522.65	1022.55
523.01	1027.64
523.37	1032.64
523.73	1037.88
524.09	1042.79
524.45	1047.52
524.81	1052.71
525.17	1057.45
525.53	1062.86
525.89	1067.45
526.25	1072.43
526.61	1076.67
526.97	1080.45
527.33	1084.52
527.68	1090.71
528.04	1095.12
528.40	1099.67
528.76	1103.05
529.12	1107.07
529.48	1112.38
529.84	1115.29
530.20	1120.52
530.56	1124.74
530.91	1129.14
531.27	1133.55
531.63	1137.98
531.99	1142.33
532.35	1146.33
532.71	1149.79
533.07	1153.45
533.42	1159.71
533.78	1163.74
534.14	1168.71
534.50	1173.45
534.86	1177.36
535.21	1179.69
535.57	1184.29
535.93	1188.40
536.29	1192.95
536.65	1197.00
537.00	1199.93
537.36	1204.17
537.72	1206.21
538.08	1209.48
538.44	1212.33
538.79	1215.81
539.15	1218.60
539.51	1222.36
539.87	1225.81
540.22	1229.45
540.58	1233.17
540.94	1234.26
541.29	1237.02
541.65	1238.95
542.01	1241.57
542.37	1243.79
542.72	1245.98
543.08	1247.07
543.44	1249.74
543.79	1250.95
544.15	1253.62
544.51	1256.90
544.87	1259.24
545.22	1263.45
545.58	1266.05
545.94	1268.57
546.29	1270.83
546.65	1274.17
547.01	1276.29
547.36	1279.00
547.72	1281.29
548.07	1283.48
548.43	1285.36
548.79	1288.31
549.14	1291.86
549.50	1294.05
549.86	1296.33
550.21	1299.29
550.57	1302.83
550.92	1305.26
551.28	1308.86
551.64	1311.43
551.99	1314.24
552.35	1316.90
552.70	1319.19
553.06	1322.26
553.41	1325.79
553.77	1330.36
554.13	1333.76
554.48	1337.88
554.84	1341.88
555.19	1346.02
555.55	1351.29
555.90	1355.17
556.26	1358.64
556.61	1361.38
556.97	1364.21
557.32	1368.43
557.68	1371.90
558.03	1375.79
558.39	1379.60
558.74	1383.52
559.10	1387.19
559.45	1391.07
559.81	1395.93
560.16	1399.95
560.52	1403.67
560.87	1408.14
561.23	1410.60
561.58	1415.67
561.94	1418.05
562.29	1421.33
562.64	1425.69
563.00	1429.05
563.35	1433.83
563.71	1438.31
564.06	1443.38
564.42	1449.31
564.77	1454.81
565.12	1460.50
565.48	1467.60
565.83	1473.19
566.19	1479.21
566.54	1483.95
566.89	1489.38
567.25	1495.48
567.60	1502.98
567.96	1511.33
568.31	1517.21
568.66	1523.62
569.02	1527.74
569.37	1534.40
569.72	1540.95
570.08	1545.55
570.43	1549.93
570.78	1555.67
571.14	1561.50
571.49	1566.88
571.84	1571.62
572.20	1576.36
572.55	1580.90
572.90	1583.95
573.26	1588.21
573.61	1591.55
573.96	1596.31
574.31	1601.12
574.67	1604.19
575.02	1605.81
575.37	1607.36
575.72	1610.62
576.08	1614.64
576.43	1618.67
576.78	1621.55
577.13	1625.07
577.49	1630.10
577.84	1634.69
578.19	1638.21
578.54	1641.98
578.90	1646.40
579.25	1650.24
579.60	1652.74
579.95	1656.38
580.30	1659.69
580.66	1663.67
581.01	1667.86
581.36	1671.88
581.71	1674.93
582.06	1679.88
582.42	1684.95
582.77	1688.76
583.12	1691.93
583.47	1695.60
583.82	1699.05
584.17	1703.00
584.53	1706.90
584.88	1709.00
585.23	1712.74
585.58	1716.07
585.93	1718.76
586.28	1721.19
586.63	1725.02
586.98	1730.19
587.34	1733.40
587.69	1736.10
588.04	1738.93
588.39	1741.95
588.74	1743.26
589.09	1746.52
589.44	1746.60
589.79	1748.14
590.14	1750.50
590.49	1752.33
590.84	1753.45
591.19	1756.24
591.54	1758.12
591.89	1759.29
592.25	1762.93
592.60	1763.45
592.95	1765.00
593.30	1766.52
593.65	1768.38
594.00	1768.52
594.35	1774.40
594.70	1775.05
595.05	1777.81
595.40	1778.88
595.75	1779.50
596.10	1782.05
596.45	1782.76
596.80	1785.14
597.15	1786.43
597.50	1787.48
597.85	1788.90
598.19	1790.07
598.54	1790.93
598.89	1791.33
599.24	1792.81
599.59	1791.79
599.94	1792.43
600.29	1793.02
600.64	1792.93
600.99	1793.29
601.34	1794.31
601.69	1789.10
602.04	1788.40
602.39	1786.86
602.74	1786.95
603.08	1786.29
603.43	1786.71
603.78	1786.05
604.13	1785.52
604.48	1784.60
604.83	1784.31
605.18	1784.33
605.53	1783.40
605.87	1782.60
606.22	1782.48
606.57	1780.00
606.92	1778.64
607.27	1777.76
607.62	1776.79
607.96	1776.71
608.31	1775.79
608.66	1775.00
609.01	1773.57
609.36	1774.36
609.70	1774.19
610.05	1772.21
610.40	1770.52
610.75	1768.00
611.10	1767.31
611.44	1764.38
611.79	1762.26
612.14	1760.00
612.49	1756.02
612.83	1753.86
613.18	1750.43
613.53	1747.79
613.88	1744.76
614.22	1742.43
614.57	1739.07
614.92	1735.00
615.27	1731.10
615.61	1726.43
615.96	1722.86
616.31	1719.26
616.65	1717.02
617.00	1713.93
617.35	1710.45
617.70	1708.79
618.04	1704.43
618.39	1700.62
618.74	1697.81
619.08	1694.45
619.43	1690.57
619.78	1688.24
620.12	1685.00
620.47	1681.79
620.82	1677.43
621.16	1673.50
621.51	1670.21
621.85	1666.21
622.20	1663.07
622.55	1658.69
622.89	1655.74
623.24	1652.40
623.59	1649.26
623.93	1643.93
624.28	1639.12
624.62	1637.45
624.97	1633.02
625.32	1629.86
625.66	1625.98
626.01	1622.29
626.35	1618.88
626.70	1614.31
627.04	1611.05
627.39	1607.07
627.73	1604.43
628.08	1601.62
628.43	1598.31
628.77	1593.86
629.12	1590.62
629.46	1587.12
629.81	1583.88
630.15	1579.24
630.50	1574.14
630.84	1568.55
631.19	1563.38
631.53	1558.26
631.88	1551.19
632.22	1545.81
632.57	1542.43
632.91	1536.90
633.26	1532.76
633.60	1527.07
633.95	1522.26
634.29	1516.64
634.64	1511.69
634.98	1506.10
635.32	1501.83
635.67	1497.48
636.01	1492.86
636.36	1488.57
636.70	1484.45
637.05	1479.57
637.39	1475.76
637.73	1471.29
638.08	1469.00
638.42	1464.71
638.77	1461.05
639.11	1457.10
639.45	1452.83
639.80	1446.69
640.14	1442.31
640.49	1436.36
640.83	1431.40
641.17	1427.67
641.52	1422.95
641.86	1418.33
642.20	1413.38
642.55	1407.21
642.89	1402.45
643.23	1397.86
643.58	1393.33
643.92	1386.60
644.26	1381.21
644.61	1376.50
644.95	1371.26
645.29	1363.93
645.64	1359.36
645.98	1353.24
646.32	1348.17
646.66	1341.95
647.01	1336.95
647.35	1331.64
647.69	1326.38
648.04	1321.79
648.38	1315.52
648.72	1310.40
649.06	1304.62
649.41	1298.57
649.75	1292.55
650.09	1286.45
650.43	1279.69
650.78	1272.40
651.12	1266.60
651.46	1260.12
651.80	1253.19
652.14	1247.71
652.49	1241.81
652.83	1234.98
653.17	1228.31
653.51	1221.40
653.85	1215.95
654.20	1209.45
654.54	1202.05
654.88	1196.31
655.22	1190.29
655.56	1184.12
655.90	1177.50
656.25	1171.29
656.59	1164.79
656.93	1158.45
657.27	1153.48
657.61	1147.29
657.95	1141.60
658.29	1135.50
658.64	1130.24
658.98	1122.98
659.32	1115.55
659.66	1109.50
660.00	1102.60
660.34	1097.19
660.68	1091.21
661.02	1084.40
661.36	1078.40
661.70	1073.05
662.05	1066.48
662.39	1059.93
662.73	1054.29
663.07	1049.48
663.41	1043.52
663.75	1038.52
664.09	1033.57
664.43	1026.55
664.77	1021.79
665.11	1015.64
665.45	1010.36
665.79	1004.40
666.13	999.29
666.47	993.81
666.81	988.64
667.15	983.50
667.49	978.67
667.83	974.26
668.17	968.95
668.51	964.07
668.85	959.38
669.19	955.02
669.53	949.45
669.87	943.62
670.21	936.74
670.55	931.07
670.89	925.93
671.23	920.36
671.57	915.24
671.91	909.43
672.25	904.57
672.58	900.12
672.92	894.79
673.26	889.90
673.60	884.57
673.94	879.26
674.28	874.64
674.62	869.43
674.96	863.76
675.30	859.10
675.64	853.93
675.97	848.24
676.31	842.83
676.65	837.81
676.99	834.17
677.33	829.38
677.67	824.74
678.01	818.83
678.34	813.38
678.68	808.74
679.02	803.64
679.36	797.88
679.70	792.60
680.04	787.48
680.37	782.86
680.71	778.40
681.05	773.86
681.39	768.90
681.73	763.52
682.06	759.07
682.40	754.19
682.74	749.29
683.08	745.38
683.42	740.14
683.75	735.69
684.09	730.14
684.43	725.21
684.77	720.83
685.10	716.24
685.44	712.29
685.78	707.12
686.12	702.24
686.45	698.33
686.79	692.93
687.13	688.79
687.46	684.05
687.80	680.17
688.14	675.55
688.48	671.26
688.81	667.05
689.15	662.52
689.49	658.00
689.82	653.38
690.16	647.74
690.50	643.17
690.83	638.74
691.17	633.48
691.51	629.07
691.84	624.60
692.18	620.43
692.52	615.74
692.85	612.62
693.19	609.95
693.52	605.02
693.86	601.05
694.20	596.29
694.53	592.19
694.87	587.26
695.21	582.43
695.54	578.07
695.88	573.81
696.21	568.81
696.55	564.50
696.88	560.71
697.22	557.12
697.56	554.00
697.89	549.48
698.23	546.40
698.56	543.05
698.90	539.05
699.23	535.29
699.57	531.71
699.90	526.90
700.24	521.64
700.58	518.69
700.91	515.36
701.25	514.12
701.58	511.24
701.92	508.74
702.25	505.64
702.59	501.93
702.92	498.48
703.26	495.12
703.59	492.33
703.93	490.45
704.26	487.43
704.60	484.19
704.93	481.64
705.26	478.36
705.60	475.26
705.93	471.98
706.27	469.19
706.60	466.05
706.94	464.24
707.27	461.76
707.61	459.02
707.94	455.90
708.27	451.24
708.61	447.86
708.94	445.21
709.28	442.48
709.61	439.93
709.94	437.48
710.28	435.48
710.61	432.57
710.95	428.14
711.28	427.10
711.61	424.74
711.95	422.95
712.28	420.36
712.61	417.86
712.95	416.62
713.28	415.02
713.61	412.98
713.95	410.12
714.28	407.62
714.61	405.00
714.95	403.10
715.28	400.74
715.61	398.67
715.95	395.83
716.28	393.60
716.61	391.88
716.95	389.31
717.28	387.05
717.61	385.02
717.94	383.19
718.28	379.45
718.61	376.98
718.94	373.88
719.27	371.76
719.61	369.86
719.94	367.12
720.27	364.10
720.60	362.02
720.94	359.79
721.27	358.00
721.60	356.69
721.93	354.79
722.27	353.60
722.60	351.79
722.93	350.12
723.26	348.74
723.59	346.90
723.93	345.86
724.26	344.19
724.59	342.43
724.92	341.31
725.25	340.64
725.59	339.12
725.92	338.31
726.25	337.02
726.58	335.69
726.91	334.40
727.24	333.50
727.57	331.88
727.91	330.40
728.24	329.38
728.57	327.60
728.90	326.36
729.23	324.50
729.56	324.24
729.89	323.02
730.22	321.67
730.55	320.07
730.89	318.74
731.22	317.40
731.55	316.24
731.88	314.83
732.21	313.07
732.54	312.02
732.87	310.74
733.20	309.88
733.53	308.71
733.86	307.79
734.19	305.93
734.52	305.31
734.85	305.50
735.18	304.24
735.51	303.76
735.84	302.62
736.17	302.19
736.50	300.05
736.83	301.17
737.16	299.81
737.49	299.02
737.82	298.05
738.15	297.57
738.48	296.62
738.81	295.62
739.14	294.40
739.47	293.26
739.80	292.14
740.13	291.26
740.46	290.12
740.79	288.79
741.12	288.10
741.45	286.86
741.78	285.05
742.11	284.71
742.44	283.50
742.77	283.05
743.10	281.74
743.43	280.90
743.75	277.98
744.08	279.95
744.41	278.98
744.74	277.98
745.07	276.52
745.40	276.17
745.73	275.95
746.06	275.26
746.39	274.88
746.71	273.95
747.04	273.21
747.37	272.69
747.70	272.52
748.03	272.05
748.36	271.71
748.68	270.88
749.01	269.26
749.34	268.60
749.67	268.00
750.00	267.90
750.33	268.71
750.65	268.36
750.98	265.50
751.31	265.00
751.64	264.60
751.97	265.48
752.29	264.64
752.62	263.10
752.95	262.71
753.28	261.67
753.60	261.14
753.93	260.71
754.26	260.10
754.59	258.76
754.91	257.57
755.24	256.55
755.57	255.88
755.90	255.60
756.22	254.71
756.55	253.81
756.88	252.81
757.20	250.93
757.53	249.67
757.86	248.95
758.19	248.71
758.51	248.17
758.84	246.33
759.17	245.71
759.49	245.81
759.82	245.93
760.15	245.38
760.47	244.76
760.80	243.60
761.13	243.52
761.45	243.40
761.78	243.24
762.11	243.26
762.43	242.95
762.76	242.36
763.08	242.50
763.41	242.19
763.74	242.05
764.06	241.74
764.39	241.17
764.71	240.64
765.04	240.19
765.37	239.60
765.69	239.31
766.02	239.02
766.34	238.50
766.67	237.67
767.00	238.07
767.32	239.12
767.65	240.33
767.97	239.90
768.30	239.45
768.62	239.50
768.95	238.86
769.27	238.45
769.60	238.60
769.92	237.98
770.25	237.40
770.57	236.62
770.90	236.40
771.22	236.62
771.55	236.38
771.87	236.26
772.20	236.19
772.52	237.64
772.85	239.86
773.17	239.45
773.50	239.26
773.82	238.55
774.15	237.24
774.47	235.60
774.80	234.83
775.12	234.64
775.45	234.31
775.77	234.33
776.09	234.40
776.42	234.48
776.74	234.95
777.07	234.79
777.39	234.71
777.72	234.14
778.04	234.05
778.36	233.76
778.69	233.50
779.01	233.45
779.33	231.38
779.66	229.00
779.98	228.62
780.31	228.21
780.63	229.10
780.95	229.10
781.28	229.00
781.60	228.86
781.92	228.83
782.25	228.69
782.57	228.38
782.89	227.81
783.22	227.29
783.54	226.55
783.86	226.48
784.19	226.33
784.51	227.07
784.83	226.67
