SpectraSuite Data File
++++++++++++++++++++++++++++++++++++
Date: Tue Apr 02 18:38:26 EDT 2013
User: group
Dark Spectrum Present: No
Reference Spectrum Present: No
Number of Sampled Component Spectra: 1
Spectrometers: USB2E7196
Integration Time (usec): 580000 (USB2E7196)
Spectra Averaged: 2 (USB2E7196)
Boxcar Smoothing: 10 (USB2E7196)
Correct for Electrical Dark: No (USB2E7196)
Strobe/Lamp Enabled: No (USB2E7196)
Correct for Detector Non-linearity: No (USB2E7196)
Correct for Stray Light: No (USB2E7196)
Number of Pixels in Processed Spectrum: 2048
>>>>>Begin Processed Spectral Data<<<<<
339.09	0.00
339.48	191.50
339.86	192.00
340.24	194.50
340.63	196.00
341.01	234.50
341.39	200.50
341.78	203.00
342.16	213.00
342.54	208.00
342.93	197.05
343.31	206.79
343.69	207.40
344.07	208.21
344.46	209.02
344.84	209.76
345.22	208.52
345.60	208.90
345.99	209.31
346.37	209.24
346.75	209.14
347.13	209.50
347.52	210.05
347.90	210.64
348.28	210.67
348.66	210.95
349.05	210.21
349.43	210.60
349.81	210.88
350.19	210.90
350.57	211.19
350.96	211.60
351.34	211.93
351.72	212.14
352.10	212.12
352.48	211.93
352.87	211.81
353.25	211.86
353.63	211.79
354.01	211.76
354.39	211.81
354.77	211.93
355.15	212.21
355.54	211.90
355.92	211.33
356.30	211.40
356.68	212.60
357.06	213.17
357.44	212.95
357.82	212.98
358.20	213.98
358.58	214.07
358.97	214.00
359.35	214.45
359.73	214.79
360.11	214.86
360.49	215.19
360.87	215.31
361.25	215.48
361.63	216.48
362.01	216.79
362.39	216.69
362.77	217.19
363.15	217.14
363.53	217.26
363.91	217.55
364.29	217.79
364.67	216.10
365.05	215.98
365.43	216.19
365.81	216.40
366.19	216.36
366.57	217.17
366.95	217.19
367.33	216.62
367.71	216.88
368.09	217.26
368.47	217.24
368.85	217.31
369.23	218.17
369.61	217.36
369.99	217.79
370.37	218.29
370.75	219.12
371.13	218.79
371.51	218.57
371.89	218.57
372.27	218.52
372.65	218.62
373.03	218.57
373.41	218.55
373.78	218.43
374.16	217.48
374.54	216.64
374.92	216.50
375.30	216.62
375.68	216.02
376.06	216.02
376.44	215.74
376.82	215.93
377.19	215.38
377.57	215.29
377.95	214.76
378.33	214.33
378.71	212.98
379.09	213.45
379.47	213.76
379.84	213.71
380.22	213.60
380.60	213.24
380.98	213.02
381.36	212.71
381.73	212.43
382.11	212.71
382.49	212.81
382.87	212.50
383.25	212.48
383.62	215.10
384.00	214.67
384.38	214.86
384.76	215.05
385.13	215.86
385.51	215.98
385.89	215.81
386.27	215.88
386.64	216.33
387.02	216.02
387.40	215.71
387.78	215.74
388.15	216.02
388.53	215.95
388.91	216.12
389.29	215.93
389.66	216.45
390.04	216.31
390.42	216.67
390.79	216.83
391.17	216.74
391.55	214.07
391.92	214.31
392.30	214.67
392.68	214.12
393.05	213.86
393.43	213.79
393.81	213.86
394.18	213.55
394.56	213.50
394.94	213.74
395.31	213.86
395.69	214.62
396.06	214.60
396.44	215.00
396.82	214.81
397.19	216.14
397.57	215.95
397.95	216.31
398.32	215.81
398.70	216.05
399.07	216.64
399.45	216.95
399.82	216.83
400.20	216.57
400.58	216.62
400.95	215.83
401.33	216.26
401.70	217.52
402.08	217.81
402.45	217.83
402.83	218.50
403.20	218.60
403.58	218.12
403.95	218.60
404.33	219.12
404.71	219.74
405.08	221.02
405.46	221.12
405.83	221.60
406.21	222.12
406.58	222.64
406.96	223.05
407.33	223.67
407.70	224.48
408.08	226.69
408.45	227.67
408.83	229.12
409.20	229.74
409.58	229.60
409.95	230.83
410.33	232.10
410.70	232.62
411.08	234.10
411.45	235.40
411.82	236.33
412.20	238.14
412.57	240.57
412.95	240.26
413.32	242.50
413.69	244.14
414.07	246.19
414.44	248.36
414.82	250.69
415.19	253.57
415.56	256.26
415.94	257.83
416.31	261.50
416.68	264.67
417.06	268.57
417.43	272.71
417.81	276.95
418.18	281.07
418.55	285.21
418.93	289.88
419.30	294.83
419.67	300.19
420.04	305.29
420.42	310.57
420.79	318.69
421.16	325.14
421.54	332.69
421.91	339.86
422.28	347.14
422.66	354.81
423.03	363.86
423.40	371.95
423.77	380.36
424.15	388.48
424.52	397.38
424.89	407.52
425.26	416.69
425.64	425.38
426.01	435.45
426.38	446.14
426.75	457.02
427.13	467.74
427.50	479.45
427.87	491.52
428.24	502.98
428.61	513.21
428.99	526.64
429.36	539.45
429.73	553.07
430.10	566.71
430.47	580.43
430.85	592.83
431.22	607.81
431.59	625.21
431.96	640.48
432.33	657.38
432.70	673.43
433.08	692.74
433.45	710.57
433.82	728.50
434.19	749.00
434.56	768.67
434.93	787.55
435.30	806.26
435.68	826.93
436.05	847.95
436.42	867.81
436.79	886.55
437.16	907.55
437.53	928.79
437.90	950.40
438.27	971.71
438.64	993.60
439.01	1013.98
439.38	1030.79
439.75	1048.12
440.13	1068.12
440.50	1086.95
440.87	1102.21
441.24	1118.81
441.61	1136.55
441.98	1149.43
442.35	1165.14
442.72	1181.14
443.09	1196.76
443.46	1205.95
443.83	1212.19
444.20	1218.57
444.57	1225.64
444.94	1228.98
445.31	1233.21
445.68	1238.79
446.05	1240.40
446.42	1239.10
446.79	1237.74
447.16	1235.93
447.53	1235.86
447.90	1228.74
448.27	1221.36
448.64	1210.79
449.01	1203.55
449.37	1190.60
449.74	1177.83
450.11	1163.88
450.48	1146.12
450.85	1127.76
451.22	1112.48
451.59	1098.40
451.96	1084.60
452.33	1066.21
452.70	1049.60
453.07	1029.43
453.43	1006.74
453.80	987.10
454.17	968.10
454.54	949.29
454.91	929.64
455.28	910.14
455.65	892.14
456.02	877.55
456.38	862.55
456.75	843.95
457.12	828.21
457.49	812.98
457.86	795.60
458.23	783.43
458.59	769.90
458.96	755.93
459.33	742.90
459.70	730.21
460.07	720.12
460.43	708.67
460.80	698.26
461.17	689.60
461.54	679.79
461.91	670.60
462.27	661.21
462.64	652.88
463.01	643.67
463.38	635.64
463.74	623.67
464.11	616.00
464.48	608.98
464.85	601.17
465.21	595.55
465.58	590.10
465.95	582.45
466.32	576.36
466.68	569.83
467.05	564.31
467.42	558.67
467.78	552.57
468.15	546.69
468.52	542.10
468.88	535.74
469.25	530.55
469.62	526.33
469.98	521.88
470.35	517.69
470.72	513.31
471.08	508.05
471.45	505.02
471.82	501.86
472.18	497.98
472.55	495.19
472.92	491.19
473.28	487.69
473.65	484.17
474.02	480.76
474.38	478.90
474.75	476.33
475.11	473.36
475.48	471.43
475.85	469.29
476.21	467.50
476.58	466.07
476.94	464.90
477.31	463.14
477.67	461.43
478.04	460.45
478.41	460.14
478.77	461.33
479.14	460.02
479.50	458.83
479.87	458.69
480.23	458.31
480.60	457.57
480.96	457.21
481.33	458.50
481.69	458.69
482.06	459.00
482.42	459.67
482.79	460.60
483.15	461.48
483.52	463.14
483.88	463.36
484.25	464.17
484.61	465.00
484.98	465.90
485.34	468.43
485.71	470.24
486.07	471.76
486.44	472.02
486.80	474.12
487.17	476.19
487.53	478.83
487.90	481.48
488.26	485.50
488.62	489.10
488.99	491.36
489.35	494.88
489.72	497.86
490.08	501.31
490.44	504.79
490.81	508.50
491.17	512.12
491.54	516.76
491.90	521.19
492.26	525.86
492.63	531.05
492.99	535.36
493.36	540.57
493.72	546.33
494.08	552.10
494.45	558.52
494.81	565.14
495.17	571.05
495.54	577.52
495.90	583.10
496.26	589.55
496.63	596.74
496.99	603.33
497.35	610.74
497.72	618.31
498.08	625.74
498.44	633.50
498.80	641.81
499.17	649.57
499.53	658.00
499.89	666.86
500.26	675.48
500.62	684.33
500.98	693.62
501.34	702.36
501.71	712.12
502.07	721.07
502.43	729.74
502.79	739.31
503.16	748.69
503.52	757.98
503.88	767.10
504.24	776.79
504.60	786.83
504.97	797.64
505.33	807.10
505.69	818.67
506.05	829.21
506.41	839.52
506.78	849.88
507.14	859.95
507.50	870.64
507.86	881.48
508.22	892.50
508.59	902.07
508.95	913.57
509.31	924.71
509.67	935.86
510.03	947.40
510.39	958.19
510.75	968.55
511.12	979.88
511.48	990.93
511.84	1001.81
512.20	1012.67
512.56	1023.29
512.92	1034.76
513.28	1044.93
513.64	1055.95
514.00	1066.24
514.37	1077.81
514.73	1088.88
515.09	1099.86
515.45	1110.69
515.81	1120.71
516.17	1131.52
516.53	1141.40
516.89	1150.10
517.25	1159.69
517.61	1169.60
517.97	1179.19
518.33	1189.93
518.69	1199.81
519.05	1209.74
519.41	1219.29
519.77	1229.67
520.13	1239.05
520.49	1248.29
520.85	1257.33
521.21	1266.57
521.57	1276.64
521.93	1284.83
522.29	1294.52
522.65	1303.12
523.01	1311.83
523.37	1320.76
523.73	1329.40
524.09	1337.71
524.45	1346.36
524.81	1353.98
525.17	1362.26
525.53	1370.31
525.89	1377.86
526.25	1386.14
526.61	1393.86
526.97	1401.43
527.33	1409.00
527.68	1417.60
528.04	1424.57
528.40	1431.93
528.76	1438.83
529.12	1446.00
529.48	1454.14
529.84	1460.31
530.20	1466.98
530.56	1473.38
530.91	1480.02
531.27	1486.79
531.63	1493.50
531.99	1499.29
532.35	1504.83
532.71	1510.93
533.07	1518.33
533.42	1526.69
533.78	1532.17
534.14	1538.79
534.50	1544.24
534.86	1550.60
535.21	1554.52
535.57	1560.93
535.93	1566.29
536.29	1572.60
536.65	1577.55
537.00	1581.50
537.36	1586.00
537.72	1590.40
538.08	1596.17
538.44	1600.12
538.79	1604.88
539.15	1608.40
539.51	1613.21
539.87	1618.71
540.22	1623.48
540.58	1626.79
540.94	1628.38
541.29	1632.62
541.65	1635.57
542.01	1640.24
542.37	1642.29
542.72	1645.45
543.08	1648.17
543.44	1651.88
543.79	1653.33
544.15	1655.83
544.51	1659.55
544.87	1662.74
545.22	1665.57
545.58	1667.02
545.94	1669.67
546.29	1672.07
546.65	1675.29
547.01	1677.57
547.36	1679.60
547.72	1679.74
548.07	1681.57
548.43	1683.45
548.79	1683.52
549.14	1684.71
549.50	1685.24
549.86	1686.38
550.21	1687.40
550.57	1689.83
550.92	1689.33
551.28	1690.62
551.64	1690.86
551.99	1691.83
552.35	1692.07
552.70	1692.12
553.06	1693.00
553.41	1693.31
553.77	1695.10
554.13	1694.86
554.48	1696.69
554.84	1697.33
555.19	1699.93
555.55	1701.48
555.90	1702.43
556.26	1704.48
556.61	1704.40
556.97	1704.38
557.32	1703.95
557.68	1705.00
558.03	1704.10
558.39	1704.21
558.74	1704.74
559.10	1705.71
559.45	1705.88
559.81	1706.02
560.16	1706.81
560.52	1706.43
560.87	1706.98
561.23	1705.14
561.58	1706.33
561.94	1705.50
562.29	1705.24
562.64	1704.14
563.00	1702.38
563.35	1701.52
563.71	1700.69
564.06	1700.76
564.42	1701.38
564.77	1702.55
565.12	1702.17
565.48	1703.38
565.83	1705.12
566.19	1705.21
566.54	1704.79
566.89	1703.71
567.25	1704.62
567.60	1705.55
567.96	1707.40
568.31	1708.05
568.66	1708.31
569.02	1706.38
569.37	1704.40
569.72	1703.24
570.08	1701.67
570.43	1700.71
570.78	1699.69
571.14	1698.52
571.49	1696.83
571.84	1696.21
572.20	1694.24
572.55	1693.12
572.90	1688.95
573.26	1685.67
573.61	1682.90
573.96	1680.57
574.31	1677.88
574.67	1673.93
575.02	1670.19
575.37	1665.57
575.72	1661.31
576.08	1657.83
576.43	1655.29
576.78	1652.43
577.13	1649.12
577.49	1646.12
577.84	1643.60
578.19	1639.67
578.54	1636.98
578.90	1634.67
579.25	1629.64
579.60	1625.48
579.95	1619.79
580.30	1617.02
580.66	1613.10
581.01	1608.64
581.36	1604.12
581.71	1600.02
582.06	1597.17
582.42	1592.76
582.77	1587.71
583.12	1583.38
583.47	1578.98
583.82	1574.14
584.17	1569.69
584.53	1565.81
584.88	1560.21
585.23	1555.29
585.58	1550.57
585.93	1544.52
586.28	1538.81
586.63	1534.38
586.98	1529.88
587.34	1526.52
587.69	1521.38
588.04	1516.55
588.39	1511.12
588.74	1505.55
589.09	1501.40
589.44	1495.14
589.79	1490.19
590.14	1485.31
590.49	1479.52
590.84	1473.90
591.19	1467.71
591.54	1462.50
591.89	1456.95
592.25	1454.26
592.60	1448.67
592.95	1443.24
593.30	1438.05
593.65	1432.21
594.00	1426.12
594.35	1426.21
594.70	1420.40
595.05	1415.12
595.40	1409.00
595.75	1403.57
596.10	1399.26
596.45	1393.24
596.80	1387.17
597.15	1381.52
597.50	1375.24
597.85	1370.52
598.19	1364.64
598.54	1358.90
598.89	1352.88
599.24	1347.40
599.59	1340.07
599.94	1333.64
600.29	1328.79
600.64	1322.86
600.99	1317.81
601.34	1312.60
601.69	1300.60
602.04	1294.31
602.39	1287.33
602.74	1282.00
603.08	1276.38
603.43	1271.74
603.78	1265.81
604.13	1260.62
604.48	1253.81
604.83	1248.43
605.18	1242.74
605.53	1237.33
605.87	1232.07
606.22	1227.05
606.57	1221.21
606.92	1215.24
607.27	1210.36
607.62	1204.19
607.96	1199.43
608.31	1194.38
608.66	1189.07
609.01	1183.57
609.36	1178.71
609.70	1173.67
610.05	1168.40
610.40	1163.64
610.75	1155.74
611.10	1149.81
611.44	1144.10
611.79	1138.88
612.14	1133.76
612.49	1126.88
612.83	1120.33
613.18	1114.62
613.53	1107.55
613.88	1100.95
614.22	1094.67
614.57	1087.95
614.92	1081.48
615.27	1075.14
615.61	1067.74
615.96	1060.86
616.31	1055.55
616.65	1049.24
617.00	1043.45
617.35	1036.95
617.70	1030.71
618.04	1024.93
618.39	1018.21
618.74	1013.38
619.08	1007.17
619.43	1001.14
619.78	995.69
620.12	990.81
620.47	985.67
620.82	980.40
621.16	974.48
621.51	970.26
621.85	964.55
622.20	959.57
622.55	952.90
622.89	948.05
623.24	943.45
623.59	937.31
623.93	932.21
624.28	926.33
624.62	923.88
624.97	919.64
625.32	914.88
625.66	910.52
626.01	904.43
626.35	899.64
626.70	894.69
627.04	890.64
627.39	885.55
627.73	881.38
628.08	877.24
628.43	872.71
628.77	866.81
629.12	862.31
629.46	858.00
629.81	853.88
630.15	848.62
630.50	843.55
630.84	839.10
631.19	834.07
631.53	829.76
631.88	822.07
632.22	815.64
632.57	811.36
632.91	806.29
633.26	801.43
633.60	796.26
633.95	790.50
634.29	784.10
634.64	779.26
634.98	773.40
635.32	768.90
635.67	764.45
636.01	759.69
636.36	754.86
636.70	750.98
637.05	746.24
637.39	742.00
637.73	737.31
638.08	733.31
638.42	728.62
638.77	724.24
639.11	719.64
639.45	715.81
639.80	710.62
640.14	706.57
640.49	702.17
640.83	698.12
641.17	695.02
641.52	691.38
641.86	686.88
642.20	683.40
642.55	678.14
642.89	673.95
643.23	669.86
643.58	666.38
643.92	660.31
644.26	656.50
644.61	652.71
644.95	648.31
645.29	643.64
645.64	640.26
645.98	635.62
646.32	632.57
646.66	627.71
647.01	623.50
647.35	619.45
647.69	615.31
648.04	611.50
648.38	607.29
648.72	603.57
649.06	599.71
649.41	595.17
649.75	591.74
650.09	588.07
650.43	584.69
650.78	580.26
651.12	576.60
651.46	572.69
651.80	568.74
652.14	565.21
652.49	562.45
652.83	557.81
653.17	553.95
653.51	549.79
653.85	546.79
654.20	543.81
654.54	539.95
654.88	536.52
655.22	533.90
655.56	530.55
655.90	527.05
656.25	523.95
656.59	520.71
656.93	517.55
657.27	514.86
657.61	511.05
657.95	508.17
658.29	505.43
658.64	502.81
658.98	499.52
659.32	496.50
659.66	493.24
660.00	490.81
660.34	488.52
660.68	485.57
661.02	482.71
661.36	479.45
661.70	477.05
662.05	474.71
662.39	471.62
662.73	469.67
663.07	468.26
663.41	465.71
663.75	463.14
664.09	460.60
664.43	457.38
664.77	454.93
665.11	452.38
665.45	449.45
665.79	447.17
666.13	444.88
666.47	442.24
666.81	439.45
667.15	436.98
667.49	434.83
667.83	432.90
668.17	430.60
668.51	428.33
668.85	426.31
669.19	425.02
669.53	422.12
669.87	419.21
670.21	416.38
670.55	414.14
670.89	412.71
671.23	410.81
671.57	408.74
671.91	407.21
672.25	404.95
672.58	404.33
672.92	401.60
673.26	399.79
673.60	398.02
673.94	396.26
674.28	394.76
674.62	393.45
674.96	391.40
675.30	389.88
675.64	388.62
675.97	386.90
676.31	384.48
676.65	382.90
676.99	382.12
677.33	380.19
677.67	378.79
678.01	376.12
678.34	374.24
678.68	373.17
679.02	371.24
679.36	369.55
679.70	367.26
680.04	365.98
680.37	364.38
680.71	362.88
681.05	361.64
681.39	359.95
681.73	357.76
682.06	356.31
682.40	354.62
682.74	353.24
683.08	352.38
683.42	350.48
683.75	349.33
684.09	347.10
684.43	345.83
684.77	344.24
685.10	343.14
685.44	341.52
685.78	339.95
686.12	338.76
686.45	337.88
686.79	336.29
687.13	335.00
687.46	333.71
687.80	333.05
688.14	331.14
688.48	330.10
688.81	328.81
689.15	327.57
689.49	326.38
689.82	325.55
690.16	323.57
690.50	322.45
690.83	321.05
691.17	319.33
691.51	318.00
691.84	317.12
692.18	316.26
692.52	315.40
692.85	314.17
693.19	313.71
693.52	312.43
693.86	311.21
694.20	310.26
694.53	309.14
694.87	307.74
695.21	306.74
695.54	305.52
695.88	304.24
696.21	302.69
696.55	301.69
696.88	300.38
697.22	299.29
697.56	298.76
697.89	297.93
698.23	297.98
698.56	296.69
698.90	295.64
699.23	294.40
699.57	293.76
699.90	292.57
700.24	291.31
700.58	290.64
700.91	290.05
701.25	290.74
701.58	290.62
701.92	290.40
702.25	289.79
702.59	288.67
702.92	288.12
703.26	287.90
703.59	286.88
703.93	288.00
704.26	287.38
704.60	286.60
704.93	285.74
705.26	284.38
705.60	284.31
705.93	283.17
706.27	282.83
706.60	282.50
706.94	282.74
707.27	281.57
707.61	280.81
707.94	280.12
708.27	278.07
708.61	276.69
708.94	275.60
709.28	275.00
709.61	274.62
709.94	274.17
710.28	273.43
710.61	273.31
710.95	270.36
711.28	271.24
711.61	270.45
711.95	270.43
712.28	269.60
712.61	268.93
712.95	269.55
713.28	269.93
713.61	268.62
713.95	267.45
714.28	267.17
714.61	266.19
714.95	265.48
715.28	264.48
715.61	263.95
715.95	263.71
716.28	263.05
716.61	262.62
716.95	261.98
717.28	261.55
717.61	260.71
717.94	260.29
718.28	258.33
718.61	257.81
718.94	256.79
719.27	256.31
719.61	256.05
719.94	255.07
720.27	253.36
720.60	252.88
720.94	252.50
721.27	252.07
721.60	252.24
721.93	252.17
722.27	252.40
722.60	252.19
722.93	251.24
723.26	251.12
723.59	250.57
723.93	250.33
724.26	249.93
724.59	249.50
724.92	249.38
725.25	249.62
725.59	249.19
725.92	249.14
726.25	249.02
726.58	248.67
726.91	248.12
727.24	248.24
727.57	247.95
727.91	247.19
728.24	246.93
728.57	246.24
728.90	245.86
729.23	245.00
729.56	245.50
729.89	245.43
730.22	244.81
730.55	244.33
730.89	244.07
731.22	243.64
731.55	243.52
731.88	243.29
732.21	242.31
732.54	241.98
732.87	241.43
733.20	241.19
733.53	240.90
733.86	241.14
734.19	240.52
734.52	240.67
734.85	242.10
735.18	241.67
735.51	242.29
735.84	242.33
736.17	242.76
736.50	241.52
736.83	243.45
737.16	243.36
737.49	243.26
737.82	242.95
738.15	243.29
738.48	242.71
738.81	242.48
739.14	242.10
739.47	241.83
739.80	241.67
740.13	241.69
740.46	241.07
740.79	240.00
741.12	239.74
741.45	239.33
741.78	237.69
742.11	237.95
742.44	237.19
742.77	237.10
743.10	236.57
743.43	236.29
743.75	234.02
744.08	236.50
744.41	236.12
744.74	235.55
745.07	234.69
745.40	234.90
745.73	235.48
746.06	235.55
746.39	235.67
746.71	235.33
747.04	234.69
747.37	234.33
747.70	234.62
748.03	234.36
748.36	234.29
748.68	233.95
749.01	233.24
749.34	233.14
749.67	232.83
750.00	233.05
750.33	234.29
750.65	234.31
750.98	231.50
751.31	231.36
751.64	231.40
751.97	232.62
752.29	232.43
752.62	231.38
752.95	231.29
753.28	230.79
753.60	230.79
753.93	231.19
754.26	231.38
754.59	230.93
754.91	230.62
755.24	230.10
755.57	230.19
755.90	230.07
756.22	229.45
756.55	228.98
756.88	228.31
757.20	226.86
757.53	226.02
757.86	225.90
758.19	226.00
758.51	226.07
758.84	224.74
759.17	224.33
759.49	224.21
759.82	224.95
760.15	225.10
760.47	224.69
760.80	223.90
761.13	223.98
761.45	223.81
761.78	223.81
762.11	223.98
762.43	223.81
762.76	223.57
763.08	223.98
763.41	224.00
763.74	223.90
764.06	223.79
764.39	223.90
764.71	223.76
765.04	223.33
765.37	222.90
765.69	222.83
766.02	222.55
766.34	222.50
766.67	221.62
767.00	221.57
767.32	222.86
767.65	224.19
767.97	223.88
768.30	223.88
768.62	223.76
768.95	223.29
769.27	223.12
769.60	223.48
769.92	222.86
770.25	222.38
770.57	222.17
770.90	221.93
771.22	221.83
771.55	221.79
771.87	222.07
772.20	222.10
772.52	223.62
772.85	226.17
773.17	226.05
773.50	225.83
773.82	225.62
774.15	224.29
774.47	222.95
774.80	222.76
775.12	222.62
775.45	222.45
775.77	222.76
776.09	222.88
776.42	222.79
776.74	223.52
777.07	223.50
777.39	223.60
777.72	223.57
778.04	223.74
778.36	223.43
778.69	223.10
779.01	223.00
779.33	221.05
779.66	218.86
779.98	218.55
780.31	218.52
780.63	219.36
780.95	219.83
781.28	219.64
781.60	219.69
781.92	219.60
782.25	219.86
782.57	219.83
782.89	219.69
783.22	219.71
783.54	219.00
783.86	218.90
784.19	218.69
784.51	219.38
784.83	218.95
785.16	219.02
785.48	219.29
785.80	219.36
786.12	219.67
786.45	219.26
786.77	219.48
