SpectraSuite Data File
++++++++++++++++++++++++++++++++++++
Date: Tue Apr 02 18:41:28 EDT 2013
User: group
Dark Spectrum Present: No
Reference Spectrum Present: No
Number of Sampled Component Spectra: 1
Spectrometers: USB2E7196
Integration Time (usec): 580000 (USB2E7196)
Spectra Averaged: 2 (USB2E7196)
Boxcar Smoothing: 10 (USB2E7196)
Correct for Electrical Dark: No (USB2E7196)
Strobe/Lamp Enabled: No (USB2E7196)
Correct for Detector Non-linearity: No (USB2E7196)
Correct for Stray Light: No (USB2E7196)
Number of Pixels in Processed Spectrum: 2048
>>>>>Begin Processed Spectral Data<<<<<
339.09	0.00
339.48	193.00
339.86	192.00
340.24	190.50
340.63	195.00
341.01	228.00
341.39	202.00
341.78	203.50
342.16	209.50
342.54	203.50
342.93	196.86
343.31	206.64
343.69	207.29
344.07	208.02
344.46	209.05
344.84	209.81
345.22	208.90
345.60	209.38
345.99	209.71
346.37	209.64
346.75	209.81
347.13	210.07
347.52	210.26
347.90	210.83
348.28	210.69
348.66	211.14
349.05	210.76
349.43	211.40
349.81	211.52
350.19	211.71
350.57	212.05
350.96	212.19
351.34	212.62
351.72	212.83
352.10	212.79
352.48	212.64
352.87	212.55
353.25	212.52
353.63	212.40
354.01	212.31
354.39	212.64
354.77	212.98
355.15	213.43
355.54	213.14
355.92	212.71
356.30	212.83
356.68	214.12
357.06	214.26
357.44	213.90
357.82	213.88
358.20	214.64
358.58	214.57
358.97	214.67
359.35	214.95
359.73	215.48
360.11	215.88
360.49	215.88
360.87	215.98
361.25	216.05
361.63	216.86
362.01	217.12
362.39	217.00
362.77	217.17
363.15	216.81
363.53	216.98
363.91	217.17
364.29	217.26
364.67	215.55
365.05	215.43
365.43	215.52
365.81	215.76
366.19	215.95
366.57	216.76
366.95	216.88
367.33	216.60
367.71	216.36
368.09	216.52
368.47	216.90
368.85	216.83
369.23	217.45
369.61	216.57
369.99	217.19
370.37	217.48
370.75	218.05
371.13	217.95
371.51	217.76
371.89	217.95
372.27	217.93
372.65	217.95
373.03	218.29
373.41	218.31
373.78	218.05
374.16	216.90
374.54	216.10
374.92	215.64
375.30	215.52
375.68	215.29
376.06	215.29
376.44	214.90
376.82	215.14
377.19	214.98
377.57	214.86
377.95	213.98
378.33	213.74
378.71	212.71
379.09	212.93
379.47	213.00
379.84	212.69
380.22	212.55
380.60	212.29
380.98	211.64
381.36	211.50
381.73	211.36
382.11	212.07
382.49	212.24
382.87	212.26
383.25	212.19
383.62	214.60
384.00	214.24
384.38	214.57
384.76	214.90
385.13	215.69
385.51	215.81
385.89	215.69
386.27	215.74
386.64	216.05
387.02	216.02
387.40	215.88
387.78	216.10
388.15	216.12
388.53	216.02
388.91	216.31
389.29	216.17
389.66	216.57
390.04	216.07
390.42	216.40
390.79	216.50
391.17	216.48
391.55	214.17
391.92	214.33
392.30	214.21
392.68	213.79
393.05	213.60
393.43	213.79
393.81	214.19
394.18	213.93
394.56	214.02
394.94	214.24
395.31	214.24
395.69	214.71
396.06	215.10
396.44	215.24
396.82	214.93
397.19	215.98
397.57	215.74
397.95	215.95
398.32	215.24
398.70	215.40
399.07	216.17
399.45	216.31
399.82	216.38
400.20	216.31
400.58	216.31
400.95	215.36
401.33	215.98
401.70	217.48
402.08	217.48
402.45	217.55
402.83	218.12
403.20	218.40
403.58	218.19
403.95	218.57
404.33	219.00
404.71	219.67
405.08	220.90
405.46	221.19
405.83	221.67
406.21	222.17
406.58	222.71
406.96	222.64
407.33	222.93
407.70	223.24
408.08	225.17
408.45	226.02
408.83	227.40
409.20	227.67
409.58	227.10
409.95	228.52
410.33	229.43
410.70	229.67
411.08	230.86
411.45	232.10
411.82	233.02
412.20	234.62
412.57	237.36
412.95	236.86
413.32	238.69
413.69	240.02
414.07	241.74
414.44	243.62
414.82	245.86
415.19	248.33
415.56	250.98
415.94	252.43
416.31	255.19
416.68	257.98
417.06	261.48
417.43	265.00
417.81	268.57
418.18	272.14
418.55	276.31
418.93	280.12
419.30	284.33
419.67	288.81
420.04	293.21
420.42	297.14
420.79	304.71
421.16	310.86
421.54	318.02
421.91	324.24
422.28	330.64
422.66	337.48
423.03	345.40
423.40	352.33
423.77	359.86
424.15	367.48
424.52	375.45
424.89	383.83
425.26	391.83
425.64	399.57
426.01	408.69
426.38	417.62
426.75	427.81
427.13	437.07
427.50	446.88
427.87	457.45
428.24	467.52
428.61	475.83
428.99	486.95
429.36	498.02
429.73	510.10
430.10	521.76
430.47	533.67
430.85	544.67
431.22	557.74
431.59	572.40
431.96	585.74
432.33	600.17
432.70	614.36
433.08	630.48
433.45	645.98
433.82	661.64
434.19	679.19
434.56	696.24
434.93	712.24
435.30	728.79
435.68	746.26
436.05	764.00
436.42	781.52
436.79	797.29
437.16	814.83
437.53	832.71
437.90	850.43
438.27	868.74
438.64	887.36
439.01	904.67
439.38	918.60
439.75	933.55
440.13	951.10
440.50	967.19
440.87	980.79
441.24	994.45
441.61	1009.36
441.98	1020.62
442.35	1033.33
442.72	1046.98
443.09	1061.05
443.46	1069.19
443.83	1074.83
444.20	1080.24
444.57	1087.07
444.94	1090.79
445.31	1094.40
445.68	1100.86
446.05	1102.40
446.42	1101.45
446.79	1100.64
447.16	1098.93
447.53	1097.45
447.90	1090.26
448.27	1084.17
448.64	1075.50
449.01	1069.29
449.37	1057.86
449.74	1047.21
450.11	1035.12
450.48	1020.05
450.85	1003.07
451.22	990.29
451.59	977.74
451.96	965.48
452.33	949.48
452.70	934.00
453.07	916.67
453.43	896.17
453.80	879.02
454.17	862.36
454.54	846.40
454.91	830.17
455.28	813.57
455.65	798.69
456.02	786.48
456.38	773.50
456.75	757.57
457.12	743.29
457.49	729.31
457.86	714.62
458.23	704.21
458.59	692.64
458.96	680.67
459.33	669.60
459.70	659.10
460.07	650.83
460.43	641.29
460.80	632.43
461.17	625.29
461.54	616.36
461.91	608.36
462.27	599.55
462.64	592.29
463.01	584.83
463.38	578.02
463.74	566.90
464.11	559.45
464.48	553.60
464.85	547.17
465.21	542.43
465.58	537.45
465.95	530.64
466.32	525.36
466.68	519.55
467.05	514.71
467.42	509.36
467.78	503.29
468.15	498.31
468.52	494.55
468.88	488.43
469.25	483.86
469.62	480.52
469.98	476.55
470.35	472.86
470.72	469.57
471.08	464.50
471.45	461.88
471.82	459.50
472.18	456.07
472.55	453.79
472.92	449.90
473.28	446.76
473.65	443.81
474.02	441.12
474.38	439.07
474.75	437.12
475.11	434.83
475.48	433.38
475.85	431.83
476.21	429.76
476.58	428.60
476.94	427.86
477.31	426.29
477.67	424.69
478.04	423.67
478.41	422.67
478.77	424.33
479.14	422.90
479.50	422.00
479.87	421.60
480.23	421.57
480.60	421.19
480.96	420.95
481.33	421.98
481.69	422.17
482.06	422.57
482.42	422.74
482.79	422.60
483.15	422.83
483.52	423.36
483.88	423.90
484.25	424.60
484.61	425.31
484.98	425.83
485.34	428.07
485.71	430.02
486.07	431.36
486.44	430.57
486.80	432.36
487.17	433.69
487.53	435.95
487.90	438.05
488.26	441.29
488.62	443.95
488.99	445.74
489.35	447.93
489.72	450.57
490.08	453.38
490.44	456.60
490.81	459.83
491.17	462.48
491.54	465.98
491.90	469.76
492.26	473.07
492.63	476.86
492.99	480.14
493.36	483.81
493.72	488.14
494.08	493.10
494.45	498.26
494.81	503.52
495.17	508.12
495.54	513.40
495.90	517.95
496.26	523.02
496.63	528.40
496.99	534.26
497.35	539.74
497.72	546.02
498.08	551.83
498.44	558.21
498.80	565.50
499.17	571.64
499.53	578.00
499.89	584.81
500.26	591.74
500.62	599.00
500.98	606.31
501.34	613.55
501.71	620.64
502.07	627.48
502.43	634.67
502.79	641.93
503.16	648.60
503.52	656.19
503.88	663.40
504.24	670.69
504.60	678.36
504.97	686.43
505.33	693.55
505.69	702.36
506.05	709.93
506.41	717.67
506.78	725.55
507.14	733.26
507.50	741.43
507.86	749.81
508.22	757.07
508.59	764.29
508.95	772.62
509.31	782.29
509.67	790.07
510.03	797.71
510.39	805.55
510.75	813.81
511.12	821.69
511.48	830.31
511.84	838.81
512.20	846.76
512.56	854.74
512.92	863.55
513.28	871.48
513.64	879.43
514.00	886.38
514.37	894.43
514.73	901.81
515.09	909.48
515.45	916.31
515.81	923.93
516.17	932.02
516.53	938.69
516.89	943.90
517.25	950.60
517.61	957.88
517.97	964.52
518.33	971.07
518.69	977.40
519.05	984.07
519.41	990.95
519.77	998.86
520.13	1005.12
520.49	1010.71
520.85	1016.21
521.21	1022.71
521.57	1029.60
521.93	1035.02
522.29	1041.02
522.65	1046.83
523.01	1052.55
523.37	1057.67
523.73	1063.33
524.09	1068.74
524.45	1073.76
524.81	1078.86
525.17	1084.52
525.53	1090.07
525.89	1094.95
526.25	1100.90
526.61	1105.36
526.97	1108.86
527.33	1112.74
527.68	1118.71
528.04	1123.64
528.40	1127.79
528.76	1132.00
529.12	1135.76
529.48	1141.10
529.84	1145.95
530.20	1150.71
530.56	1155.43
530.91	1160.40
531.27	1164.10
531.63	1169.43
531.99	1173.81
532.35	1178.31
532.71	1181.69
533.07	1187.26
533.42	1194.00
533.78	1197.83
534.14	1202.88
534.50	1207.50
534.86	1212.60
535.21	1215.07
535.57	1219.24
535.93	1222.95
536.29	1227.81
536.65	1232.76
537.00	1236.00
537.36	1239.98
537.72	1243.67
538.08	1247.98
538.44	1250.86
538.79	1254.62
539.15	1257.31
539.51	1261.62
539.87	1265.95
540.22	1270.31
540.58	1272.79
540.94	1274.60
541.29	1278.17
541.65	1280.55
542.01	1284.76
542.37	1286.88
542.72	1289.10
543.08	1291.07
543.44	1295.29
543.79	1297.17
544.15	1300.21
544.51	1303.88
544.87	1307.21
545.22	1310.14
545.58	1313.19
545.94	1316.95
546.29	1320.40
546.65	1323.71
547.01	1326.38
547.36	1329.48
547.72	1332.29
548.07	1335.86
548.43	1338.50
548.79	1341.33
549.14	1344.00
549.50	1347.55
549.86	1350.19
550.21	1354.40
550.57	1358.31
550.92	1361.38
551.28	1365.07
551.64	1368.31
551.99	1372.07
552.35	1375.14
552.70	1378.74
553.06	1382.36
553.41	1386.57
553.77	1391.48
554.13	1395.79
554.48	1400.36
554.84	1405.43
555.19	1409.79
555.55	1415.19
555.90	1419.21
556.26	1423.21
556.61	1428.31
556.97	1430.93
557.32	1436.10
557.68	1441.69
558.03	1446.26
558.39	1451.02
558.74	1455.00
559.10	1459.36
559.45	1463.02
559.81	1468.29
560.16	1472.55
560.52	1477.24
560.87	1482.43
561.23	1485.88
561.58	1491.40
561.94	1495.50
562.29	1499.36
562.64	1504.05
563.00	1507.38
563.35	1512.69
563.71	1517.74
564.06	1523.31
564.42	1528.98
564.77	1534.52
565.12	1539.33
565.48	1546.64
565.83	1551.90
566.19	1558.33
566.54	1563.43
566.89	1569.10
567.25	1574.40
567.60	1581.07
567.96	1588.07
568.31	1594.07
568.66	1600.10
569.02	1604.83
569.37	1610.12
569.72	1615.36
570.08	1620.93
570.43	1625.71
570.78	1631.07
571.14	1636.93
571.49	1641.50
571.84	1646.50
572.20	1650.83
572.55	1655.86
572.90	1658.76
573.26	1662.62
573.61	1666.19
573.96	1671.43
574.31	1675.71
574.67	1679.76
575.02	1683.29
575.37	1685.21
575.72	1688.02
576.08	1691.33
576.43	1693.17
576.78	1696.24
577.13	1699.12
577.49	1701.36
577.84	1705.98
578.19	1709.60
578.54	1713.48
578.90	1716.79
579.25	1720.43
579.60	1722.60
579.95	1724.50
580.30	1728.52
580.66	1731.95
581.01	1735.67
581.36	1737.64
581.71	1740.86
582.06	1744.60
582.42	1747.71
582.77	1749.98
583.12	1752.12
583.47	1755.12
583.82	1758.67
584.17	1761.79
584.53	1764.67
584.88	1767.05
585.23	1768.48
585.58	1769.98
585.93	1771.05
586.28	1772.79
586.63	1775.21
586.98	1778.24
587.34	1781.83
587.69	1782.29
588.04	1783.98
588.39	1785.40
588.74	1785.64
589.09	1787.24
589.44	1787.02
589.79	1787.07
590.14	1788.67
590.49	1789.55
590.84	1789.31
591.19	1790.69
591.54	1791.93
591.89	1792.48
592.25	1795.50
592.60	1795.83
592.95	1796.88
593.30	1798.36
593.65	1798.93
594.00	1797.07
594.35	1802.55
594.70	1800.40
595.05	1801.05
595.40	1800.60
595.75	1800.24
596.10	1802.17
596.45	1801.71
596.80	1802.17
597.15	1802.64
597.50	1803.26
597.85	1803.76
598.19	1803.48
598.54	1803.05
598.89	1802.64
599.24	1802.88
599.59	1800.98
599.94	1800.48
600.29	1800.29
600.64	1798.88
600.99	1798.33
601.34	1799.86
601.69	1793.81
602.04	1793.00
602.39	1791.45
602.74	1792.07
603.08	1791.45
603.43	1791.31
603.78	1790.79
604.13	1789.31
604.48	1787.33
604.83	1785.71
605.18	1784.43
605.53	1783.36
605.87	1781.45
606.22	1780.10
606.57	1778.38
606.92	1775.55
607.27	1773.50
607.62	1771.43
607.96	1769.38
608.31	1767.21
608.66	1765.36
609.01	1762.88
609.36	1762.45
609.70	1760.31
610.05	1756.38
610.40	1753.45
610.75	1749.40
611.10	1746.36
611.44	1743.02
611.79	1740.26
612.14	1736.71
612.49	1732.48
612.83	1729.55
613.18	1726.05
613.53	1722.02
613.88	1717.74
614.22	1714.36
614.57	1710.17
614.92	1705.50
615.27	1701.60
615.61	1695.93
615.96	1690.55
616.31	1685.98
616.65	1681.36
617.00	1677.31
617.35	1674.12
617.70	1669.48
618.04	1664.26
618.39	1659.45
618.74	1655.57
619.08	1650.67
619.43	1646.93
619.78	1642.17
620.12	1637.36
620.47	1633.02
620.82	1627.74
621.16	1622.45
621.51	1618.86
621.85	1613.45
622.20	1608.05
622.55	1602.26
622.89	1599.74
623.24	1595.83
623.59	1590.95
623.93	1586.14
624.28	1581.43
624.62	1578.14
624.97	1575.38
625.32	1571.57
625.66	1566.40
626.01	1561.45
626.35	1557.05
626.70	1551.48
627.04	1548.93
627.39	1544.36
627.73	1540.52
628.08	1537.50
628.43	1533.98
628.77	1529.62
629.12	1526.14
629.46	1522.79
629.81	1518.76
630.15	1512.45
630.50	1506.76
630.84	1501.67
631.19	1495.95
631.53	1490.55
631.88	1481.88
632.22	1474.17
632.57	1468.55
632.91	1463.02
633.26	1457.79
633.60	1452.10
633.95	1446.31
634.29	1439.74
634.64	1434.55
634.98	1427.67
635.32	1421.95
635.67	1416.88
636.01	1411.40
636.36	1405.67
636.70	1399.81
637.05	1394.90
637.39	1389.98
637.73	1385.19
638.08	1381.10
638.42	1375.71
638.77	1370.71
639.11	1366.17
639.45	1360.62
639.80	1354.60
640.14	1348.88
640.49	1342.69
640.83	1336.43
641.17	1331.05
641.52	1325.40
641.86	1319.83
642.20	1315.07
642.55	1308.48
642.89	1301.40
643.23	1293.98
643.58	1288.55
643.92	1281.40
644.26	1274.69
644.61	1268.71
644.95	1261.33
645.29	1253.43
645.64	1247.36
645.98	1240.74
646.32	1235.07
646.66	1228.62
647.01	1221.90
647.35	1215.86
647.69	1209.60
648.04	1204.52
648.38	1197.76
648.72	1191.07
649.06	1183.71
649.41	1176.19
649.75	1168.83
650.09	1162.31
650.43	1155.33
650.78	1148.05
651.12	1142.29
651.46	1135.69
651.80	1128.33
652.14	1122.45
652.49	1116.62
652.83	1109.38
653.17	1102.48
653.51	1094.69
653.85	1088.76
654.20	1082.40
654.54	1075.57
654.88	1069.10
655.22	1063.21
655.56	1056.90
655.90	1049.95
656.25	1043.07
656.59	1036.67
656.93	1030.69
657.27	1025.14
657.61	1019.45
657.95	1013.45
658.29	1006.69
658.64	1000.74
658.98	994.60
659.32	987.40
659.66	980.52
660.00	974.67
660.34	967.98
660.68	961.98
661.02	955.26
661.36	949.83
661.70	943.79
662.05	937.60
662.39	930.95
662.73	925.52
663.07	921.05
663.41	915.52
663.75	909.40
664.09	903.38
664.43	896.52
664.77	890.07
665.11	883.71
665.45	878.19
665.79	872.43
666.13	866.60
666.47	861.17
666.81	856.14
667.15	850.19
667.49	845.60
667.83	841.05
668.17	836.07
668.51	830.05
668.85	824.95
669.19	820.64
669.53	814.62
669.87	808.33
670.21	801.38
670.55	795.86
670.89	791.76
671.23	786.95
671.57	781.98
671.91	777.50
672.25	772.38
672.58	767.93
672.92	761.95
673.26	757.60
673.60	752.81
673.94	747.60
674.28	743.21
674.62	738.36
674.96	733.43
675.30	728.43
675.64	723.95
675.97	719.12
676.31	713.24
676.65	708.33
676.99	704.88
677.33	700.57
677.67	696.55
678.01	690.95
678.34	686.38
678.68	681.88
679.02	677.02
679.36	672.62
679.70	667.81
680.04	663.55
680.37	658.69
680.71	654.40
681.05	650.21
681.39	645.81
681.73	641.05
682.06	636.19
682.40	631.64
682.74	627.57
683.08	623.62
683.42	619.24
683.75	615.26
684.09	610.17
684.43	605.81
684.77	600.88
685.10	597.07
685.44	592.29
685.78	588.24
686.12	584.38
686.45	580.14
686.79	575.52
687.13	571.76
687.46	567.43
687.80	564.05
688.14	559.57
688.48	555.79
688.81	551.81
689.15	548.71
689.49	544.76
689.82	540.83
690.16	536.36
690.50	532.69
690.83	528.71
691.17	524.48
691.51	520.64
691.84	517.79
692.18	513.76
692.52	510.55
692.85	507.36
693.19	504.31
693.52	500.50
693.86	497.07
694.20	493.19
694.53	489.95
694.87	485.81
695.21	482.31
695.54	478.38
695.88	474.93
696.21	470.48
696.55	467.45
696.88	464.26
697.22	461.19
697.56	458.31
697.89	455.17
698.23	452.81
698.56	449.90
698.90	446.52
699.23	443.26
699.57	440.43
699.90	437.07
700.24	433.60
700.58	430.98
700.91	428.52
701.25	427.67
701.58	425.60
701.92	423.60
702.25	421.33
702.59	418.86
702.92	416.14
703.26	414.02
703.59	411.76
703.93	410.81
704.26	408.93
704.60	406.52
704.93	403.88
705.26	400.83
705.60	399.00
705.93	396.26
706.27	394.86
706.60	392.88
706.94	391.33
707.27	388.71
707.61	386.79
707.94	384.10
708.27	380.24
708.61	377.64
708.94	375.24
709.28	373.12
709.61	370.93
709.94	369.21
710.28	367.29
710.61	365.17
710.95	361.21
711.28	360.12
711.61	358.29
711.95	357.48
712.28	356.02
712.61	353.88
712.95	353.60
713.28	352.57
713.61	350.48
713.95	348.21
714.28	347.05
714.61	345.14
714.95	343.90
715.28	342.21
715.61	340.40
715.95	338.88
716.28	337.21
716.61	335.93
716.95	334.17
717.28	332.29
717.61	330.64
717.94	329.26
718.28	326.43
718.61	324.74
718.94	322.50
719.27	321.00
719.61	319.62
719.94	317.50
720.27	315.07
720.60	313.64
720.94	312.38
721.27	311.17
721.60	310.36
721.93	308.86
722.27	308.24
722.60	307.36
722.93	305.76
723.26	304.93
723.59	303.81
723.93	302.81
724.26	302.21
724.59	301.21
724.92	300.64
725.25	300.26
725.59	299.36
725.92	298.81
726.25	297.95
726.58	296.71
726.91	295.67
727.24	295.29
727.57	294.21
727.91	293.00
728.24	292.31
728.57	291.24
728.90	290.69
729.23	289.19
729.56	289.17
729.89	288.71
730.22	287.62
730.55	286.50
730.89	285.71
731.22	284.50
731.55	283.62
731.88	282.48
732.21	281.31
732.54	280.33
732.87	279.45
733.20	278.69
733.53	278.10
733.86	277.33
734.19	275.98
734.52	275.64
734.85	276.24
735.18	275.17
735.51	275.12
735.84	274.45
736.17	274.50
736.50	272.86
736.83	274.10
737.16	273.26
737.49	272.76
737.82	272.19
738.15	272.02
738.48	271.29
738.81	270.64
739.14	269.81
739.47	269.02
739.80	268.21
740.13	267.74
740.46	267.00
740.79	265.93
741.12	265.21
741.45	264.38
741.78	262.79
742.11	262.90
742.44	261.67
742.77	261.40
743.10	260.26
743.43	259.50
743.75	257.05
744.08	259.36
744.41	258.74
744.74	257.81
745.07	256.81
745.40	256.90
745.73	257.19
746.06	256.57
746.39	256.26
746.71	255.76
747.04	255.29
747.37	254.76
747.70	254.93
748.03	254.64
748.36	254.55
748.68	253.95
749.01	252.76
749.34	252.00
749.67	251.36
750.00	251.14
750.33	252.50
750.65	252.62
750.98	249.45
751.31	249.17
751.64	248.93
751.97	249.50
752.29	248.79
752.62	247.74
752.95	247.31
753.28	246.83
753.60	246.50
753.93	246.67
754.26	246.55
754.59	245.55
754.91	245.17
755.24	244.12
755.57	243.71
755.90	243.52
756.22	243.33
756.55	242.69
756.88	241.90
757.20	239.95
757.53	238.64
757.86	238.33
758.19	237.98
758.51	237.69
758.84	236.31
759.17	235.83
759.49	235.50
759.82	236.45
760.15	236.17
760.47	235.76
760.80	234.33
761.13	234.48
761.45	234.36
761.78	233.86
762.11	233.86
762.43	233.55
762.76	233.02
763.08	233.19
763.41	232.98
763.74	233.12
764.06	232.83
764.39	232.83
764.71	232.60
765.04	232.33
765.37	231.71
765.69	231.76
766.02	231.40
766.34	230.95
766.67	229.79
767.00	230.14
767.32	231.00
767.65	232.10
767.97	231.40
768.30	231.31
768.62	231.19
768.95	230.95
769.27	230.71
769.60	231.00
769.92	230.48
770.25	230.10
770.57	229.67
770.90	229.45
771.22	228.81
771.55	228.76
771.87	228.60
772.20	228.50
772.52	230.19
772.85	232.57
773.17	232.52
773.50	232.26
773.82	231.69
774.15	230.74
774.47	229.57
774.80	229.33
775.12	228.86
775.45	228.64
775.77	228.50
776.09	228.64
776.42	228.17
776.74	228.57
777.07	228.50
777.39	228.17
777.72	228.05
778.04	228.40
778.36	228.00
778.69	227.83
779.01	227.98
779.33	225.88
779.66	223.45
779.98	223.31
780.31	223.19
780.63	224.07
780.95	224.10
781.28	223.98
781.60	223.60
781.92	223.79
782.25	223.76
782.57	223.71
782.89	223.21
783.22	223.05
783.54	222.43
783.86	222.26
784.19	222.12
784.51	222.62
784.83	222.19
785.16	222.14
