SpectraSuite Data File
++++++++++++++++++++++++++++++++++++
Date: Tue Apr 02 18:40:19 EDT 2013
User: group
Dark Spectrum Present: No
Reference Spectrum Present: No
Number of Sampled Component Spectra: 1
Spectrometers: USB2E7196
Integration Time (usec): 580000 (USB2E7196)
Spectra Averaged: 2 (USB2E7196)
Boxcar Smoothing: 10 (USB2E7196)
Correct for Electrical Dark: No (USB2E7196)
Strobe/Lamp Enabled: No (USB2E7196)
Correct for Detector Non-linearity: No (USB2E7196)
Correct for Stray Light: No (USB2E7196)
Number of Pixels in Processed Spectrum: 2048
>>>>>Begin Processed Spectral Data<<<<<
339.09	0.00
339.48	197.00
339.86	196.00
340.24	200.50
340.63	199.00
341.01	234.50
341.39	203.50
341.78	212.50
342.16	209.50
342.54	207.00
342.93	199.14
343.31	208.93
343.69	209.38
344.07	209.86
344.46	210.52
344.84	211.24
345.22	209.98
345.60	210.40
345.99	210.17
346.37	210.00
346.75	210.00
347.13	209.98
347.52	209.90
347.90	210.60
348.28	210.55
348.66	210.88
349.05	210.45
349.43	210.57
349.81	210.90
350.19	210.95
350.57	210.79
350.96	210.90
351.34	211.19
351.72	211.26
352.10	211.29
352.48	210.83
352.87	210.62
353.25	210.55
353.63	210.02
354.01	210.17
354.39	210.38
354.77	210.50
355.15	211.05
355.54	210.93
355.92	210.12
356.30	210.02
356.68	211.17
357.06	211.38
357.44	211.00
357.82	210.76
358.20	211.60
358.58	211.67
358.97	211.83
359.35	211.93
359.73	212.40
360.11	212.24
360.49	212.45
360.87	212.31
361.25	212.52
361.63	213.64
362.01	213.83
362.39	213.48
362.77	213.52
363.15	213.29
363.53	213.26
363.91	213.52
364.29	213.48
364.67	211.69
365.05	211.64
365.43	211.93
365.81	212.10
366.19	212.19
366.57	212.88
366.95	212.86
367.33	212.69
367.71	212.55
368.09	213.02
368.47	213.10
368.85	213.21
369.23	213.69
369.61	212.93
369.99	213.43
370.37	214.02
370.75	215.12
371.13	214.81
371.51	214.60
371.89	214.86
372.27	215.31
372.65	215.40
373.03	215.52
373.41	215.45
373.78	215.64
374.16	214.45
374.54	213.60
374.92	213.31
375.30	213.36
375.68	213.12
376.06	213.45
376.44	213.31
376.82	213.50
377.19	213.38
377.57	213.21
377.95	212.57
378.33	212.52
378.71	211.33
379.09	211.69
379.47	212.12
379.84	211.79
380.22	211.31
380.60	211.21
380.98	210.98
381.36	210.98
381.73	210.71
382.11	211.14
382.49	211.62
382.87	211.50
383.25	211.50
383.62	213.79
384.00	213.14
384.38	213.12
384.76	213.74
385.13	214.67
385.51	214.95
385.89	214.95
386.27	214.79
386.64	215.21
387.02	214.95
387.40	214.69
387.78	215.00
388.15	215.33
388.53	215.17
388.91	215.43
389.29	215.38
389.66	215.67
390.04	215.60
390.42	215.90
390.79	216.19
391.17	216.12
391.55	213.76
391.92	214.10
392.30	214.36
392.68	213.55
393.05	213.17
393.43	213.07
393.81	213.19
394.18	213.05
394.56	213.00
394.94	213.67
395.31	213.52
395.69	214.19
396.06	214.40
396.44	214.83
396.82	214.64
397.19	215.57
397.57	215.40
397.95	215.93
398.32	215.31
398.70	215.38
399.07	215.98
399.45	216.14
399.82	216.07
400.20	216.00
400.58	216.43
400.95	215.74
401.33	216.26
401.70	217.83
402.08	217.98
402.45	218.05
402.83	218.29
403.20	218.55
403.58	218.12
403.95	218.81
404.33	219.17
404.71	219.60
405.08	220.90
405.46	221.36
405.83	221.60
406.21	222.14
406.58	222.60
406.96	222.98
407.33	223.55
407.70	224.19
408.08	226.48
408.45	227.17
408.83	228.19
409.20	228.62
409.58	227.93
409.95	229.21
410.33	230.10
410.70	230.33
411.08	231.48
411.45	232.76
411.82	233.31
412.20	235.00
412.57	237.36
412.95	237.05
413.32	238.83
413.69	240.31
414.07	241.90
414.44	244.12
414.82	246.00
415.19	248.60
415.56	250.95
415.94	252.55
416.31	255.43
416.68	258.50
417.06	262.14
417.43	266.00
417.81	269.38
418.18	273.29
418.55	277.67
418.93	282.07
419.30	286.50
419.67	291.38
420.04	295.83
420.42	300.71
420.79	308.36
421.16	314.33
421.54	321.69
421.91	328.43
422.28	334.86
422.66	342.33
423.03	350.88
423.40	358.31
423.77	365.57
424.15	373.24
424.52	381.31
424.89	390.29
425.26	398.43
425.64	406.93
426.01	415.76
426.38	425.00
426.75	435.26
427.13	445.29
427.50	455.57
427.87	466.57
428.24	476.83
428.61	485.67
428.99	497.48
429.36	508.90
429.73	520.83
430.10	533.05
430.47	544.93
430.85	556.17
431.22	569.64
431.59	585.02
431.96	598.69
432.33	613.07
432.70	627.67
433.08	644.71
433.45	661.33
433.82	678.02
434.19	696.64
434.56	714.17
434.93	731.02
435.30	748.40
435.68	767.14
436.05	785.48
436.42	803.71
436.79	820.81
437.16	839.07
437.53	858.31
437.90	878.10
438.27	897.55
438.64	916.88
439.01	935.64
439.38	950.79
439.75	967.05
440.13	986.38
440.50	1003.12
440.87	1017.19
441.24	1030.67
441.61	1046.36
441.98	1058.05
442.35	1071.00
442.72	1084.71
443.09	1098.67
443.46	1106.40
443.83	1112.69
444.20	1117.71
444.57	1124.00
444.94	1126.86
445.31	1130.21
445.68	1135.52
446.05	1136.50
446.42	1134.55
446.79	1132.62
447.16	1131.05
447.53	1129.26
447.90	1121.48
448.27	1114.45
448.64	1104.98
449.01	1098.88
449.37	1086.69
449.74	1074.29
450.11	1061.98
450.48	1045.64
450.85	1028.50
451.22	1015.57
451.59	1002.48
451.96	990.81
452.33	974.14
452.70	959.48
453.07	941.40
453.43	920.48
453.80	903.52
454.17	887.29
454.54	870.74
454.91	852.48
455.28	835.57
455.65	819.69
456.02	807.60
456.38	793.98
456.75	777.19
457.12	763.12
457.49	749.60
457.86	734.38
458.23	724.17
458.59	711.40
458.96	698.36
459.33	686.98
459.70	674.69
460.07	665.69
460.43	655.64
460.80	646.40
461.17	638.00
461.54	628.71
461.91	620.02
462.27	611.05
462.64	604.00
463.01	595.86
463.38	588.86
463.74	577.52
464.11	570.17
464.48	564.38
464.85	557.45
465.21	552.79
465.58	547.38
465.95	540.48
466.32	535.43
466.68	529.86
467.05	524.45
467.42	519.60
467.78	514.31
468.15	508.67
468.52	504.93
468.88	499.38
469.25	494.50
469.62	490.93
469.98	487.00
470.35	483.69
470.72	479.90
471.08	475.14
471.45	472.05
471.82	469.62
472.18	465.40
472.55	462.98
472.92	458.98
473.28	455.93
473.65	452.90
474.02	450.38
474.38	447.74
474.75	445.50
475.11	442.74
475.48	440.83
475.85	439.00
476.21	436.67
476.58	435.50
476.94	434.19
477.31	432.36
477.67	431.29
478.04	430.31
478.41	429.52
478.77	430.90
479.14	430.21
479.50	429.57
479.87	429.62
480.23	428.81
480.60	428.62
480.96	428.74
481.33	429.29
481.69	428.83
482.06	429.29
482.42	430.00
482.79	430.60
483.15	430.69
483.52	432.05
483.88	433.10
484.25	433.24
484.61	434.26
484.98	435.48
485.34	437.29
485.71	438.40
486.07	439.79
486.44	439.24
486.80	440.43
487.17	441.98
487.53	444.48
487.90	447.10
488.26	449.57
488.62	452.26
488.99	454.62
489.35	458.07
489.72	460.60
490.08	462.81
490.44	465.55
490.81	468.74
491.17	471.50
491.54	474.95
491.90	479.60
492.26	483.38
492.63	487.31
492.99	490.69
493.36	494.81
493.72	499.38
494.08	504.52
494.45	509.52
494.81	514.62
495.17	518.79
495.54	524.21
495.90	529.05
496.26	534.33
496.63	540.07
496.99	545.67
497.35	551.95
497.72	558.93
498.08	565.45
498.44	572.62
498.80	579.38
499.17	585.69
499.53	592.21
499.89	599.93
500.26	606.98
500.62	614.33
500.98	622.31
501.34	629.95
501.71	637.98
502.07	645.26
502.43	652.86
502.79	660.50
503.16	668.31
503.52	676.74
503.88	684.86
504.24	693.00
504.60	701.31
504.97	709.67
505.33	717.57
505.69	726.24
506.05	733.71
506.41	741.24
506.78	749.76
507.14	757.86
507.50	765.50
507.86	774.81
508.22	782.83
508.59	791.02
508.95	799.36
509.31	808.50
509.67	817.57
510.03	825.88
510.39	834.81
510.75	842.67
511.12	851.00
511.48	858.76
511.84	866.62
512.20	874.62
512.56	882.81
512.92	891.31
513.28	899.88
513.64	908.71
514.00	918.12
514.37	926.67
514.73	934.81
515.09	943.29
515.45	950.88
515.81	959.40
516.17	967.02
516.53	974.69
516.89	981.31
517.25	989.33
517.61	997.10
517.97	1004.31
518.33	1012.50
518.69	1019.81
519.05	1028.50
519.41	1036.07
519.77	1044.88
520.13	1052.05
520.49	1058.10
520.85	1064.50
521.21	1071.67
521.57	1077.79
521.93	1083.62
522.29	1090.31
522.65	1095.79
523.01	1102.02
523.37	1108.19
523.73	1114.74
524.09	1120.88
524.45	1126.21
524.81	1131.00
525.17	1137.50
525.53	1143.21
525.89	1148.43
526.25	1154.12
526.61	1158.64
526.97	1163.98
527.33	1168.50
527.68	1175.60
528.04	1181.00
528.40	1185.60
528.76	1191.17
529.12	1196.43
529.48	1202.45
529.84	1207.76
530.20	1213.83
530.56	1219.19
530.91	1224.67
531.27	1229.52
531.63	1234.86
531.99	1240.67
532.35	1245.83
532.71	1250.33
533.07	1255.93
533.42	1263.02
533.78	1267.74
534.14	1273.48
534.50	1278.38
534.86	1283.43
535.21	1286.57
535.57	1292.05
535.93	1296.43
536.29	1301.93
536.65	1307.57
537.00	1311.98
537.36	1315.93
537.72	1319.95
538.08	1324.07
538.44	1327.62
538.79	1332.21
539.15	1335.74
539.51	1339.69
539.87	1344.71
540.22	1348.57
540.58	1352.50
540.94	1355.33
541.29	1359.95
541.65	1362.88
542.01	1367.00
542.37	1370.12
542.72	1373.38
543.08	1377.19
543.44	1382.43
543.79	1384.10
544.15	1386.79
544.51	1390.88
544.87	1394.83
545.22	1398.71
545.58	1403.02
545.94	1406.88
546.29	1409.74
546.65	1414.52
547.01	1417.69
547.36	1420.60
547.72	1424.05
548.07	1427.17
548.43	1430.62
548.79	1433.17
549.14	1436.67
549.50	1440.98
549.86	1443.19
550.21	1447.05
550.57	1450.93
550.92	1453.02
551.28	1457.52
551.64	1461.90
551.99	1465.19
552.35	1468.95
552.70	1472.79
553.06	1476.10
553.41	1479.86
553.77	1484.86
554.13	1488.40
554.48	1493.50
554.84	1499.02
555.19	1504.17
555.55	1510.17
555.90	1514.36
556.26	1520.17
556.61	1524.26
556.97	1527.38
557.32	1532.02
557.68	1537.33
558.03	1540.67
558.39	1545.98
558.74	1550.00
559.10	1553.57
559.45	1558.24
559.81	1562.81
560.16	1567.76
560.52	1572.14
560.87	1578.02
561.23	1581.83
561.58	1588.07
561.94	1591.36
562.29	1593.90
562.64	1597.81
563.00	1601.50
563.35	1605.40
563.71	1609.98
564.06	1615.74
564.42	1621.24
564.77	1628.17
565.12	1633.10
565.48	1640.60
565.83	1646.33
566.19	1651.40
566.54	1657.64
566.89	1662.62
567.25	1668.79
567.60	1675.71
567.96	1682.69
568.31	1687.64
568.66	1693.93
569.02	1696.33
569.37	1702.36
569.72	1708.26
570.08	1712.26
570.43	1716.62
570.78	1721.55
571.14	1726.57
571.49	1730.86
571.84	1734.95
572.20	1738.67
572.55	1742.67
572.90	1745.14
573.26	1748.33
573.61	1752.76
573.96	1756.00
574.31	1759.17
574.67	1762.19
575.02	1763.93
575.37	1765.57
575.72	1767.10
576.08	1769.48
576.43	1773.12
576.78	1774.62
577.13	1777.45
577.49	1780.90
577.84	1784.02
578.19	1787.12
578.54	1788.81
578.90	1791.05
579.25	1793.43
579.60	1794.33
579.95	1795.00
580.30	1797.33
580.66	1799.17
581.01	1800.50
581.36	1802.00
581.71	1803.98
582.06	1806.64
582.42	1808.12
582.77	1808.64
583.12	1810.69
583.47	1811.88
583.82	1813.29
584.17	1815.14
584.53	1816.62
584.88	1817.48
585.23	1818.45
585.58	1818.17
585.93	1818.76
586.28	1819.38
586.63	1820.48
586.98	1821.86
587.34	1824.33
587.69	1823.71
588.04	1823.90
588.39	1823.60
588.74	1822.55
589.09	1823.14
589.44	1821.00
589.79	1820.36
590.14	1820.45
590.49	1820.26
590.84	1819.93
591.19	1819.62
591.54	1819.57
591.89	1818.62
592.25	1820.05
592.60	1818.12
592.95	1817.83
593.30	1818.02
593.65	1817.21
594.00	1815.52
594.35	1819.38
594.70	1816.90
595.05	1816.95
595.40	1816.88
595.75	1816.71
596.10	1816.62
596.45	1814.93
596.80	1814.29
597.15	1813.45
597.50	1812.29
597.85	1811.31
598.19	1809.71
598.54	1807.50
598.89	1805.86
599.24	1804.76
599.59	1800.55
599.94	1799.50
600.29	1797.17
600.64	1795.07
600.99	1793.17
601.34	1791.90
601.69	1784.69
602.04	1783.19
602.39	1779.98
602.74	1777.86
603.08	1775.29
603.43	1774.24
603.78	1771.90
604.13	1770.60
604.48	1767.71
604.83	1765.86
605.18	1763.10
605.53	1760.00
605.87	1757.19
606.22	1754.55
606.57	1751.38
606.92	1749.98
607.27	1747.02
607.62	1745.17
607.96	1741.45
608.31	1739.17
608.66	1735.50
609.01	1732.48
609.36	1729.12
609.70	1726.38
610.05	1722.24
610.40	1718.64
610.75	1713.36
611.10	1709.52
611.44	1704.38
611.79	1700.29
612.14	1695.33
612.49	1690.74
612.83	1686.12
613.18	1682.50
613.53	1677.76
613.88	1671.40
614.22	1665.64
614.57	1660.93
614.92	1655.00
615.27	1650.07
615.61	1643.95
615.96	1638.14
616.31	1632.98
616.65	1628.81
617.00	1623.10
617.35	1617.71
617.70	1611.95
618.04	1607.02
618.39	1601.12
618.74	1595.29
619.08	1589.60
619.43	1584.76
619.78	1579.02
620.12	1574.40
620.47	1569.29
620.82	1562.95
621.16	1557.88
621.51	1553.93
621.85	1548.10
622.20	1543.21
622.55	1537.02
622.89	1531.52
623.24	1526.93
623.59	1521.12
623.93	1514.60
624.28	1510.00
624.62	1506.90
624.97	1503.43
625.32	1498.76
625.66	1494.36
626.01	1489.05
626.35	1483.86
626.70	1479.17
627.04	1475.93
627.39	1469.95
627.73	1464.60
628.08	1460.71
628.43	1456.24
628.77	1450.43
629.12	1445.81
629.46	1440.50
629.81	1435.81
630.15	1430.21
630.50	1424.21
630.84	1418.71
631.19	1412.43
631.53	1406.14
631.88	1397.40
632.22	1388.98
632.57	1383.29
632.91	1376.00
633.26	1371.26
633.60	1365.69
633.95	1359.33
634.29	1351.52
634.64	1345.60
634.98	1338.57
635.32	1332.95
635.67	1327.88
636.01	1322.40
636.36	1316.24
636.70	1310.57
637.05	1304.33
637.39	1298.93
637.73	1294.07
638.08	1289.43
638.42	1284.26
638.77	1278.05
639.11	1273.05
639.45	1268.48
639.80	1261.64
640.14	1256.24
640.49	1249.71
640.83	1242.74
641.17	1236.19
641.52	1230.21
641.86	1224.86
642.20	1219.62
642.55	1211.69
642.89	1204.10
643.23	1196.50
643.58	1190.10
643.92	1182.95
644.26	1176.71
644.61	1170.10
644.95	1162.40
645.29	1155.19
645.64	1148.57
645.98	1142.67
646.32	1136.52
646.66	1128.71
647.01	1121.26
647.35	1114.98
647.69	1108.67
648.04	1102.74
648.38	1096.67
648.72	1090.21
649.06	1083.14
649.41	1076.19
649.75	1070.05
650.09	1064.07
650.43	1056.90
650.78	1049.86
651.12	1043.50
651.46	1036.69
651.80	1030.31
652.14	1024.26
652.49	1018.31
652.83	1012.48
653.17	1005.48
653.51	998.38
653.85	992.67
654.20	986.79
654.54	980.26
654.88	973.05
655.22	967.26
655.56	960.57
655.90	954.19
656.25	947.43
656.59	941.52
656.93	936.29
657.27	931.00
657.61	925.21
657.95	919.79
658.29	913.45
658.64	907.55
658.98	901.55
659.32	895.14
659.66	888.67
660.00	882.10
660.34	876.38
660.68	870.43
661.02	864.43
661.36	858.50
661.70	852.88
662.05	847.52
662.39	842.17
662.73	836.69
663.07	831.71
663.41	826.36
663.75	820.29
664.09	814.48
664.43	807.90
664.77	802.43
665.11	796.21
665.45	791.50
665.79	786.26
666.13	780.12
666.47	774.93
666.81	769.36
667.15	763.81
667.49	758.45
667.83	754.24
668.17	748.93
668.51	744.14
668.85	738.95
669.19	734.86
669.53	728.76
669.87	723.26
670.21	717.76
670.55	712.67
670.89	708.79
671.23	704.02
671.57	699.02
671.91	694.50
672.25	690.45
672.58	686.26
672.92	681.60
673.26	677.31
673.60	673.14
673.94	668.81
674.28	664.76
674.62	660.55
674.96	655.19
675.30	651.26
675.64	646.93
675.97	642.60
676.31	637.40
676.65	633.36
676.99	630.48
677.33	626.21
677.67	622.64
678.01	617.81
678.34	613.07
678.68	609.71
679.02	605.38
679.36	600.52
679.70	595.40
680.04	591.33
680.37	587.67
680.71	583.14
681.05	579.31
681.39	575.33
681.73	571.36
682.06	567.74
682.40	563.67
682.74	559.93
683.08	557.12
683.42	552.81
683.75	549.17
684.09	544.12
684.43	540.17
684.77	535.64
685.10	531.86
685.44	528.02
685.78	523.86
686.12	520.21
686.45	516.69
686.79	512.86
687.13	509.40
687.46	505.33
687.80	502.60
688.14	499.10
688.48	495.83
688.81	492.48
689.15	489.62
689.49	486.12
689.82	482.88
690.16	478.52
690.50	475.48
690.83	471.88
691.17	468.14
691.51	464.90
691.84	462.36
692.18	459.07
692.52	456.45
692.85	453.76
693.19	451.29
693.52	448.33
693.86	445.40
694.20	442.07
694.53	439.31
694.87	435.90
695.21	432.33
695.54	428.95
695.88	425.38
696.21	421.76
696.55	419.19
696.88	416.50
697.22	413.67
697.56	411.38
697.89	408.52
698.23	406.83
698.56	404.40
698.90	402.19
699.23	399.45
699.57	396.93
699.90	394.21
700.24	391.33
700.58	388.90
700.91	387.26
701.25	386.55
701.58	384.93
701.92	383.17
702.25	381.24
702.59	379.00
702.92	377.57
703.26	375.60
703.59	373.19
703.93	372.69
704.26	371.26
704.60	369.55
704.93	367.90
705.26	365.52
705.60	363.90
705.93	361.17
706.27	360.57
706.60	358.76
706.94	357.74
707.27	355.76
707.61	354.31
707.94	352.10
708.27	348.83
708.61	346.88
708.94	345.45
709.28	344.05
709.61	342.69
709.94	340.88
710.28	339.40
710.61	338.31
710.95	334.62
711.28	334.07
711.61	332.29
711.95	331.07
712.28	329.64
712.61	327.98
712.95	327.90
713.28	326.62
713.61	324.90
713.95	322.90
714.28	322.02
714.61	320.74
714.95	319.31
715.28	317.74
715.61	315.95
715.95	314.67
716.28	312.98
716.61	311.71
716.95	310.10
717.28	308.64
717.61	307.36
717.94	306.40
718.28	304.05
718.61	302.71
718.94	301.10
719.27	299.81
719.61	298.79
719.94	297.21
720.27	294.98
720.60	293.90
720.94	292.86
721.27	291.74
721.60	290.95
721.93	290.07
722.27	289.95
722.60	289.40
722.93	287.95
723.26	287.21
723.59	286.07
723.93	285.83
724.26	285.12
724.59	283.76
724.92	283.29
725.25	282.93
725.59	282.19
725.92	281.69
726.25	281.07
726.58	280.00
726.91	278.98
727.24	278.38
727.57	277.71
727.91	276.55
728.24	275.88
728.57	274.62
728.90	274.14
729.23	272.79
729.56	272.95
729.89	272.14
730.22	271.40
730.55	270.64
730.89	270.00
731.22	269.29
731.55	268.76
731.88	267.83
732.21	266.62
732.54	265.62
732.87	264.83
733.20	264.36
733.53	264.05
733.86	263.52
734.19	262.88
734.52	262.83
734.85	263.88
735.18	263.02
735.51	263.21
735.84	262.81
736.17	262.67
736.50	260.95
736.83	262.69
737.16	262.36
737.49	261.98
737.82	261.17
738.15	260.88
738.48	260.52
738.81	260.14
739.14	259.64
739.47	259.24
739.80	258.67
740.13	258.21
740.46	257.48
740.79	256.81
741.12	256.31
741.45	255.36
741.78	253.60
742.11	253.52
742.44	252.71
742.77	252.43
743.10	252.00
743.43	251.74
743.75	249.19
744.08	251.31
744.41	251.05
744.74	250.45
745.07	249.76
745.40	249.55
745.73	249.93
746.06	249.57
746.39	249.57
746.71	249.05
747.04	248.29
747.37	247.90
747.70	247.93
748.03	247.76
748.36	247.57
748.68	247.38
749.01	246.55
749.34	246.07
749.67	245.67
750.00	245.40
750.33	246.50
750.65	246.40
750.98	243.52
751.31	242.86
751.64	242.57
751.97	243.17
752.29	242.81
752.62	241.52
752.95	241.14
753.28	240.60
753.60	240.43
753.93	240.71
754.26	240.43
754.59	239.57
754.91	239.24
755.24	238.88
755.57	238.40
755.90	238.14
756.22	237.69
756.55	236.83
756.88	236.21
757.20	234.50
757.53	233.33
757.86	233.17
758.19	233.52
758.51	233.40
758.84	232.19
759.17	231.57
759.49	231.50
759.82	232.14
760.15	231.98
760.47	231.62
760.80	230.83
761.13	231.02
761.45	230.60
761.78	230.00
762.11	229.81
762.43	229.48
762.76	229.26
763.08	229.31
763.41	229.64
763.74	229.67
764.06	229.52
764.39	229.67
764.71	229.19
765.04	228.74
765.37	228.33
765.69	227.98
766.02	227.81
766.34	227.38
766.67	226.50
767.00	226.48
767.32	227.64
767.65	228.62
767.97	228.26
768.30	228.40
768.62	228.52
768.95	228.07
769.27	227.83
769.60	227.98
769.92	227.38
770.25	226.64
770.57	226.12
770.90	226.10
771.22	225.98
771.55	226.05
771.87	225.74
772.20	225.55
772.52	227.21
772.85	229.62
773.17	229.93
773.50	229.57
773.82	229.33
774.15	227.95
774.47	226.69
774.80	226.69
775.12	226.33
775.45	226.05
775.77	226.00
776.09	226.12
776.42	226.02
776.74	226.71
777.07	226.48
777.39	226.40
777.72	226.00
778.04	226.10
778.36	225.76
778.69	225.74
779.01	225.83
779.33	224.12
779.66	221.86
779.98	221.36
780.31	221.31
780.63	222.05
780.95	222.69
781.28	222.67
781.60	222.17
781.92	222.24
782.25	222.12
782.57	221.98
782.89	221.67
783.22	221.33
783.54	220.86
783.86	221.07
784.19	220.90
784.51	221.40
784.83	221.02
785.16	221.12
785.48	221.07
