SpectraSuite Data File
++++++++++++++++++++++++++++++++++++
Date: Tue Apr 02 18:44:27 EDT 2013
User: group
Dark Spectrum Present: No
Reference Spectrum Present: No
Number of Sampled Component Spectra: 1
Spectrometers: USB2E7196
Integration Time (usec): 580000 (USB2E7196)
Spectra Averaged: 2 (USB2E7196)
Boxcar Smoothing: 10 (USB2E7196)
Correct for Electrical Dark: No (USB2E7196)
Strobe/Lamp Enabled: No (USB2E7196)
Correct for Detector Non-linearity: No (USB2E7196)
Correct for Stray Light: No (USB2E7196)
Number of Pixels in Processed Spectrum: 2048
>>>>>Begin Processed Spectral Data<<<<<
339.09	0.00
339.48	193.50
339.86	196.00
340.24	196.50
340.63	193.50
341.01	236.00
341.39	201.00
341.78	206.50
342.16	212.00
342.54	202.00
342.93	197.36
343.31	207.00
343.69	207.62
344.07	208.14
344.46	208.88
344.84	209.67
345.22	208.43
345.60	208.93
345.99	209.14
346.37	208.95
346.75	209.14
347.13	209.14
347.52	209.21
347.90	209.90
348.28	210.24
348.66	210.60
349.05	210.05
349.43	210.21
349.81	210.40
350.19	210.48
350.57	210.76
350.96	211.12
351.34	211.40
351.72	211.50
352.10	211.60
352.48	211.48
352.87	211.43
353.25	211.33
353.63	211.17
354.01	211.21
354.39	211.52
354.77	211.71
355.15	212.57
355.54	212.62
355.92	211.88
356.30	211.79
356.68	213.36
357.06	213.62
357.44	213.38
357.82	213.50
358.20	214.43
358.58	214.12
358.97	213.88
359.35	214.26
359.73	214.67
360.11	214.74
360.49	214.88
360.87	214.64
361.25	214.69
361.63	215.21
362.01	215.26
362.39	215.14
362.77	215.24
363.15	214.74
363.53	214.76
363.91	215.21
364.29	215.17
364.67	213.10
365.05	213.21
365.43	213.45
365.81	213.57
366.19	213.69
366.57	214.55
366.95	214.71
367.33	214.55
367.71	214.48
368.09	214.83
368.47	214.69
368.85	214.81
369.23	215.57
369.61	215.07
369.99	215.74
370.37	215.88
370.75	216.69
371.13	216.38
371.51	216.02
371.89	216.00
372.27	216.29
372.65	216.60
373.03	216.52
373.41	216.33
373.78	216.26
374.16	215.14
374.54	214.64
374.92	214.50
375.30	214.33
375.68	214.24
376.06	214.19
376.44	214.19
376.82	214.45
377.19	214.14
377.57	214.05
377.95	213.52
378.33	213.43
378.71	212.26
379.09	212.57
379.47	212.83
379.84	212.69
380.22	212.52
380.60	212.10
380.98	211.88
381.36	211.79
381.73	211.62
382.11	212.26
382.49	212.26
382.87	211.83
383.25	212.12
383.62	214.29
384.00	214.00
384.38	214.21
384.76	214.52
385.13	215.43
385.51	215.60
385.89	215.29
386.27	215.26
386.64	215.76
387.02	215.57
387.40	215.45
387.78	215.50
388.15	215.55
388.53	215.48
388.91	215.69
389.29	215.60
389.66	215.86
390.04	215.43
390.42	215.74
390.79	216.24
391.17	216.24
391.55	214.17
391.92	214.17
392.30	214.07
392.68	213.95
393.05	213.52
393.43	213.57
393.81	213.52
394.18	213.29
394.56	213.36
394.94	213.88
395.31	213.81
395.69	214.45
396.06	214.76
396.44	215.10
396.82	215.00
397.19	216.24
397.57	215.74
397.95	216.05
398.32	215.71
398.70	215.71
399.07	215.90
399.45	215.95
399.82	215.79
400.20	215.79
400.58	215.79
400.95	215.10
401.33	215.64
401.70	217.14
402.08	217.31
402.45	217.45
402.83	218.05
403.20	218.19
403.58	218.02
403.95	218.21
404.33	218.69
404.71	219.00
405.08	220.31
405.46	220.93
405.83	221.40
406.21	221.64
406.58	222.26
406.96	222.31
407.33	222.83
407.70	223.81
408.08	226.02
408.45	226.81
408.83	228.14
409.20	228.33
409.58	227.98
409.95	229.12
410.33	229.95
410.70	230.07
411.08	231.43
411.45	232.43
411.82	233.17
412.20	234.57
412.57	236.95
412.95	236.43
413.32	238.12
413.69	239.29
414.07	240.93
414.44	242.43
414.82	244.74
415.19	247.02
415.56	249.07
415.94	250.21
416.31	252.83
416.68	255.38
417.06	258.88
417.43	262.64
417.81	266.24
418.18	270.02
418.55	273.74
418.93	277.50
419.30	281.57
419.67	286.38
420.04	290.83
420.42	295.19
420.79	302.40
421.16	307.71
421.54	314.64
421.91	321.02
422.28	327.26
422.66	334.10
423.03	341.93
423.40	348.83
423.77	355.67
424.15	362.74
424.52	370.40
424.89	378.86
425.26	386.12
425.64	393.52
426.01	401.31
426.38	410.62
426.75	420.14
427.13	430.00
427.50	439.26
427.87	449.00
428.24	459.05
428.61	467.17
428.99	478.64
429.36	489.21
429.73	500.05
430.10	512.07
430.47	522.90
430.85	533.60
431.22	546.62
431.59	561.60
431.96	574.31
432.33	588.17
432.70	601.76
433.08	617.98
433.45	633.50
433.82	648.95
434.19	665.36
434.56	682.33
434.93	697.52
435.30	713.55
435.68	731.33
436.05	747.88
436.42	764.38
436.79	779.71
437.16	796.60
437.53	814.90
437.90	831.74
438.27	850.07
438.64	867.93
439.01	884.74
439.38	898.55
439.75	913.52
440.13	930.40
440.50	945.60
440.87	958.43
441.24	971.88
441.61	986.86
441.98	997.74
442.35	1009.10
442.72	1022.12
443.09	1035.26
443.46	1042.95
443.83	1048.29
444.20	1053.45
444.57	1059.95
444.94	1063.62
445.31	1067.10
445.68	1073.71
446.05	1075.02
446.42	1073.76
446.79	1072.74
447.16	1070.57
447.53	1069.71
447.90	1063.45
448.27	1057.33
448.64	1048.26
449.01	1042.02
449.37	1031.14
449.74	1020.43
450.11	1010.02
450.48	995.40
450.85	979.55
451.22	967.05
451.59	955.69
451.96	944.14
452.33	928.74
452.70	914.12
453.07	896.69
453.43	876.74
453.80	860.50
454.17	845.14
454.54	829.45
454.91	813.83
455.28	797.29
455.65	782.31
456.02	771.24
456.38	759.43
456.75	743.48
457.12	729.81
457.49	716.86
457.86	702.00
458.23	692.10
458.59	680.90
458.96	668.83
459.33	657.86
459.70	647.38
460.07	639.07
460.43	629.74
460.80	621.48
461.17	614.10
461.54	605.67
461.91	597.10
462.27	588.62
462.64	581.74
463.01	574.60
463.38	568.00
463.74	556.98
464.11	550.00
464.48	545.00
464.85	538.67
465.21	534.21
465.58	529.33
465.95	522.21
466.32	516.98
466.68	511.64
467.05	506.81
467.42	502.21
467.78	496.26
468.15	491.45
468.52	487.76
468.88	482.29
469.25	477.40
469.62	474.83
469.98	471.10
470.35	467.14
470.72	463.71
471.08	459.31
471.45	456.79
471.82	453.74
472.18	449.57
472.55	447.24
472.92	443.74
473.28	441.10
473.65	438.74
474.02	435.98
474.38	434.12
474.75	431.95
475.11	429.60
475.48	428.43
475.85	426.31
476.21	424.24
476.58	422.83
476.94	421.64
477.31	419.40
477.67	418.21
478.04	417.07
478.41	415.88
478.77	417.17
479.14	415.81
479.50	415.38
479.87	415.29
480.23	414.86
480.60	414.26
480.96	413.74
481.33	414.19
481.69	414.55
482.06	414.38
482.42	414.52
482.79	414.67
483.15	414.83
483.52	416.21
483.88	416.45
484.25	417.12
484.61	418.31
484.98	419.12
485.34	421.10
485.71	422.95
486.07	424.50
486.44	424.19
486.80	425.88
487.17	427.31
487.53	429.71
487.90	431.76
488.26	434.95
488.62	437.69
488.99	439.50
489.35	442.17
489.72	444.90
490.08	447.62
490.44	450.19
490.81	453.45
491.17	456.26
491.54	460.29
491.90	463.93
492.26	467.12
492.63	471.02
492.99	474.19
493.36	478.02
493.72	482.57
494.08	487.10
494.45	491.69
494.81	496.93
495.17	501.19
495.54	506.40
495.90	511.21
496.26	516.48
496.63	522.05
496.99	527.21
497.35	532.88
497.72	539.05
498.08	544.88
498.44	550.60
498.80	556.93
499.17	563.12
499.53	569.36
499.89	576.36
500.26	582.76
500.62	589.38
500.98	596.57
501.34	603.26
501.71	610.45
502.07	617.43
502.43	624.29
502.79	631.00
503.16	637.76
503.52	644.24
503.88	651.02
504.24	658.76
504.60	666.14
504.97	674.38
505.33	681.98
505.69	690.69
506.05	698.71
506.41	706.00
506.78	713.52
507.14	721.21
507.50	728.74
507.86	736.43
508.22	744.07
508.59	751.26
508.95	759.43
509.31	767.79
509.67	775.71
510.03	783.52
510.39	791.69
510.75	799.67
511.12	807.50
511.48	815.55
511.84	823.31
512.20	831.07
512.56	838.36
512.92	845.64
513.28	853.17
513.64	860.55
514.00	868.19
514.37	875.45
514.73	882.67
515.09	890.52
515.45	898.33
515.81	905.07
516.17	912.24
516.53	917.90
516.89	923.60
517.25	930.40
517.61	937.36
517.97	943.69
518.33	950.05
518.69	957.21
519.05	963.69
519.41	969.33
519.77	976.74
520.13	981.98
520.49	987.69
520.85	992.83
521.21	999.17
521.57	1005.17
521.93	1010.26
522.29	1015.33
522.65	1019.55
523.01	1024.98
523.37	1030.62
523.73	1035.36
524.09	1040.71
524.45	1045.71
524.81	1050.14
525.17	1054.98
525.53	1059.07
525.89	1064.07
526.25	1068.81
526.61	1072.62
526.97	1077.43
527.33	1080.83
527.68	1087.86
528.04	1092.33
528.40	1097.24
528.76	1100.64
529.12	1104.60
529.48	1109.12
529.84	1113.31
530.20	1118.43
530.56	1122.17
530.91	1126.45
531.27	1131.52
531.63	1136.48
531.99	1140.50
532.35	1144.71
532.71	1148.81
533.07	1154.12
533.42	1159.93
533.78	1163.52
534.14	1167.98
534.50	1171.50
534.86	1176.31
535.21	1177.36
535.57	1181.81
535.93	1185.31
536.29	1190.31
536.65	1194.07
537.00	1198.02
537.36	1202.64
537.72	1205.76
538.08	1209.90
538.44	1213.10
538.79	1215.69
539.15	1218.67
539.51	1222.12
539.87	1225.33
540.22	1228.17
540.58	1230.93
540.94	1232.45
541.29	1236.00
541.65	1238.31
542.01	1241.76
542.37	1244.43
542.72	1246.79
543.08	1248.95
543.44	1252.07
543.79	1253.07
544.15	1256.43
544.51	1259.69
544.87	1262.10
545.22	1265.48
545.58	1267.79
545.94	1270.48
546.29	1273.40
546.65	1275.83
547.01	1278.50
547.36	1281.40
547.72	1283.45
548.07	1286.69
548.43	1288.24
548.79	1289.43
549.14	1291.64
549.50	1293.98
549.86	1295.62
550.21	1299.21
550.57	1302.17
550.92	1303.88
551.28	1308.17
551.64	1310.76
551.99	1313.10
552.35	1315.81
552.70	1318.10
553.06	1320.98
553.41	1323.95
553.77	1328.31
554.13	1332.00
554.48	1335.74
554.84	1339.64
555.19	1343.52
555.55	1348.38
555.90	1352.38
556.26	1357.26
556.61	1361.57
556.97	1364.38
557.32	1368.50
557.68	1372.12
558.03	1375.83
558.39	1379.62
558.74	1384.24
559.10	1387.52
559.45	1391.31
559.81	1395.81
560.16	1399.93
560.52	1404.60
560.87	1409.62
561.23	1413.07
561.58	1419.36
561.94	1423.29
562.29	1427.45
562.64	1433.05
563.00	1435.48
563.35	1440.43
563.71	1445.07
564.06	1450.55
564.42	1456.38
564.77	1462.24
565.12	1468.83
565.48	1476.76
565.83	1484.07
566.19	1488.36
566.54	1494.50
566.89	1500.50
567.25	1507.10
567.60	1514.10
567.96	1522.24
568.31	1528.74
568.66	1535.26
569.02	1538.90
569.37	1544.64
569.72	1549.93
570.08	1554.60
570.43	1560.26
570.78	1566.93
571.14	1572.76
571.49	1577.67
571.84	1583.45
572.20	1588.26
572.55	1593.60
572.90	1596.05
573.26	1599.69
573.61	1604.00
573.96	1608.21
574.31	1612.24
574.67	1615.98
575.02	1618.81
575.37	1620.57
575.72	1622.95
576.08	1626.76
576.43	1631.07
576.78	1635.14
577.13	1639.26
577.49	1643.00
577.84	1647.88
578.19	1650.43
578.54	1653.79
578.90	1657.88
579.25	1661.33
579.60	1663.81
579.95	1665.76
580.30	1669.62
580.66	1673.98
581.01	1677.81
581.36	1681.36
581.71	1685.14
582.06	1689.57
582.42	1694.19
582.77	1696.69
583.12	1700.14
583.47	1702.40
583.82	1705.38
584.17	1708.48
584.53	1711.95
584.88	1715.86
585.23	1718.69
585.58	1721.48
585.93	1723.64
586.28	1726.60
586.63	1729.64
586.98	1733.07
587.34	1737.00
587.69	1739.38
588.04	1741.24
588.39	1743.76
588.74	1745.12
589.09	1746.95
589.44	1747.45
589.79	1748.93
590.14	1751.67
590.49	1753.52
590.84	1755.17
591.19	1756.83
591.54	1758.45
591.89	1759.33
592.25	1761.76
592.60	1762.10
592.95	1763.98
593.30	1766.33
593.65	1767.21
594.00	1767.98
594.35	1774.71
594.70	1774.62
595.05	1775.38
595.40	1776.26
595.75	1777.07
596.10	1778.69
596.45	1780.29
596.80	1781.69
597.15	1782.05
597.50	1782.10
597.85	1784.14
598.19	1785.00
598.54	1784.86
598.89	1785.71
599.24	1786.55
599.59	1785.24
599.94	1786.00
600.29	1786.69
600.64	1786.40
600.99	1786.40
601.34	1786.50
601.69	1781.12
602.04	1780.24
602.39	1779.93
602.74	1780.62
603.08	1779.81
603.43	1780.64
603.78	1780.05
604.13	1778.60
604.48	1778.33
604.83	1778.36
605.18	1777.40
605.53	1776.81
605.87	1776.40
606.22	1774.38
606.57	1773.57
606.92	1772.62
607.27	1771.33
607.62	1770.43
607.96	1769.76
608.31	1769.64
608.66	1768.93
609.01	1766.07
609.36	1766.60
609.70	1765.48
610.05	1763.19
610.40	1761.90
610.75	1759.14
611.10	1757.90
611.44	1755.50
611.79	1753.38
612.14	1750.79
612.49	1747.14
612.83	1744.45
613.18	1742.07
613.53	1739.40
613.88	1735.21
614.22	1731.74
614.57	1728.36
614.92	1723.86
615.27	1720.02
615.61	1714.74
615.96	1710.33
616.31	1708.00
616.65	1704.57
617.00	1702.19
617.35	1699.38
617.70	1696.62
618.04	1692.69
618.39	1687.93
618.74	1685.17
619.08	1681.31
619.43	1677.67
619.78	1674.95
620.12	1671.29
620.47	1667.48
620.82	1663.74
621.16	1660.57
621.51	1657.31
621.85	1653.38
622.20	1650.26
622.55	1646.36
622.89	1643.67
623.24	1640.64
623.59	1637.24
623.93	1632.26
624.28	1626.83
624.62	1623.10
624.97	1620.02
625.32	1616.60
625.66	1612.76
626.01	1607.95
626.35	1604.10
626.70	1600.40
627.04	1597.57
627.39	1593.17
627.73	1590.17
628.08	1586.55
628.43	1582.98
628.77	1578.62
629.12	1575.29
629.46	1571.21
629.81	1567.21
630.15	1562.64
630.50	1558.29
630.84	1552.98
631.19	1548.83
631.53	1544.95
631.88	1538.12
632.22	1531.12
632.57	1527.17
632.91	1521.98
633.26	1518.40
633.60	1513.40
633.95	1508.24
634.29	1502.07
634.64	1498.19
634.98	1492.10
635.32	1488.79
635.67	1484.21
636.01	1480.31
636.36	1475.24
636.70	1470.81
637.05	1466.05
637.39	1462.02
637.73	1457.02
638.08	1454.38
638.42	1449.93
638.77	1445.14
639.11	1441.98
639.45	1438.69
639.80	1432.57
640.14	1428.12
640.49	1422.88
640.83	1417.55
641.17	1413.10
641.52	1407.76
641.86	1402.00
642.20	1398.31
642.55	1391.02
642.89	1385.60
643.23	1379.55
643.58	1374.88
643.92	1368.14
644.26	1362.98
644.61	1357.52
644.95	1351.76
645.29	1344.36
645.64	1338.55
645.98	1332.81
646.32	1326.95
646.66	1319.67
647.01	1313.74
647.35	1307.98
647.69	1302.14
648.04	1296.93
648.38	1290.76
648.72	1285.45
649.06	1280.07
649.41	1273.21
649.75	1268.05
650.09	1261.31
650.43	1254.98
650.78	1248.33
651.12	1242.69
651.46	1235.64
651.80	1229.07
652.14	1223.21
652.49	1217.14
652.83	1211.10
653.17	1204.02
653.51	1197.05
653.85	1191.33
654.20	1185.36
654.54	1178.24
654.88	1171.48
655.22	1165.19
655.56	1158.81
655.90	1151.90
656.25	1145.12
656.59	1138.43
656.93	1132.29
657.27	1127.55
657.61	1121.24
657.95	1115.40
658.29	1109.81
658.64	1104.90
658.98	1097.69
659.32	1090.76
659.66	1084.57
660.00	1078.36
660.34	1072.40
660.68	1066.19
661.02	1060.00
661.36	1053.71
661.70	1048.43
662.05	1042.38
662.39	1037.17
662.73	1031.19
663.07	1025.90
663.41	1019.81
663.75	1014.07
664.09	1008.21
664.43	1001.55
664.77	995.55
665.11	989.02
665.45	982.40
665.79	975.64
666.13	970.45
666.47	965.05
666.81	959.24
667.15	952.86
667.49	947.69
667.83	942.45
668.17	936.57
668.51	931.02
668.85	925.29
669.19	921.05
669.53	913.38
669.87	907.57
670.21	901.74
670.55	896.00
670.89	890.79
671.23	885.07
671.57	879.36
671.91	874.17
672.25	868.55
672.58	863.50
672.92	857.62
673.26	851.86
673.60	846.05
673.94	840.69
674.28	835.60
674.62	830.60
674.96	825.24
675.30	820.55
675.64	815.31
675.97	809.64
676.31	803.14
676.65	799.02
676.99	794.95
677.33	789.19
677.67	785.00
678.01	779.38
678.34	774.33
678.68	769.98
679.02	764.00
679.36	758.83
679.70	753.38
680.04	749.29
680.37	744.79
680.71	740.02
681.05	735.76
681.39	731.38
681.73	726.00
682.06	720.69
682.40	715.45
682.74	711.12
683.08	708.02
683.42	703.67
683.75	699.05
684.09	693.50
684.43	689.10
684.77	683.48
685.10	679.21
685.44	674.71
685.78	669.17
686.12	665.67
686.45	661.40
686.79	656.76
687.13	651.98
687.46	647.62
687.80	643.90
688.14	639.17
688.48	634.83
688.81	630.81
689.15	627.43
689.49	623.12
689.82	618.50
690.16	612.57
690.50	608.40
690.83	603.95
691.17	599.40
691.51	595.40
691.84	591.95
692.18	587.88
692.52	583.43
692.85	579.93
693.19	576.67
693.52	572.69
693.86	569.05
694.20	565.48
694.53	561.64
694.87	557.17
695.21	553.14
695.54	548.81
695.88	544.43
696.21	539.45
696.55	535.45
696.88	532.05
697.22	529.00
697.56	525.36
697.89	521.24
698.23	517.71
698.56	513.48
698.90	510.14
699.23	506.50
699.57	503.26
699.90	499.45
700.24	495.36
700.58	491.90
700.91	488.71
701.25	486.38
701.58	483.48
701.92	480.79
702.25	477.90
702.59	474.67
702.92	471.55
703.26	469.36
703.59	466.62
703.93	465.12
704.26	462.12
704.60	459.21
704.93	456.40
705.26	453.45
705.60	451.52
705.93	447.69
706.27	445.52
706.60	442.83
706.94	441.24
707.27	438.38
707.61	436.17
707.94	433.26
708.27	429.24
708.61	425.88
708.94	423.19
709.28	420.12
709.61	417.90
709.94	416.02
710.28	412.93
710.61	410.81
710.95	406.67
711.28	405.90
711.61	403.57
711.95	402.14
712.28	399.83
712.61	397.24
712.95	396.38
713.28	394.67
713.61	392.21
713.95	389.02
714.28	387.17
714.61	384.74
714.95	382.57
715.28	380.17
715.61	378.12
715.95	376.26
716.28	374.17
716.61	372.24
716.95	370.00
717.28	368.50
717.61	366.38
717.94	364.48
718.28	360.71
718.61	358.45
718.94	356.10
719.27	354.55
719.61	352.74
719.94	350.60
720.27	347.69
720.60	345.93
720.94	344.45
721.27	342.50
721.60	341.43
721.93	340.07
722.27	339.45
722.60	338.43
722.93	336.40
723.26	335.36
723.59	333.36
723.93	332.00
724.26	330.86
724.59	329.17
724.92	327.98
725.25	327.64
725.59	326.38
725.92	325.50
726.25	324.19
726.58	323.12
726.91	321.88
727.24	321.29
727.57	320.14
727.91	318.64
728.24	317.93
728.57	316.07
728.90	315.07
729.23	313.19
729.56	312.69
729.89	311.90
730.22	310.48
730.55	309.50
730.89	308.40
731.22	307.05
731.55	306.31
731.88	305.00
732.21	303.17
732.54	302.19
732.87	301.00
733.20	299.90
733.53	299.14
733.86	298.24
734.19	296.62
734.52	295.98
734.85	296.64
735.18	295.12
735.51	295.26
735.84	294.48
736.17	294.17
736.50	292.40
736.83	293.64
737.16	292.88
737.49	291.98
737.82	290.90
738.15	290.12
738.48	289.21
738.81	288.43
739.14	287.45
739.47	286.62
739.80	285.67
740.13	284.88
740.46	283.45
740.79	282.19
741.12	281.55
741.45	280.45
741.78	278.36
742.11	278.45
742.44	277.10
742.77	276.52
743.10	275.40
743.43	274.90
743.75	272.07
744.08	274.17
744.41	273.26
744.74	272.76
745.07	271.83
745.40	271.26
745.73	271.52
746.06	270.90
746.39	270.07
746.71	269.40
747.04	268.69
747.37	267.81
747.70	267.48
748.03	266.95
748.36	266.71
748.68	266.31
749.01	265.10
749.34	264.33
749.67	263.90
750.00	263.64
750.33	264.29
750.65	264.07
750.98	260.88
751.31	260.43
751.64	259.86
751.97	260.31
752.29	259.81
752.62	258.19
752.95	257.60
753.28	257.07
753.60	256.60
753.93	256.81
754.26	256.79
754.59	255.69
754.91	254.69
755.24	253.98
755.57	253.38
755.90	252.71
756.22	252.05
756.55	251.10
756.88	250.26
757.20	248.43
757.53	247.19
757.86	246.69
758.19	246.43
758.51	246.05
758.84	244.62
759.17	243.88
759.49	243.45
759.82	244.40
760.15	244.19
760.47	243.57
760.80	242.24
761.13	242.14
761.45	241.62
761.78	241.36
762.11	240.93
762.43	240.57
762.76	240.21
763.08	240.40
763.41	240.33
763.74	240.05
764.06	239.52
764.39	239.52
764.71	239.21
765.04	238.69
765.37	238.33
765.69	238.07
766.02	237.88
766.34	237.62
766.67	236.21
767.00	236.14
767.32	236.95
767.65	237.98
767.97	237.40
768.30	237.36
768.62	237.31
768.95	237.05
769.27	236.60
769.60	236.67
769.92	235.98
770.25	235.38
770.57	234.79
770.90	234.69
771.22	233.95
771.55	233.86
771.87	233.90
772.20	233.52
772.52	235.14
772.85	237.29
773.17	237.21
773.50	237.14
773.82	236.45
774.15	235.43
774.47	234.02
774.80	233.67
775.12	233.48
775.45	232.98
775.77	232.62
776.09	232.45
776.42	231.98
776.74	232.29
777.07	231.83
777.39	231.74
777.72	231.45
778.04	231.79
778.36	231.19
778.69	231.00
779.01	230.79
779.33	228.60
779.66	226.02
779.98	225.88
780.31	225.60
780.63	226.33
780.95	226.40
781.28	226.21
781.60	226.02
781.92	225.90
782.25	225.83
782.57	225.88
782.89	225.64
783.22	225.50
783.54	224.98
783.86	225.19
784.19	225.07
784.51	225.48
784.83	224.74
785.16	224.55
