SpectraSuite Data File
++++++++++++++++++++++++++++++++++++
Date: Tue Apr 02 18:42:58 EDT 2013
User: group
Dark Spectrum Present: No
Reference Spectrum Present: No
Number of Sampled Component Spectra: 1
Spectrometers: USB2E7196
Integration Time (usec): 580000 (USB2E7196)
Spectra Averaged: 2 (USB2E7196)
Boxcar Smoothing: 10 (USB2E7196)
Correct for Electrical Dark: No (USB2E7196)
Strobe/Lamp Enabled: No (USB2E7196)
Correct for Detector Non-linearity: No (USB2E7196)
Correct for Stray Light: No (USB2E7196)
Number of Pixels in Processed Spectrum: 2048
>>>>>Begin Processed Spectral Data<<<<<
339.09	0.00
339.48	195.00
339.86	200.00
340.24	196.50
340.63	197.50
341.01	231.00
341.39	201.50
341.78	204.50
342.16	212.50
342.54	205.50
342.93	197.57
343.31	207.45
343.69	207.69
344.07	207.98
344.46	208.52
344.84	209.07
345.22	207.83
345.60	208.14
345.99	208.33
346.37	208.05
346.75	208.19
347.13	208.31
347.52	208.21
347.90	208.79
348.28	208.52
348.66	208.95
349.05	208.36
349.43	208.60
349.81	208.83
350.19	208.79
350.57	208.71
350.96	208.90
351.34	209.17
351.72	209.52
352.10	209.64
352.48	209.55
352.87	209.57
353.25	209.55
353.63	209.50
354.01	209.38
354.39	209.62
354.77	209.57
355.15	209.88
355.54	209.79
355.92	209.17
356.30	209.38
356.68	210.86
357.06	211.19
357.44	211.05
357.82	211.05
358.20	211.98
358.58	212.29
358.97	212.55
359.35	212.86
359.73	213.36
360.11	213.36
360.49	213.60
360.87	213.55
361.25	214.05
361.63	214.93
362.01	215.14
362.39	214.95
362.77	215.36
363.15	215.26
363.53	215.57
363.91	215.90
364.29	215.83
364.67	213.98
365.05	214.00
365.43	214.60
365.81	214.93
366.19	215.07
366.57	215.81
366.95	215.74
367.33	215.29
367.71	215.14
368.09	215.55
368.47	215.33
368.85	215.29
369.23	215.86
369.61	215.14
369.99	215.98
370.37	216.19
370.75	217.02
371.13	216.81
371.51	216.57
371.89	216.69
372.27	217.05
372.65	217.14
373.03	217.12
373.41	216.74
373.78	216.60
374.16	215.71
374.54	215.12
374.92	214.90
375.30	215.05
375.68	214.79
376.06	215.12
376.44	215.33
376.82	215.67
377.19	215.50
377.57	215.36
377.95	214.45
378.33	214.57
378.71	213.24
379.09	213.71
379.47	213.88
379.84	213.60
380.22	213.12
380.60	212.71
380.98	212.76
381.36	212.60
381.73	212.29
382.11	212.67
382.49	212.57
382.87	212.38
383.25	212.21
383.62	214.62
384.00	213.81
384.38	214.02
384.76	214.52
385.13	215.07
385.51	215.19
385.89	215.17
386.27	215.00
386.64	215.45
387.02	215.19
387.40	215.12
387.78	215.29
388.15	215.60
388.53	215.55
388.91	215.36
389.29	215.29
389.66	215.40
390.04	214.81
390.42	215.38
390.79	215.50
391.17	215.50
391.55	213.31
391.92	213.50
392.30	213.48
392.68	212.81
393.05	212.71
393.43	212.83
393.81	213.02
394.18	212.90
394.56	212.81
394.94	213.24
395.31	213.00
395.69	213.90
396.06	214.07
396.44	214.31
396.82	214.24
397.19	215.60
397.57	215.52
397.95	216.00
398.32	215.62
398.70	216.05
399.07	216.48
399.45	216.24
399.82	216.31
400.20	215.93
400.58	215.86
400.95	215.00
401.33	215.38
401.70	216.93
402.08	216.95
402.45	217.10
402.83	217.40
403.20	217.76
403.58	217.12
403.95	217.67
404.33	217.98
404.71	218.33
405.08	219.57
405.46	219.86
405.83	220.45
406.21	220.79
406.58	220.93
406.96	221.36
407.33	222.02
407.70	222.98
408.08	225.36
408.45	226.29
408.83	227.40
409.20	227.88
409.58	227.21
409.95	228.57
410.33	229.57
410.70	229.83
411.08	231.10
411.45	232.43
411.82	233.21
412.20	234.79
412.57	237.24
412.95	236.60
413.32	238.43
413.69	239.71
414.07	241.12
414.44	243.14
414.82	245.17
415.19	247.50
415.56	249.62
415.94	251.05
416.31	254.12
416.68	256.86
417.06	260.02
417.43	263.55
417.81	266.90
418.18	270.55
418.55	274.60
418.93	278.48
419.30	282.48
419.67	287.00
420.04	291.38
420.42	295.67
420.79	302.79
421.16	308.38
421.54	315.45
421.91	321.74
422.28	327.95
422.66	334.48
423.03	342.50
423.40	349.12
423.77	356.10
424.15	363.31
424.52	370.93
424.89	379.64
425.26	387.21
425.64	395.17
426.01	403.50
426.38	412.36
426.75	421.98
427.13	431.40
427.50	440.79
427.87	450.67
428.24	460.60
428.61	468.98
428.99	480.07
429.36	490.21
429.73	501.17
430.10	512.17
430.47	523.88
430.85	534.43
431.22	546.90
431.59	562.05
431.96	574.79
432.33	589.02
432.70	602.90
433.08	619.95
433.45	635.33
433.82	650.76
434.19	668.07
434.56	685.29
434.93	700.95
435.30	717.36
435.68	735.29
436.05	752.52
436.42	769.64
436.79	786.21
437.16	804.12
437.53	822.48
437.90	840.62
438.27	858.76
438.64	877.17
439.01	894.93
439.38	908.52
439.75	923.24
440.13	940.17
440.50	955.67
440.87	967.98
441.24	981.26
441.61	995.55
441.98	1006.19
442.35	1017.67
442.72	1031.19
443.09	1044.26
443.46	1052.00
443.83	1057.52
444.20	1062.62
444.57	1068.43
444.94	1071.36
445.31	1074.21
445.68	1080.45
446.05	1082.33
446.42	1081.02
446.79	1079.36
447.16	1077.52
447.53	1076.98
447.90	1070.36
448.27	1063.86
448.64	1054.95
449.01	1048.26
449.37	1037.62
449.74	1026.33
450.11	1015.36
450.48	999.90
450.85	984.38
451.22	971.81
451.59	959.90
451.96	947.64
452.33	931.81
452.70	917.14
453.07	900.21
453.43	880.24
453.80	863.07
454.17	846.74
454.54	831.26
454.91	814.69
455.28	798.12
455.65	782.90
456.02	771.24
456.38	758.71
456.75	743.40
457.12	730.05
457.49	717.38
457.86	702.67
458.23	692.88
458.59	681.29
458.96	668.88
459.33	658.10
459.70	647.48
460.07	638.71
460.43	629.12
460.80	620.98
461.17	613.52
461.54	605.12
461.91	597.50
462.27	589.24
462.64	582.24
463.01	574.90
463.38	569.02
463.74	558.45
464.11	551.55
464.48	545.86
464.85	539.26
465.21	534.60
465.58	529.60
465.95	523.21
466.32	518.02
466.68	512.95
467.05	507.76
467.42	503.33
467.78	498.36
468.15	493.83
468.52	490.12
468.88	484.10
469.25	479.38
469.62	476.10
469.98	472.69
470.35	469.12
470.72	465.24
471.08	460.29
471.45	457.40
471.82	454.93
472.18	451.21
472.55	448.90
472.92	445.19
473.28	442.19
473.65	438.83
474.02	436.02
474.38	433.90
474.75	432.24
475.11	429.69
475.48	427.95
475.85	425.79
476.21	423.57
476.58	422.74
476.94	421.57
477.31	419.90
477.67	418.14
478.04	417.12
478.41	416.19
478.77	417.74
479.14	416.95
479.50	415.98
479.87	415.76
480.23	415.38
480.60	415.02
480.96	414.83
481.33	416.02
481.69	415.95
482.06	416.36
482.42	416.36
482.79	416.31
483.15	416.62
483.52	417.55
483.88	418.55
484.25	419.33
484.61	420.05
484.98	421.17
485.34	423.26
485.71	424.98
486.07	426.38
486.44	425.76
486.80	426.98
487.17	428.64
487.53	430.71
487.90	432.69
488.26	436.10
488.62	439.14
488.99	440.45
489.35	443.24
489.72	445.55
490.08	448.26
490.44	451.55
490.81	454.83
491.17	457.71
491.54	460.76
491.90	464.38
492.26	468.21
492.63	471.60
492.99	474.38
493.36	478.40
493.72	482.69
494.08	487.12
494.45	491.93
494.81	496.98
495.17	501.74
495.54	507.02
495.90	511.40
496.26	516.19
496.63	522.29
496.99	527.67
497.35	533.33
497.72	539.24
498.08	545.36
498.44	551.50
498.80	558.21
499.17	564.88
499.53	570.71
499.89	577.79
500.26	584.62
500.62	591.93
500.98	599.14
501.34	606.31
501.71	613.69
502.07	620.62
502.43	627.74
502.79	634.74
503.16	641.93
503.52	649.24
503.88	655.98
504.24	663.55
504.60	671.21
504.97	679.05
505.33	686.55
505.69	695.14
506.05	702.83
506.41	710.24
506.78	717.95
507.14	725.79
507.50	733.33
507.86	740.88
508.22	748.93
508.59	756.48
508.95	765.05
509.31	773.60
509.67	781.67
510.03	789.40
510.39	797.86
510.75	805.29
511.12	812.64
511.48	820.81
511.84	828.00
512.20	835.45
512.56	843.10
512.92	850.55
513.28	857.48
513.64	864.76
514.00	872.76
514.37	879.86
514.73	887.67
515.09	895.36
515.45	902.71
515.81	909.60
516.17	915.81
516.53	921.50
516.89	927.76
517.25	933.90
517.61	940.64
517.97	946.88
518.33	953.31
518.69	960.19
519.05	966.90
519.41	973.60
519.77	980.67
520.13	986.50
520.49	992.36
520.85	997.98
521.21	1004.29
521.57	1009.33
521.93	1014.83
522.29	1020.83
522.65	1025.64
523.01	1031.29
523.37	1035.64
523.73	1041.29
524.09	1046.38
524.45	1050.81
524.81	1055.86
525.17	1060.74
525.53	1065.05
525.89	1070.12
526.25	1075.12
526.61	1078.79
526.97	1082.07
527.33	1086.21
527.68	1092.67
528.04	1097.38
528.40	1101.86
528.76	1106.21
529.12	1110.57
529.48	1115.79
529.84	1119.60
530.20	1123.90
530.56	1128.60
530.91	1133.90
531.27	1137.98
531.63	1142.71
531.99	1146.95
532.35	1151.19
532.71	1154.69
533.07	1159.36
533.42	1165.05
533.78	1169.24
534.14	1174.10
534.50	1179.48
534.86	1183.74
535.21	1185.81
535.57	1190.10
535.93	1193.43
536.29	1197.83
536.65	1202.24
537.00	1205.45
537.36	1208.83
537.72	1211.86
538.08	1215.33
538.44	1218.36
538.79	1222.31
539.15	1225.19
539.51	1228.90
539.87	1232.86
540.22	1236.05
540.58	1238.55
540.94	1240.50
541.29	1243.05
541.65	1245.36
542.01	1248.50
542.37	1251.55
542.72	1254.12
543.08	1256.33
543.44	1259.98
543.79	1260.69
544.15	1263.24
544.51	1267.05
544.87	1269.81
545.22	1273.43
545.58	1275.93
545.94	1278.10
546.29	1280.79
546.65	1283.36
547.01	1285.45
547.36	1288.36
547.72	1291.67
548.07	1295.24
548.43	1298.24
548.79	1300.98
549.14	1304.10
549.50	1306.24
549.86	1308.36
550.21	1311.57
550.57	1314.74
550.92	1316.02
551.28	1320.57
551.64	1323.45
551.99	1325.24
552.35	1328.40
552.70	1331.05
553.06	1334.38
553.41	1338.19
553.77	1342.40
554.13	1346.62
554.48	1351.60
554.84	1355.12
555.19	1359.36
555.55	1364.62
555.90	1367.48
556.26	1372.24
556.61	1375.24
556.97	1378.36
557.32	1382.74
557.68	1386.74
558.03	1390.38
558.39	1395.62
558.74	1398.76
559.10	1403.07
559.45	1407.62
559.81	1412.00
560.16	1416.29
560.52	1420.69
560.87	1425.57
561.23	1429.45
561.58	1434.55
561.94	1437.52
562.29	1441.38
562.64	1445.36
563.00	1448.57
563.35	1454.19
563.71	1458.55
564.06	1464.79
564.42	1471.05
564.77	1476.38
565.12	1482.83
565.48	1490.81
565.83	1497.50
566.19	1503.24
566.54	1508.88
566.89	1514.40
567.25	1520.40
567.60	1527.10
567.96	1534.31
568.31	1540.52
568.66	1546.52
569.02	1552.05
569.37	1558.21
569.72	1564.07
570.08	1569.98
570.43	1574.36
570.78	1579.33
571.14	1585.10
571.49	1590.31
571.84	1596.12
572.20	1600.40
572.55	1604.71
572.90	1607.38
573.26	1610.74
573.61	1615.31
573.96	1619.81
574.31	1624.29
574.67	1628.24
575.02	1631.79
575.37	1634.00
575.72	1637.31
576.08	1641.90
576.43	1644.88
576.78	1648.52
577.13	1652.12
577.49	1656.14
577.84	1661.14
578.19	1664.40
578.54	1668.05
578.90	1671.26
579.25	1674.57
579.60	1678.24
579.95	1680.81
580.30	1683.98
580.66	1688.00
581.01	1691.93
581.36	1695.24
581.71	1698.17
582.06	1701.74
582.42	1705.88
582.77	1708.62
583.12	1711.31
583.47	1713.52
583.82	1716.83
584.17	1720.31
584.53	1723.60
584.88	1725.98
585.23	1729.10
585.58	1731.88
585.93	1734.21
586.28	1737.19
586.63	1738.86
586.98	1741.29
587.34	1744.81
587.69	1747.86
588.04	1749.95
588.39	1752.69
588.74	1753.64
589.09	1755.90
589.44	1756.43
589.79	1758.10
590.14	1761.29
590.49	1762.98
590.84	1764.48
591.19	1765.29
591.54	1766.38
591.89	1767.71
592.25	1770.00
592.60	1770.12
592.95	1772.71
593.30	1774.26
593.65	1775.31
594.00	1775.83
594.35	1782.81
594.70	1782.40
595.05	1783.48
595.40	1784.19
595.75	1783.88
596.10	1785.81
596.45	1786.83
596.80	1788.50
597.15	1788.83
597.50	1789.26
597.85	1790.95
598.19	1790.81
598.54	1792.95
598.89	1793.57
599.24	1795.12
599.59	1794.50
599.94	1794.88
600.29	1794.69
600.64	1793.86
600.99	1793.43
601.34	1794.98
601.69	1788.79
602.04	1788.50
602.39	1787.45
602.74	1787.86
603.08	1787.64
603.43	1788.24
603.78	1787.50
604.13	1787.55
604.48	1786.64
604.83	1785.64
605.18	1784.48
605.53	1784.33
605.87	1782.26
606.22	1780.33
606.57	1778.05
606.92	1776.90
607.27	1776.67
607.62	1775.40
607.96	1775.98
608.31	1776.55
608.66	1775.45
609.01	1774.07
609.36	1774.12
609.70	1772.76
610.05	1769.33
610.40	1767.31
610.75	1764.31
611.10	1762.48
611.44	1759.76
611.79	1757.07
612.14	1753.95
612.49	1750.83
612.83	1747.79
613.18	1744.81
613.53	1742.48
613.88	1738.81
614.22	1735.48
614.57	1731.79
614.92	1726.88
615.27	1722.31
615.61	1717.93
615.96	1713.12
616.31	1709.90
616.65	1706.26
617.00	1703.00
617.35	1700.31
617.70	1698.05
618.04	1694.10
618.39	1689.71
618.74	1685.67
619.08	1681.67
619.43	1677.88
619.78	1674.55
620.12	1670.95
620.47	1667.62
620.82	1663.40
621.16	1659.10
621.51	1657.10
621.85	1652.45
622.20	1648.71
622.55	1644.50
622.89	1639.29
623.24	1635.67
623.59	1631.24
623.93	1625.90
624.28	1621.36
624.62	1618.55
624.97	1614.14
625.32	1610.57
625.66	1606.67
626.01	1602.88
626.35	1599.43
626.70	1595.95
627.04	1592.26
627.39	1587.93
627.73	1583.98
628.08	1580.36
628.43	1577.00
628.77	1570.74
629.12	1567.83
629.46	1564.05
629.81	1559.17
630.15	1554.64
630.50	1550.67
630.84	1545.55
631.19	1540.26
631.53	1535.83
631.88	1528.86
632.22	1522.98
632.57	1517.88
632.91	1512.21
633.26	1507.55
633.60	1501.19
633.95	1495.38
634.29	1488.50
634.64	1483.50
634.98	1477.55
635.32	1472.52
635.67	1468.24
636.01	1464.67
636.36	1458.19
636.70	1453.81
637.05	1449.26
637.39	1444.76
637.73	1438.62
638.08	1435.26
638.42	1431.64
638.77	1425.71
639.11	1421.05
639.45	1415.86
639.80	1410.10
640.14	1404.93
640.49	1398.93
640.83	1394.29
641.17	1389.88
641.52	1385.43
641.86	1380.14
642.20	1376.10
642.55	1370.29
642.89	1363.86
643.23	1357.40
643.58	1352.69
643.92	1346.00
644.26	1339.17
644.61	1334.21
644.95	1328.83
645.29	1320.71
645.64	1315.12
645.98	1310.05
646.32	1304.12
646.66	1298.00
647.01	1291.74
647.35	1285.83
647.69	1280.81
648.04	1275.24
648.38	1268.90
648.72	1263.43
649.06	1256.79
649.41	1249.76
649.75	1243.45
650.09	1237.26
650.43	1229.83
650.78	1223.76
651.12	1217.12
651.46	1211.33
651.80	1204.55
652.14	1197.48
652.49	1192.45
652.83	1185.55
653.17	1177.55
653.51	1171.40
653.85	1165.50
654.20	1159.48
654.54	1152.69
654.88	1144.57
655.22	1138.33
655.56	1130.67
655.90	1124.29
656.25	1117.55
656.59	1111.21
656.93	1104.83
657.27	1099.19
657.61	1093.05
657.95	1086.05
658.29	1079.62
658.64	1073.60
658.98	1066.43
659.32	1060.36
659.66	1053.43
660.00	1047.12
660.34	1041.36
660.68	1035.12
661.02	1027.57
661.36	1021.12
661.70	1015.24
662.05	1009.76
662.39	1003.29
662.73	998.19
663.07	992.07
663.41	986.19
663.75	979.83
664.09	973.88
664.43	967.17
664.77	961.48
665.11	955.07
665.45	949.60
665.79	943.57
666.13	937.24
666.47	931.48
666.81	925.62
667.15	919.55
667.49	914.71
667.83	909.45
668.17	904.57
668.51	899.17
668.85	893.98
669.19	889.02
669.53	882.81
669.87	876.90
670.21	870.64
670.55	864.93
670.89	860.48
671.23	854.55
671.57	849.10
671.91	843.40
672.25	838.24
672.58	833.83
672.92	828.29
673.26	823.43
673.60	818.17
673.94	813.10
674.28	807.83
674.62	802.69
674.96	796.81
675.30	791.48
675.64	785.83
675.97	779.88
676.31	773.45
676.65	768.67
676.99	764.29
677.33	759.21
677.67	754.88
678.01	748.98
678.34	744.26
678.68	739.62
679.02	734.76
679.36	729.29
679.70	723.38
680.04	718.79
680.37	713.40
680.71	708.31
681.05	703.88
681.39	698.88
681.73	694.02
682.06	689.31
682.40	684.95
682.74	681.07
683.08	677.64
683.42	673.26
683.75	668.60
684.09	663.43
684.43	658.88
684.77	653.60
685.10	649.26
685.44	644.64
685.78	640.02
686.12	635.57
686.45	631.40
686.79	626.81
687.13	622.57
687.46	618.86
687.80	615.24
688.14	610.90
688.48	607.05
688.81	602.55
689.15	599.10
689.49	594.95
689.82	590.71
690.16	586.05
690.50	582.07
690.83	577.67
691.17	573.26
691.51	569.02
691.84	565.21
692.18	560.95
692.52	557.38
692.85	553.55
693.19	550.62
693.52	546.48
693.86	543.12
694.20	539.17
694.53	535.43
694.87	530.98
695.21	526.81
695.54	523.05
695.88	518.83
696.21	514.38
696.55	510.62
696.88	506.83
697.22	503.36
697.56	500.29
697.89	497.02
698.23	494.07
698.56	490.83
698.90	487.88
699.23	484.36
699.57	481.02
699.90	477.40
700.24	473.55
700.58	470.74
700.91	467.88
701.25	466.17
701.58	463.33
701.92	461.17
702.25	458.29
702.59	454.93
702.92	452.57
703.26	449.55
703.59	446.52
703.93	445.19
704.26	442.71
704.60	440.07
704.93	437.14
705.26	434.02
705.60	431.69
705.93	428.43
706.27	426.12
706.60	424.00
706.94	422.74
707.27	419.81
707.61	417.55
707.94	414.69
708.27	410.90
708.61	408.00
708.94	404.95
709.28	402.60
709.61	400.33
709.94	397.90
710.28	395.90
710.61	394.10
710.95	390.12
711.28	388.83
711.61	386.57
711.95	384.98
712.28	382.74
712.61	380.36
712.95	379.83
713.28	378.81
713.61	376.02
713.95	372.88
714.28	371.10
714.61	368.79
714.95	366.98
715.28	364.76
715.61	363.12
715.95	361.43
716.28	359.31
716.61	357.76
716.95	355.69
717.28	354.05
717.61	351.86
717.94	350.12
718.28	346.50
718.61	344.48
718.94	342.55
719.27	341.19
719.61	339.62
719.94	337.02
720.27	334.26
720.60	332.90
720.94	331.48
721.27	330.10
721.60	328.93
721.93	327.38
722.27	327.00
722.60	325.81
722.93	324.26
723.26	323.31
723.59	321.69
723.93	321.07
724.26	319.67
724.59	318.36
724.92	317.45
725.25	317.31
725.59	316.14
725.92	315.38
726.25	313.88
726.58	312.83
726.91	311.76
727.24	310.95
727.57	309.52
727.91	308.21
728.24	307.10
728.57	305.98
728.90	305.12
729.23	302.95
729.56	302.60
729.89	301.67
730.22	300.71
730.55	299.45
730.89	298.26
731.22	297.12
731.55	295.88
731.88	294.81
732.21	293.38
732.54	292.36
732.87	291.31
733.20	290.71
733.53	289.81
733.86	289.19
734.19	288.07
734.52	287.69
734.85	288.26
735.18	287.43
735.51	286.90
735.84	286.14
736.17	285.95
736.50	284.21
736.83	285.90
737.16	285.17
737.49	284.90
737.82	283.98
738.15	283.50
738.48	282.98
738.81	282.02
739.14	281.45
739.47	280.79
739.80	279.90
740.13	279.17
740.46	277.88
740.79	276.36
741.12	275.69
741.45	274.95
741.78	273.10
742.11	272.88
742.44	272.05
742.77	271.81
743.10	270.79
743.43	270.12
743.75	266.88
744.08	268.69
744.41	267.79
744.74	267.02
745.07	266.00
745.40	265.83
745.73	266.14
746.06	265.36
746.39	264.88
746.71	263.76
747.04	262.86
747.37	262.62
747.70	262.86
748.03	262.24
748.36	261.79
748.68	261.29
749.01	260.36
749.34	259.76
749.67	258.76
750.00	258.55
750.33	259.55
750.65	259.24
750.98	256.31
751.31	256.07
751.64	255.62
751.97	256.57
752.29	255.69
752.62	254.48
752.95	253.90
753.28	253.33
753.60	253.02
753.93	252.98
754.26	252.43
754.59	251.29
754.91	250.74
755.24	249.95
755.57	249.21
755.90	248.52
756.22	247.62
756.55	246.90
756.88	245.98
757.20	244.26
757.53	243.52
757.86	242.74
758.19	242.31
758.51	241.93
758.84	240.12
759.17	239.79
759.49	239.60
759.82	240.38
760.15	240.17
760.47	240.00
760.80	239.29
761.13	239.31
761.45	238.95
761.78	238.60
762.11	238.57
762.43	238.40
762.76	238.05
763.08	238.24
763.41	238.05
763.74	237.98
764.06	237.52
764.39	237.10
764.71	236.90
765.04	236.26
765.37	235.79
765.69	235.83
766.02	235.67
766.34	235.12
766.67	233.93
767.00	234.02
767.32	234.98
767.65	236.00
767.97	235.55
768.30	235.45
768.62	235.33
768.95	234.74
769.27	234.60
769.60	234.71
769.92	234.21
770.25	233.67
770.57	232.90
770.90	232.88
771.22	232.83
771.55	232.74
771.87	232.60
772.20	232.26
772.52	233.60
772.85	235.64
773.17	235.36
773.50	235.10
773.82	234.62
774.15	233.21
774.47	231.69
774.80	231.57
775.12	231.17
775.45	231.07
775.77	230.93
776.09	230.71
776.42	230.38
776.74	230.74
777.07	230.40
777.39	230.60
777.72	230.14
778.04	230.07
778.36	229.67
778.69	229.69
779.01	230.00
779.33	228.07
779.66	225.64
779.98	225.38
780.31	225.36
780.63	226.05
780.95	226.29
781.28	226.24
781.60	225.81
781.92	225.81
782.25	225.62
782.57	225.52
782.89	225.31
783.22	225.12
783.54	224.48
783.86	224.74
784.19	224.48
784.51	225.05
784.83	224.74
785.16	224.43
