SpectraSuite Data File
++++++++++++++++++++++++++++++++++++
Date: Tue Apr 02 18:43:26 EDT 2013
User: group
Dark Spectrum Present: No
Reference Spectrum Present: No
Number of Sampled Component Spectra: 1
Spectrometers: USB2E7196
Integration Time (usec): 580000 (USB2E7196)
Spectra Averaged: 2 (USB2E7196)
Boxcar Smoothing: 10 (USB2E7196)
Correct for Electrical Dark: No (USB2E7196)
Strobe/Lamp Enabled: No (USB2E7196)
Correct for Detector Non-linearity: No (USB2E7196)
Correct for Stray Light: No (USB2E7196)
Number of Pixels in Processed Spectrum: 2048
>>>>>Begin Processed Spectral Data<<<<<
339.09	0.00
339.48	193.00
339.86	197.00
340.24	193.00
340.63	196.50
341.01	231.50
341.39	201.50
341.78	208.50
342.16	214.50
342.54	204.50
342.93	197.83
343.31	207.74
343.69	208.45
344.07	208.76
344.46	209.76
344.84	210.36
345.22	209.26
345.60	209.67
345.99	209.52
346.37	209.48
346.75	209.67
347.13	209.57
347.52	209.52
347.90	210.07
348.28	210.14
348.66	210.95
349.05	210.40
349.43	210.71
349.81	210.74
350.19	210.86
350.57	210.83
350.96	211.12
351.34	211.07
351.72	210.93
352.10	211.17
352.48	210.76
352.87	210.62
353.25	210.62
353.63	210.40
354.01	210.62
354.39	210.64
354.77	210.64
355.15	211.21
355.54	211.10
355.92	210.36
356.30	210.40
356.68	211.48
357.06	211.29
357.44	210.93
357.82	210.98
358.20	211.93
358.58	211.90
358.97	211.93
359.35	212.43
359.73	212.83
360.11	213.00
360.49	213.05
360.87	213.02
361.25	213.17
361.63	214.12
362.01	214.14
362.39	213.86
362.77	213.86
363.15	213.93
363.53	213.69
363.91	213.83
364.29	213.95
364.67	211.98
365.05	212.24
365.43	212.50
365.81	212.81
366.19	212.90
366.57	213.71
366.95	213.48
367.33	213.07
367.71	213.17
368.09	213.57
368.47	213.86
368.85	213.93
369.23	214.43
369.61	213.69
369.99	214.45
370.37	214.79
370.75	216.07
371.13	215.50
371.51	215.55
371.89	215.79
372.27	215.79
372.65	215.86
373.03	215.88
373.41	215.81
373.78	215.88
374.16	214.69
374.54	214.19
374.92	214.02
375.30	214.02
375.68	213.79
376.06	213.60
376.44	213.45
376.82	213.69
377.19	213.48
377.57	213.52
377.95	212.74
378.33	212.45
378.71	211.05
379.09	211.55
379.47	211.83
379.84	211.64
380.22	211.52
380.60	211.26
380.98	211.07
381.36	211.12
381.73	210.69
382.11	211.29
382.49	211.29
382.87	211.21
383.25	211.02
383.62	213.50
384.00	213.26
384.38	213.36
384.76	213.69
385.13	214.52
385.51	214.62
385.89	214.33
386.27	214.52
386.64	214.95
387.02	214.71
387.40	214.45
387.78	214.60
388.15	214.79
388.53	214.93
388.91	215.05
389.29	214.98
389.66	215.45
390.04	215.05
390.42	215.62
390.79	215.95
391.17	216.43
391.55	214.00
391.92	213.98
392.30	214.10
392.68	213.79
393.05	213.64
393.43	213.57
393.81	213.83
394.18	213.57
394.56	213.45
394.94	213.67
395.31	213.64
395.69	214.26
396.06	214.74
396.44	214.90
396.82	214.81
397.19	215.93
397.57	215.74
397.95	216.19
398.32	215.52
398.70	215.76
399.07	216.21
399.45	216.05
399.82	215.86
400.20	215.64
400.58	215.64
400.95	214.86
401.33	215.29
401.70	216.81
402.08	217.24
402.45	217.38
402.83	217.90
403.20	218.10
403.58	217.81
403.95	217.88
404.33	218.31
404.71	218.74
405.08	219.76
405.46	219.93
405.83	220.29
406.21	220.62
406.58	221.05
406.96	221.02
407.33	221.76
407.70	222.64
408.08	224.88
408.45	225.76
408.83	226.64
409.20	227.12
409.58	226.69
409.95	227.67
410.33	228.90
410.70	229.33
411.08	230.62
411.45	231.81
411.82	232.48
412.20	233.76
412.57	236.26
412.95	236.02
413.32	237.86
413.69	239.21
414.07	241.02
414.44	242.69
414.82	244.62
415.19	246.86
415.56	249.14
415.94	250.50
416.31	253.50
416.68	256.52
417.06	259.81
417.43	263.38
417.81	266.69
418.18	270.26
418.55	274.12
418.93	278.14
419.30	282.45
419.67	287.26
420.04	291.55
420.42	295.64
420.79	302.74
421.16	308.48
421.54	315.43
421.91	321.60
422.28	327.60
422.66	334.57
423.03	342.45
423.40	349.31
423.77	356.31
424.15	363.57
424.52	371.00
424.89	379.19
425.26	386.83
425.64	395.00
426.01	403.10
426.38	411.86
426.75	420.86
427.13	430.10
427.50	439.55
427.87	450.17
428.24	460.17
428.61	468.62
428.99	479.69
429.36	490.19
429.73	500.62
430.10	512.33
430.47	523.93
430.85	534.60
431.22	547.36
431.59	562.00
431.96	574.60
432.33	589.26
432.70	603.62
433.08	619.79
433.45	634.57
433.82	649.71
434.19	666.24
434.56	683.50
434.93	699.31
435.30	715.07
435.68	732.24
436.05	749.17
436.42	766.12
436.79	781.48
437.16	798.48
437.53	817.14
437.90	835.00
438.27	852.81
438.64	871.02
439.01	887.55
439.38	901.26
439.75	915.33
440.13	931.62
440.50	946.36
440.87	959.10
441.24	972.24
441.61	986.55
441.98	998.12
442.35	1009.45
442.72	1022.50
443.09	1035.83
443.46	1043.50
443.83	1049.74
444.20	1054.81
444.57	1061.71
444.94	1065.36
445.31	1069.31
445.68	1074.93
446.05	1076.45
446.42	1075.33
446.79	1074.95
447.16	1073.07
447.53	1072.83
447.90	1066.64
448.27	1060.79
448.64	1052.40
449.01	1046.40
449.37	1035.64
449.74	1024.48
450.11	1013.95
450.48	998.88
450.85	983.10
451.22	970.33
451.59	957.86
451.96	945.86
452.33	929.64
452.70	915.10
453.07	897.43
453.43	877.95
453.80	861.52
454.17	845.60
454.54	829.83
454.91	813.81
455.28	797.64
455.65	783.02
456.02	771.26
456.38	758.40
456.75	742.86
457.12	729.55
457.49	716.93
457.86	702.45
458.23	692.60
458.59	680.86
458.96	669.26
459.33	658.55
459.70	647.79
460.07	639.90
460.43	630.52
460.80	621.88
461.17	614.55
461.54	605.81
461.91	597.79
462.27	589.71
462.64	582.60
463.01	575.05
463.38	568.26
463.74	557.86
464.11	550.95
464.48	545.40
464.85	539.24
465.21	534.40
465.58	529.64
465.95	522.81
466.32	518.00
466.68	512.79
467.05	507.93
467.42	503.45
467.78	497.90
468.15	492.83
468.52	489.10
468.88	483.29
469.25	478.69
469.62	475.43
469.98	471.38
470.35	468.02
470.72	464.74
471.08	459.83
471.45	457.17
471.82	454.88
472.18	451.12
472.55	448.86
472.92	445.33
473.28	442.21
473.65	439.64
474.02	437.05
474.38	434.79
474.75	432.83
475.11	430.24
475.48	428.62
475.85	426.67
476.21	424.86
476.58	423.69
476.94	422.48
477.31	420.90
477.67	419.57
478.04	418.45
478.41	417.29
478.77	418.64
479.14	417.48
479.50	416.55
479.87	416.43
480.23	416.00
480.60	415.45
480.96	415.52
481.33	416.62
481.69	416.33
482.06	416.60
482.42	416.95
482.79	417.64
483.15	417.98
483.52	419.00
483.88	419.67
484.25	420.00
484.61	420.98
484.98	421.60
485.34	423.50
485.71	424.88
486.07	426.31
486.44	426.02
486.80	427.19
487.17	428.45
487.53	430.86
487.90	433.05
488.26	436.07
488.62	438.69
488.99	439.88
489.35	443.19
489.72	445.86
490.08	448.21
490.44	450.71
490.81	454.07
491.17	456.88
491.54	460.38
491.90	464.67
492.26	468.24
492.63	472.29
492.99	475.38
493.36	479.38
493.72	483.40
494.08	487.86
494.45	492.62
494.81	498.00
495.17	502.14
495.54	507.24
495.90	511.31
496.26	516.24
496.63	521.95
496.99	526.95
497.35	532.76
497.72	538.45
498.08	544.43
498.44	550.52
498.80	557.52
499.17	563.67
499.53	569.40
499.89	576.17
500.26	582.48
500.62	589.43
500.98	596.83
501.34	603.93
501.71	611.05
502.07	618.05
502.43	624.86
502.79	632.21
503.16	638.81
503.52	646.36
503.88	653.12
504.24	660.29
504.60	668.21
504.97	675.76
505.33	683.86
505.69	692.45
506.05	699.95
506.41	706.90
506.78	714.62
507.14	722.43
507.50	730.02
507.86	738.17
508.22	745.86
508.59	752.74
508.95	760.90
509.31	770.00
509.67	778.12
510.03	785.60
510.39	793.05
510.75	800.83
511.12	809.10
511.48	816.79
511.84	824.38
512.20	831.74
512.56	839.60
512.92	847.60
513.28	854.79
513.64	862.29
514.00	870.17
514.37	877.14
514.73	884.24
515.09	891.95
515.45	898.90
515.81	905.90
516.17	913.02
516.53	919.26
516.89	924.38
517.25	930.69
517.61	938.33
517.97	944.90
518.33	951.52
518.69	957.60
519.05	964.43
519.41	970.95
519.77	978.33
520.13	984.02
520.49	988.69
520.85	994.31
521.21	1000.71
521.57	1006.74
521.93	1012.69
522.29	1019.17
522.65	1023.93
523.01	1029.93
523.37	1034.76
523.73	1039.98
524.09	1045.60
524.45	1051.45
524.81	1056.55
525.17	1060.52
525.53	1065.29
525.89	1070.43
526.25	1075.02
526.61	1078.60
526.97	1082.19
527.33	1086.12
527.68	1092.10
528.04	1096.81
528.40	1101.02
528.76	1104.71
529.12	1108.76
529.48	1113.79
529.84	1116.93
530.20	1121.05
530.56	1124.95
530.91	1129.40
531.27	1134.00
531.63	1138.64
531.99	1141.79
532.35	1145.95
532.71	1149.83
533.07	1155.12
533.42	1160.98
533.78	1165.48
534.14	1170.45
534.50	1174.62
534.86	1178.40
535.21	1180.38
535.57	1184.45
535.93	1188.48
536.29	1193.71
536.65	1197.57
537.00	1200.71
537.36	1204.48
537.72	1208.48
538.08	1211.88
538.44	1214.86
538.79	1218.38
539.15	1220.33
539.51	1224.31
539.87	1227.57
540.22	1231.45
540.58	1234.17
540.94	1235.81
541.29	1239.93
541.65	1242.38
542.01	1246.64
542.37	1249.31
542.72	1252.17
543.08	1253.95
543.44	1256.71
543.79	1257.69
544.15	1260.40
544.51	1263.60
544.87	1267.10
545.22	1270.76
545.58	1273.43
545.94	1276.76
546.29	1279.12
546.65	1283.12
547.01	1285.24
547.36	1288.07
547.72	1291.07
548.07	1294.29
548.43	1296.21
548.79	1297.60
549.14	1300.76
549.50	1303.24
549.86	1305.36
550.21	1308.17
550.57	1312.00
550.92	1314.05
551.28	1317.71
551.64	1320.95
551.99	1323.83
552.35	1326.24
552.70	1327.79
553.06	1331.14
553.41	1334.10
553.77	1339.33
554.13	1341.83
554.48	1346.50
554.84	1350.88
555.19	1354.21
555.55	1358.14
555.90	1362.02
556.26	1365.26
556.61	1368.38
556.97	1371.90
557.32	1375.76
557.68	1379.64
558.03	1382.48
558.39	1386.33
558.74	1389.07
559.10	1392.81
559.45	1396.31
559.81	1400.76
560.16	1405.21
560.52	1408.86
560.87	1413.55
561.23	1416.05
561.58	1422.45
561.94	1425.60
562.29	1428.74
562.64	1433.24
563.00	1436.36
563.35	1441.45
563.71	1446.48
564.06	1452.43
564.42	1456.76
564.77	1463.31
565.12	1469.31
565.48	1478.07
565.83	1484.50
566.19	1491.26
566.54	1496.45
566.89	1502.36
567.25	1508.76
567.60	1516.33
567.96	1524.64
568.31	1531.71
568.66	1538.10
569.02	1542.05
569.37	1547.76
569.72	1553.55
570.08	1558.52
570.43	1563.90
570.78	1568.38
571.14	1574.45
571.49	1579.38
571.84	1585.74
572.20	1589.67
572.55	1594.40
572.90	1597.33
573.26	1602.00
573.61	1605.76
573.96	1610.19
574.31	1613.86
574.67	1617.86
575.02	1620.29
575.37	1622.48
575.72	1624.60
576.08	1629.00
576.43	1633.69
576.78	1637.98
577.13	1642.19
577.49	1645.71
577.84	1650.38
578.19	1654.40
578.54	1658.55
578.90	1662.69
579.25	1666.21
579.60	1669.88
579.95	1672.43
580.30	1675.69
580.66	1679.07
581.01	1682.62
581.36	1686.05
581.71	1688.83
582.06	1692.43
582.42	1696.95
582.77	1699.12
583.12	1702.60
583.47	1705.02
583.82	1708.19
584.17	1711.69
584.53	1714.71
584.88	1718.17
585.23	1721.67
585.58	1725.36
585.93	1727.38
586.28	1729.60
586.63	1731.86
586.98	1734.57
587.34	1738.40
587.69	1740.60
588.04	1742.79
588.39	1746.02
588.74	1747.26
589.09	1750.02
589.44	1750.98
589.79	1752.12
590.14	1754.83
590.49	1757.14
590.84	1758.17
591.19	1758.81
591.54	1759.36
591.89	1759.74
592.25	1762.88
592.60	1762.50
592.95	1764.07
593.30	1765.38
593.65	1766.07
594.00	1766.26
594.35	1772.67
594.70	1773.02
595.05	1774.12
595.40	1775.19
595.75	1775.02
596.10	1777.50
596.45	1779.52
596.80	1780.29
597.15	1780.98
597.50	1781.57
597.85	1782.45
598.19	1783.21
598.54	1783.71
598.89	1784.69
599.24	1787.05
599.59	1785.93
599.94	1786.76
600.29	1786.71
600.64	1786.79
600.99	1787.31
601.34	1789.10
601.69	1783.71
602.04	1783.48
602.39	1783.19
602.74	1782.52
603.08	1782.48
603.43	1782.60
603.78	1781.43
604.13	1781.12
604.48	1780.64
604.83	1780.10
605.18	1779.95
605.53	1779.38
605.87	1778.45
606.22	1777.95
606.57	1775.90
606.92	1774.26
607.27	1772.79
607.62	1771.55
607.96	1770.64
608.31	1769.88
608.66	1768.07
609.01	1767.02
609.36	1766.45
609.70	1764.88
610.05	1763.14
610.40	1761.62
610.75	1758.50
611.10	1756.83
611.44	1754.88
611.79	1752.48
612.14	1750.93
612.49	1746.02
612.83	1743.31
613.18	1740.02
613.53	1736.67
613.88	1733.74
614.22	1730.93
614.57	1727.36
614.92	1723.57
615.27	1720.33
615.61	1715.43
615.96	1711.88
616.31	1707.79
616.65	1704.67
617.00	1701.60
617.35	1697.86
617.70	1694.67
618.04	1691.05
618.39	1686.67
618.74	1682.24
619.08	1677.50
619.43	1673.26
619.78	1671.64
620.12	1667.48
620.47	1664.86
620.82	1660.43
621.16	1656.17
621.51	1653.71
621.85	1649.45
622.20	1645.38
622.55	1640.88
622.89	1637.33
623.24	1632.83
623.59	1629.05
623.93	1624.05
624.28	1619.60
624.62	1618.24
624.97	1615.26
625.32	1611.43
625.66	1607.55
626.01	1603.48
626.35	1599.98
626.70	1594.95
627.04	1591.05
627.39	1586.98
627.73	1583.24
628.08	1580.36
628.43	1575.76
628.77	1570.74
629.12	1568.60
629.46	1565.12
629.81	1560.60
630.15	1556.17
630.50	1552.33
630.84	1546.81
631.19	1542.00
631.53	1536.76
631.88	1528.88
632.22	1521.74
632.57	1516.81
632.91	1511.90
633.26	1508.36
633.60	1502.64
633.95	1498.14
634.29	1492.26
634.64	1487.90
634.98	1482.52
635.32	1477.79
635.67	1474.45
636.01	1469.95
636.36	1463.40
636.70	1458.64
637.05	1454.05
637.39	1450.00
637.73	1445.26
638.08	1442.31
638.42	1437.86
638.77	1433.74
639.11	1430.24
639.45	1425.38
639.80	1420.60
640.14	1415.95
640.49	1409.57
640.83	1404.90
641.17	1399.19
641.52	1394.10
641.86	1389.05
642.20	1384.69
642.55	1378.10
642.89	1371.81
643.23	1365.79
643.58	1361.52
643.92	1355.07
644.26	1348.81
644.61	1343.19
644.95	1336.76
645.29	1329.17
645.64	1322.62
645.98	1317.26
646.32	1311.36
646.66	1304.57
647.01	1297.98
647.35	1291.90
647.69	1286.69
648.04	1280.88
648.38	1275.62
648.72	1268.98
649.06	1263.07
649.41	1255.69
649.75	1249.79
650.09	1243.76
650.43	1236.40
650.78	1229.71
651.12	1223.76
651.46	1217.71
651.80	1211.14
652.14	1204.83
652.49	1199.98
652.83	1194.43
653.17	1186.17
653.51	1178.83
653.85	1173.17
654.20	1166.88
654.54	1159.52
654.88	1152.55
655.22	1146.74
655.56	1139.57
655.90	1133.26
656.25	1126.19
656.59	1119.69
656.93	1113.40
657.27	1107.67
657.61	1101.98
657.95	1095.93
658.29	1089.19
658.64	1083.69
658.98	1076.74
659.32	1069.74
659.66	1062.40
660.00	1055.69
660.34	1050.17
660.68	1044.00
661.02	1037.67
661.36	1031.31
661.70	1025.33
662.05	1018.64
662.39	1012.69
662.73	1007.55
663.07	1002.62
663.41	996.48
663.75	989.93
664.09	984.24
664.43	977.69
664.77	971.19
665.11	964.40
665.45	958.86
665.79	952.14
666.13	946.62
666.47	941.60
666.81	935.50
667.15	929.14
667.49	923.90
667.83	918.74
668.17	913.33
668.51	907.90
668.85	902.86
669.19	898.71
669.53	892.48
669.87	886.17
670.21	879.62
670.55	873.74
670.89	869.48
671.23	863.31
671.57	857.50
671.91	852.74
672.25	847.14
672.58	842.00
672.92	836.12
673.26	830.12
673.60	824.31
673.94	819.48
674.28	815.14
674.62	809.81
674.96	804.38
675.30	799.62
675.64	794.26
675.97	789.17
676.31	783.40
676.65	778.19
676.99	774.19
677.33	769.50
677.67	765.00
678.01	759.24
678.34	754.71
678.68	750.38
679.02	744.90
679.36	740.29
679.70	734.98
680.04	730.88
680.37	726.43
680.71	721.74
681.05	717.52
681.39	712.52
681.73	707.64
682.06	702.69
682.40	698.12
682.74	694.14
683.08	689.93
683.42	684.98
683.75	681.07
684.09	676.19
684.43	671.57
684.77	666.95
685.10	662.60
685.44	658.00
685.78	653.24
686.12	649.43
686.45	644.93
686.79	640.26
687.13	635.90
687.46	631.36
687.80	627.79
688.14	623.40
688.48	618.83
688.81	614.74
689.15	611.86
689.49	607.02
689.82	602.76
690.16	597.79
690.50	593.86
690.83	588.88
691.17	583.93
691.51	579.48
691.84	575.86
692.18	571.48
692.52	567.71
692.85	564.21
693.19	560.98
693.52	557.38
693.86	553.43
694.20	549.57
694.53	546.07
694.87	541.88
695.21	537.57
695.54	534.24
695.88	529.95
696.21	524.81
696.55	521.33
696.88	517.33
697.22	513.67
697.56	510.60
697.89	507.33
698.23	504.17
698.56	500.64
698.90	496.86
699.23	493.79
699.57	490.14
699.90	486.36
700.24	482.19
700.58	478.67
700.91	475.74
701.25	474.36
701.58	471.83
701.92	468.71
702.25	465.57
702.59	462.21
702.92	459.67
703.26	457.05
703.59	454.12
703.93	453.12
704.26	450.95
704.60	447.74
704.93	444.86
705.26	442.05
705.60	439.71
705.93	436.81
706.27	434.31
706.60	431.95
706.94	429.98
707.27	427.24
707.61	425.05
707.94	422.10
708.27	417.40
708.61	414.10
708.94	411.93
709.28	409.79
709.61	407.33
709.94	405.29
710.28	403.19
710.61	401.31
710.95	397.19
711.28	396.21
711.61	394.31
711.95	392.76
712.28	390.48
712.61	388.10
712.95	386.86
713.28	385.48
713.61	383.02
713.95	380.45
714.28	378.55
714.61	376.24
714.95	374.57
715.28	372.76
715.61	371.12
715.95	369.00
716.28	366.60
716.61	364.83
716.95	362.38
717.28	360.29
717.61	358.05
717.94	355.88
718.28	352.17
718.61	350.00
718.94	347.81
719.27	346.17
719.61	344.57
719.94	342.38
720.27	339.74
720.60	337.98
720.94	336.36
721.27	334.76
721.60	333.67
721.93	332.00
722.27	331.31
722.60	329.76
722.93	327.95
723.26	326.81
723.59	325.29
723.93	324.24
724.26	322.95
724.59	321.50
724.92	320.57
725.25	320.10
725.59	318.81
725.92	317.71
726.25	316.50
726.58	315.50
726.91	314.43
727.24	313.81
727.57	312.74
727.91	311.24
728.24	310.60
728.57	309.00
728.90	308.07
729.23	306.33
729.56	306.29
729.89	305.31
730.22	304.24
730.55	302.81
730.89	301.60
731.22	300.55
731.55	299.76
731.88	299.05
732.21	297.81
732.54	296.57
732.87	295.48
733.20	294.52
733.53	293.38
733.86	292.52
734.19	291.07
734.52	290.48
734.85	291.24
735.18	289.83
735.51	289.88
735.84	289.55
736.17	289.12
736.50	287.17
736.83	288.83
737.16	288.21
737.49	287.57
737.82	286.79
738.15	286.10
738.48	285.17
738.81	284.12
739.14	282.67
739.47	281.95
739.80	281.21
740.13	280.83
740.46	279.64
740.79	278.31
741.12	277.55
741.45	276.33
741.78	274.24
742.11	274.14
742.44	272.93
742.77	272.10
743.10	271.14
743.43	270.21
743.75	267.45
744.08	269.12
744.41	268.43
744.74	267.74
745.07	266.57
745.40	266.21
745.73	266.43
746.06	266.17
746.39	265.74
746.71	264.74
747.04	263.67
747.37	263.45
747.70	263.24
748.03	262.86
748.36	262.95
748.68	262.52
749.01	261.21
749.34	260.40
749.67	259.74
750.00	259.45
750.33	260.69
750.65	260.26
750.98	257.40
751.31	257.02
751.64	256.45
751.97	257.45
752.29	256.74
752.62	255.21
752.95	254.67
753.28	253.90
753.60	253.33
753.93	253.52
754.26	252.95
754.59	251.90
754.91	251.24
755.24	250.45
755.57	249.83
755.90	249.31
756.22	248.74
756.55	248.12
756.88	247.24
757.20	245.57
757.53	244.40
757.86	243.88
758.19	243.67
758.51	243.24
758.84	241.40
759.17	240.88
759.49	240.79
759.82	241.29
760.15	241.43
760.47	241.21
760.80	240.33
761.13	240.33
761.45	240.19
761.78	239.60
762.11	239.02
762.43	238.57
762.76	238.40
763.08	238.36
763.41	238.17
763.74	238.14
764.06	237.71
764.39	237.74
764.71	237.26
765.04	236.55
765.37	236.14
765.69	235.98
766.02	235.57
766.34	234.98
766.67	233.81
767.00	233.71
767.32	234.57
767.65	235.36
767.97	234.83
768.30	234.62
768.62	234.62
768.95	234.33
769.27	234.14
769.60	234.05
769.92	233.57
770.25	233.02
770.57	232.52
770.90	232.31
771.22	231.88
771.55	231.69
771.87	231.62
772.20	231.57
772.52	233.24
772.85	235.83
773.17	235.60
773.50	235.38
773.82	234.60
774.15	233.38
774.47	231.83
774.80	231.48
775.12	231.12
775.45	230.90
775.77	230.90
776.09	230.60
776.42	230.50
776.74	231.21
777.07	231.02
777.39	230.88
777.72	230.43
778.04	230.38
778.36	230.17
778.69	230.05
779.01	229.95
779.33	228.02
779.66	225.43
779.98	225.17
780.31	225.10
780.63	225.81
780.95	226.17
781.28	226.05
781.60	225.67
781.92	225.74
782.25	225.48
782.57	225.24
782.89	225.02
783.22	224.57
783.54	223.50
783.86	223.45
784.19	223.02
784.51	223.67
784.83	223.43
785.16	223.48
