SpectraSuite Data File
++++++++++++++++++++++++++++++++++++
Date: Tue Apr 02 18:41:27 EDT 2013
User: group
Dark Spectrum Present: No
Reference Spectrum Present: No
Number of Sampled Component Spectra: 1
Spectrometers: USB2E7196
Integration Time (usec): 580000 (USB2E7196)
Spectra Averaged: 2 (USB2E7196)
Boxcar Smoothing: 10 (USB2E7196)
Correct for Electrical Dark: No (USB2E7196)
Strobe/Lamp Enabled: No (USB2E7196)
Correct for Detector Non-linearity: No (USB2E7196)
Correct for Stray Light: No (USB2E7196)
Number of Pixels in Processed Spectrum: 2048
>>>>>Begin Processed Spectral Data<<<<<
339.09	0.00
339.48	197.00
339.86	193.50
340.24	193.50
340.63	197.00
341.01	234.50
341.39	199.00
341.78	204.50
342.16	214.50
342.54	208.50
342.93	198.74
343.31	208.71
343.69	209.14
344.07	210.00
344.46	211.00
344.84	211.98
345.22	210.79
345.60	211.43
345.99	211.88
346.37	211.64
346.75	211.81
347.13	212.07
347.52	212.21
347.90	212.88
348.28	212.93
348.66	213.69
349.05	213.00
349.43	213.26
349.81	213.29
350.19	213.26
350.57	213.33
350.96	213.64
351.34	213.95
351.72	214.29
352.10	214.14
352.48	213.90
352.87	213.50
353.25	213.50
353.63	213.50
354.01	213.31
354.39	213.52
354.77	213.33
355.15	214.07
355.54	213.57
355.92	212.64
356.30	212.67
356.68	213.69
357.06	213.90
357.44	213.50
357.82	213.50
358.20	214.40
358.58	214.21
358.97	214.24
359.35	214.50
359.73	214.69
360.11	214.69
360.49	214.74
360.87	214.86
361.25	214.93
361.63	215.40
362.01	215.62
362.39	215.38
362.77	215.64
363.15	215.38
363.53	215.74
363.91	216.02
364.29	215.86
364.67	213.93
365.05	214.10
365.43	214.45
365.81	214.62
366.19	214.64
366.57	215.36
366.95	215.52
367.33	214.76
367.71	214.60
368.09	214.98
368.47	214.95
368.85	215.00
369.23	215.60
369.61	214.86
369.99	215.29
370.37	215.67
370.75	216.50
371.13	216.10
371.51	215.43
371.89	215.62
372.27	215.86
372.65	216.00
373.03	215.74
373.41	215.45
373.78	215.31
374.16	214.31
374.54	213.55
374.92	213.10
375.30	213.62
375.68	213.14
376.06	213.36
376.44	213.24
376.82	213.12
377.19	212.98
377.57	212.98
377.95	212.48
378.33	212.00
378.71	210.93
379.09	211.21
379.47	211.67
379.84	211.45
380.22	211.17
380.60	210.90
380.98	210.93
381.36	210.83
381.73	210.57
382.11	210.93
382.49	211.05
382.87	210.93
383.25	210.67
383.62	213.26
384.00	212.69
384.38	213.05
384.76	213.64
385.13	214.26
385.51	214.60
385.89	214.19
386.27	214.62
386.64	214.83
387.02	214.52
387.40	214.29
387.78	214.45
388.15	214.79
388.53	214.79
388.91	214.93
389.29	215.02
389.66	215.19
390.04	215.33
390.42	215.69
390.79	215.95
391.17	215.98
391.55	213.76
391.92	213.88
392.30	213.93
392.68	213.62
393.05	213.36
393.43	213.17
393.81	213.36
394.18	213.05
394.56	213.21
394.94	213.79
395.31	213.64
395.69	214.36
396.06	214.40
396.44	214.62
396.82	214.38
397.19	215.52
397.57	215.43
397.95	215.57
398.32	214.93
398.70	215.05
399.07	215.57
399.45	215.40
399.82	215.43
400.20	215.26
400.58	215.02
400.95	214.36
401.33	215.07
401.70	216.67
402.08	216.98
402.45	216.95
402.83	217.40
403.20	217.74
403.58	217.38
403.95	218.05
404.33	218.52
404.71	218.90
405.08	219.86
405.46	220.38
405.83	220.45
406.21	220.86
406.58	221.31
406.96	221.29
407.33	222.12
407.70	222.71
408.08	224.86
408.45	226.02
408.83	227.33
409.20	227.38
409.58	226.95
409.95	228.00
410.33	229.36
410.70	229.74
411.08	231.02
411.45	232.12
411.82	232.74
412.20	234.52
412.57	236.86
412.95	236.52
413.32	238.17
413.69	239.74
414.07	241.60
414.44	243.64
414.82	245.86
415.19	248.02
415.56	250.38
415.94	251.50
416.31	254.19
416.68	256.67
417.06	260.33
417.43	263.90
417.81	267.31
418.18	270.69
418.55	274.50
418.93	278.81
419.30	283.29
419.67	288.05
420.04	292.48
420.42	296.86
420.79	304.17
421.16	309.98
421.54	317.36
421.91	323.76
422.28	329.90
422.66	336.74
423.03	344.86
423.40	352.00
423.77	359.64
424.15	367.12
424.52	375.19
424.89	383.60
425.26	391.52
425.64	399.40
426.01	408.21
426.38	417.69
426.75	427.19
427.13	436.45
427.50	446.52
427.87	456.60
428.24	466.71
428.61	475.60
428.99	487.26
429.36	497.88
429.73	509.29
430.10	520.90
430.47	532.95
430.85	543.90
431.22	556.71
431.59	571.62
431.96	584.95
432.33	599.60
432.70	614.17
433.08	630.95
433.45	646.98
433.82	663.40
434.19	680.36
434.56	697.57
434.93	713.93
435.30	729.48
435.68	747.38
436.05	765.55
436.42	783.14
436.79	799.05
437.16	817.45
437.53	835.88
437.90	854.74
438.27	872.40
438.64	891.50
439.01	909.38
439.38	924.17
439.75	938.98
440.13	955.64
440.50	971.62
440.87	984.83
441.24	998.10
441.61	1011.90
441.98	1023.29
442.35	1035.50
442.72	1048.95
443.09	1063.14
443.46	1071.45
443.83	1076.57
444.20	1080.86
444.57	1087.64
444.94	1090.10
445.31	1093.90
445.68	1099.64
446.05	1101.86
446.42	1100.12
446.79	1098.64
447.16	1096.40
447.53	1095.45
447.90	1089.71
448.27	1083.00
448.64	1073.81
449.01	1067.83
449.37	1056.90
449.74	1045.00
450.11	1033.88
450.48	1018.81
450.85	1002.50
451.22	989.43
451.59	977.36
451.96	966.07
452.33	949.57
452.70	935.12
453.07	917.67
453.43	897.14
453.80	880.50
454.17	864.21
454.54	848.55
454.91	831.81
455.28	814.98
455.65	799.05
456.02	787.48
456.38	775.14
456.75	759.21
457.12	745.33
457.49	732.71
457.86	717.62
458.23	706.90
458.59	695.14
458.96	682.40
459.33	671.24
459.70	660.12
460.07	651.86
460.43	641.67
460.80	632.50
461.17	625.40
461.54	616.69
461.91	608.62
462.27	599.95
462.64	592.74
463.01	585.43
463.38	578.81
463.74	567.50
464.11	559.86
464.48	553.83
464.85	547.19
465.21	542.83
465.58	538.02
465.95	531.48
466.32	525.95
466.68	521.07
467.05	515.71
467.42	510.71
467.78	505.14
468.15	500.36
468.52	496.76
468.88	490.93
469.25	486.05
469.62	482.45
469.98	478.21
470.35	474.43
470.72	470.76
471.08	466.02
471.45	463.48
471.82	460.93
472.18	457.10
472.55	454.88
472.92	450.98
473.28	447.81
473.65	444.83
474.02	442.45
474.38	440.24
474.75	438.64
475.11	436.10
475.48	434.43
475.85	432.81
476.21	430.88
476.58	429.19
476.94	427.67
477.31	426.48
477.67	425.57
478.04	424.45
478.41	423.62
478.77	424.90
479.14	423.52
479.50	422.43
479.87	422.19
480.23	421.26
480.60	420.64
480.96	420.38
481.33	421.19
481.69	420.88
482.06	420.74
482.42	420.71
482.79	421.07
483.15	421.36
483.52	421.90
483.88	422.45
484.25	422.88
484.61	423.71
484.98	424.00
485.34	425.52
485.71	427.02
486.07	428.00
486.44	427.86
486.80	429.26
487.17	430.69
487.53	432.74
487.90	435.14
488.26	438.31
488.62	440.60
488.99	442.31
489.35	445.24
489.72	448.00
490.08	450.90
490.44	454.07
490.81	457.45
491.17	460.69
491.54	463.76
491.90	468.00
492.26	471.52
492.63	475.62
492.99	479.07
493.36	483.07
493.72	488.24
494.08	492.74
494.45	497.69
494.81	503.02
495.17	508.17
495.54	513.98
495.90	518.29
496.26	523.50
496.63	529.31
496.99	534.88
497.35	540.74
497.72	546.90
498.08	552.74
498.44	558.33
498.80	564.55
499.17	571.17
499.53	577.26
499.89	584.74
500.26	591.64
500.62	599.19
500.98	606.71
501.34	613.29
501.71	621.00
502.07	628.26
502.43	635.19
502.79	642.36
503.16	649.14
503.52	657.10
503.88	664.38
504.24	672.07
504.60	679.76
504.97	688.14
505.33	695.55
505.69	703.95
506.05	712.19
506.41	720.38
506.78	728.81
507.14	736.62
507.50	744.40
507.86	752.88
508.22	760.40
508.59	767.64
508.95	775.95
509.31	784.07
509.67	791.98
510.03	799.95
510.39	807.98
510.75	815.43
511.12	823.21
511.48	831.79
511.84	839.33
512.20	847.31
512.56	854.57
512.92	863.38
513.28	871.36
513.64	878.93
514.00	886.36
514.37	893.36
514.73	901.33
515.09	909.14
515.45	915.64
515.81	923.07
516.17	930.50
516.53	936.88
516.89	942.69
517.25	949.60
517.61	957.31
517.97	964.24
518.33	971.67
518.69	978.12
519.05	985.24
519.41	991.93
519.77	999.19
520.13	1005.50
520.49	1010.31
520.85	1015.93
521.21	1023.26
521.57	1029.62
521.93	1034.88
522.29	1040.86
522.65	1046.02
523.01	1052.48
523.37	1057.76
523.73	1063.62
524.09	1069.14
524.45	1075.40
524.81	1080.60
525.17	1085.83
525.53	1090.50
525.89	1095.60
526.25	1101.21
526.61	1105.12
526.97	1109.60
527.33	1113.83
527.68	1120.05
528.04	1125.29
528.40	1129.90
528.76	1133.95
529.12	1138.29
529.48	1144.55
529.84	1148.79
530.20	1153.81
530.56	1157.88
530.91	1162.52
531.27	1166.60
531.63	1172.00
531.99	1175.43
532.35	1179.62
532.71	1183.40
533.07	1188.19
533.42	1194.52
533.78	1198.98
534.14	1203.33
534.50	1207.67
534.86	1212.57
535.21	1215.48
535.57	1220.12
535.93	1224.12
536.29	1228.69
536.65	1233.57
537.00	1236.26
537.36	1240.60
537.72	1243.69
538.08	1247.79
538.44	1251.31
538.79	1254.74
539.15	1257.74
539.51	1262.21
539.87	1266.45
540.22	1270.21
540.58	1273.71
540.94	1275.69
541.29	1278.64
541.65	1281.71
542.01	1285.81
542.37	1288.60
542.72	1291.50
543.08	1293.48
543.44	1297.36
543.79	1298.90
544.15	1301.21
544.51	1304.88
544.87	1308.07
545.22	1311.67
545.58	1315.05
545.94	1318.48
546.29	1322.45
546.65	1325.60
547.01	1328.24
547.36	1331.02
547.72	1333.64
548.07	1337.57
548.43	1339.74
548.79	1342.81
549.14	1345.95
549.50	1349.36
549.86	1352.12
550.21	1355.24
550.57	1360.12
550.92	1362.79
551.28	1367.36
551.64	1371.00
551.99	1374.83
552.35	1377.43
552.70	1380.52
553.06	1384.21
553.41	1387.26
553.77	1392.17
554.13	1395.83
554.48	1400.69
554.84	1406.24
555.19	1410.88
555.55	1415.38
555.90	1419.62
556.26	1423.98
556.61	1428.95
556.97	1432.17
557.32	1436.43
557.68	1441.07
558.03	1444.17
558.39	1448.57
558.74	1452.29
559.10	1456.33
559.45	1460.83
559.81	1465.52
560.16	1470.26
560.52	1474.48
560.87	1479.86
561.23	1483.07
561.58	1488.83
561.94	1492.98
562.29	1496.60
562.64	1501.26
563.00	1505.05
563.35	1510.12
563.71	1514.67
564.06	1519.17
564.42	1524.83
564.77	1531.29
565.12	1537.26
565.48	1544.95
565.83	1550.98
566.19	1556.62
566.54	1561.98
566.89	1567.40
567.25	1574.14
567.60	1581.90
567.96	1588.93
568.31	1595.00
568.66	1601.74
569.02	1605.98
569.37	1611.26
569.72	1617.12
570.08	1622.57
570.43	1627.36
570.78	1632.57
571.14	1638.83
571.49	1644.38
571.84	1649.43
572.20	1653.26
572.55	1657.71
572.90	1660.48
573.26	1664.26
573.61	1667.29
573.96	1672.36
574.31	1675.50
574.67	1678.93
575.02	1680.38
575.37	1683.21
575.72	1685.83
576.08	1688.62
576.43	1692.60
576.78	1695.24
577.13	1697.69
577.49	1701.69
577.84	1705.64
578.19	1709.83
578.54	1712.83
578.90	1716.07
579.25	1719.26
579.60	1722.24
579.95	1724.12
580.30	1727.17
580.66	1731.45
581.01	1736.17
581.36	1738.67
581.71	1741.95
582.06	1745.90
582.42	1750.24
582.77	1751.93
583.12	1755.38
583.47	1758.10
583.82	1760.90
584.17	1765.10
584.53	1768.29
584.88	1770.26
585.23	1773.07
585.58	1774.71
585.93	1776.21
586.28	1777.79
586.63	1779.21
586.98	1781.12
587.34	1785.05
587.69	1786.43
588.04	1786.93
588.39	1788.57
588.74	1788.52
589.09	1789.81
589.44	1789.21
589.79	1790.12
590.14	1792.26
590.49	1792.64
590.84	1793.69
591.19	1794.29
591.54	1794.31
591.89	1794.64
592.25	1796.74
592.60	1796.60
592.95	1796.76
593.30	1797.71
593.65	1798.57
594.00	1798.14
594.35	1803.88
594.70	1802.10
595.05	1802.31
595.40	1802.26
595.75	1802.50
596.10	1803.98
596.45	1804.55
596.80	1805.26
597.15	1804.98
597.50	1804.86
597.85	1805.33
598.19	1805.05
598.54	1804.90
598.89	1804.60
599.24	1804.79
599.59	1803.07
599.94	1802.26
600.29	1802.45
600.64	1801.38
600.99	1801.00
601.34	1802.67
601.69	1796.69
602.04	1795.76
602.39	1794.79
602.74	1794.52
603.08	1793.05
603.43	1793.00
603.78	1791.55
604.13	1789.86
604.48	1788.21
604.83	1787.50
605.18	1786.43
605.53	1785.02
605.87	1783.48
606.22	1781.21
606.57	1778.17
606.92	1775.50
607.27	1773.55
607.62	1771.43
607.96	1770.24
608.31	1768.31
608.66	1765.43
609.01	1762.74
609.36	1761.74
609.70	1759.43
610.05	1756.48
610.40	1754.05
610.75	1750.74
611.10	1748.21
611.44	1745.45
611.79	1742.10
612.14	1738.74
612.49	1734.79
612.83	1730.83
613.18	1726.38
613.53	1723.02
613.88	1719.33
614.22	1715.33
614.57	1711.26
614.92	1706.88
615.27	1702.19
615.61	1696.90
615.96	1692.12
616.31	1687.62
616.65	1683.17
617.00	1678.95
617.35	1674.50
617.70	1669.71
618.04	1664.26
618.39	1659.26
618.74	1655.48
619.08	1650.74
619.43	1645.33
619.78	1640.38
620.12	1635.95
620.47	1632.26
620.82	1626.88
621.16	1622.07
621.51	1618.31
621.85	1613.29
622.20	1608.14
622.55	1602.45
622.89	1598.12
623.24	1593.79
623.59	1588.62
623.93	1583.69
624.28	1579.14
624.62	1576.86
624.97	1572.90
625.32	1569.38
625.66	1565.43
626.01	1559.95
626.35	1555.26
626.70	1550.62
627.04	1547.40
627.39	1543.21
627.73	1539.62
628.08	1536.21
628.43	1532.33
628.77	1527.07
629.12	1523.52
629.46	1519.31
629.81	1515.12
630.15	1509.05
630.50	1503.67
630.84	1499.05
631.19	1493.88
631.53	1487.55
631.88	1479.21
632.22	1472.29
632.57	1467.02
632.91	1460.81
633.26	1455.76
633.60	1450.43
633.95	1443.95
634.29	1436.64
634.64	1430.14
634.98	1423.14
635.32	1417.86
635.67	1412.67
636.01	1408.02
636.36	1401.36
636.70	1396.71
637.05	1391.50
637.39	1387.93
637.73	1382.86
638.08	1378.52
638.42	1373.05
638.77	1368.71
639.11	1363.64
639.45	1358.81
639.80	1351.52
640.14	1345.69
640.49	1339.45
640.83	1332.81
641.17	1327.57
641.52	1321.79
641.86	1316.64
642.20	1312.36
642.55	1305.38
642.89	1299.10
643.23	1292.36
643.58	1287.90
643.92	1280.29
644.26	1274.29
644.61	1267.38
644.95	1260.81
645.29	1253.21
645.64	1247.05
645.98	1240.43
646.32	1234.88
646.66	1227.64
647.01	1221.60
647.35	1215.19
647.69	1209.10
648.04	1203.36
648.38	1196.48
648.72	1190.31
649.06	1183.64
649.41	1175.60
649.75	1169.05
650.09	1162.60
650.43	1155.76
650.78	1148.14
651.12	1141.71
651.46	1134.71
651.80	1128.05
652.14	1120.86
652.49	1115.24
652.83	1108.24
653.17	1101.48
653.51	1093.74
653.85	1088.17
654.20	1081.43
654.54	1074.98
654.88	1067.40
655.22	1061.36
655.56	1055.43
655.90	1048.88
656.25	1042.33
656.59	1036.29
656.93	1030.79
657.27	1025.12
657.61	1018.76
657.95	1012.71
658.29	1006.69
658.64	1000.86
658.98	994.10
659.32	987.64
659.66	981.50
660.00	974.88
660.34	968.64
660.68	962.62
661.02	955.45
661.36	949.74
661.70	944.14
662.05	938.95
662.39	933.50
662.73	928.10
663.07	923.24
663.41	917.10
663.75	910.57
664.09	903.95
664.43	896.88
664.77	890.57
665.11	883.79
665.45	877.88
665.79	871.90
666.13	866.26
666.47	860.86
666.81	854.36
667.15	849.10
667.49	843.90
667.83	839.52
668.17	834.38
668.51	829.02
668.85	823.31
669.19	818.69
669.53	812.21
669.87	806.26
670.21	800.43
670.55	794.64
670.89	790.50
671.23	785.52
671.57	780.64
671.91	775.62
672.25	771.14
672.58	766.31
672.92	760.74
673.26	756.14
673.60	751.17
673.94	746.50
674.28	742.00
674.62	737.76
674.96	731.93
675.30	727.69
675.64	722.76
675.97	718.48
676.31	713.05
676.65	708.26
676.99	704.45
677.33	699.31
677.67	695.00
678.01	689.33
678.34	684.81
678.68	680.19
679.02	675.86
679.36	671.19
679.70	666.26
680.04	661.74
680.37	656.86
680.71	652.62
681.05	648.55
681.39	644.07
681.73	638.71
682.06	634.31
682.40	629.98
682.74	626.21
683.08	622.14
683.42	617.81
683.75	613.71
684.09	608.88
684.43	604.71
684.77	600.40
685.10	596.48
685.44	591.88
685.78	587.45
686.12	583.33
686.45	578.79
686.79	574.67
687.13	571.24
687.46	567.19
687.80	563.24
688.14	558.38
688.48	554.33
688.81	550.43
689.15	547.02
689.49	542.76
689.82	538.36
690.16	533.93
690.50	530.07
690.83	526.48
691.17	522.24
691.51	518.12
691.84	514.57
692.18	510.83
692.52	507.76
692.85	504.60
693.19	501.74
693.52	498.40
693.86	495.10
694.20	491.21
694.53	487.95
694.87	484.17
695.21	480.88
695.54	477.31
695.88	474.00
696.21	470.05
696.55	466.74
696.88	463.64
697.22	460.29
697.56	457.10
697.89	453.88
698.23	451.55
698.56	448.71
698.90	445.98
699.23	442.90
699.57	439.86
699.90	436.64
700.24	433.38
700.58	430.62
700.91	427.90
701.25	427.05
701.58	425.19
701.92	423.29
702.25	421.21
702.59	418.36
702.92	415.74
703.26	413.62
703.59	411.14
703.93	410.64
704.26	408.38
704.60	406.02
704.93	403.31
705.26	400.36
705.60	398.57
705.93	395.81
706.27	394.36
706.60	392.60
706.94	391.31
707.27	388.71
707.61	386.93
707.94	384.74
708.27	380.79
708.61	377.95
708.94	375.60
709.28	373.43
709.61	371.52
709.94	369.88
710.28	368.02
710.61	366.29
710.95	362.17
711.28	361.55
711.61	360.00
711.95	359.05
712.28	357.36
712.61	354.98
712.95	354.40
713.28	353.36
713.61	351.14
713.95	348.79
714.28	347.57
714.61	345.83
714.95	343.76
715.28	342.19
715.61	340.19
715.95	338.64
716.28	337.07
716.61	335.74
716.95	334.05
717.28	331.83
717.61	329.95
717.94	328.67
718.28	325.74
718.61	323.93
718.94	322.02
719.27	320.31
719.61	319.40
719.94	317.19
720.27	314.43
720.60	312.76
720.94	311.55
721.27	310.17
721.60	309.07
721.93	308.26
722.27	307.93
722.60	307.24
722.93	305.90
723.26	304.52
723.59	303.21
723.93	302.21
724.26	301.64
724.59	300.60
724.92	299.60
725.25	299.29
725.59	298.36
725.92	297.43
726.25	296.62
726.58	295.71
726.91	295.07
727.24	294.81
727.57	294.26
727.91	292.86
728.24	292.14
728.57	290.95
728.90	290.07
729.23	288.48
729.56	288.33
729.89	287.60
730.22	286.71
730.55	285.76
730.89	285.02
731.22	284.26
731.55	283.26
731.88	282.67
732.21	281.36
732.54	280.38
732.87	279.55
733.20	279.05
733.53	278.31
733.86	277.67
734.19	276.29
734.52	275.67
734.85	276.38
735.18	275.33
735.51	275.33
735.84	274.71
736.17	274.57
736.50	273.05
736.83	274.60
737.16	274.24
737.49	273.93
737.82	273.17
738.15	272.71
738.48	272.40
738.81	271.60
739.14	270.71
739.47	270.12
739.80	269.40
740.13	268.64
740.46	267.50
740.79	266.40
741.12	265.93
741.45	264.95
741.78	263.60
742.11	263.64
742.44	262.74
742.77	262.64
743.10	261.52
743.43	260.88
743.75	258.24
744.08	260.00
744.41	259.33
744.74	258.50
745.07	257.33
745.40	257.24
745.73	257.45
746.06	257.19
746.39	256.95
746.71	256.21
747.04	255.45
747.37	255.12
747.70	255.05
748.03	254.57
748.36	254.57
748.68	253.88
749.01	252.60
749.34	251.90
749.67	251.17
750.00	251.36
750.33	252.38
750.65	252.17
750.98	249.43
751.31	249.00
751.64	248.90
751.97	249.83
752.29	248.90
752.62	247.62
752.95	247.14
753.28	246.50
753.60	246.24
753.93	246.45
754.26	246.26
754.59	245.45
754.91	245.02
755.24	244.48
755.57	243.83
755.90	243.76
756.22	243.31
756.55	242.48
756.88	241.48
757.20	239.86
757.53	238.93
757.86	238.57
758.19	238.43
758.51	238.05
758.84	236.67
759.17	236.36
759.49	236.19
759.82	236.86
760.15	236.88
760.47	236.67
760.80	235.83
761.13	235.76
761.45	235.40
761.78	235.21
762.11	235.00
762.43	235.02
762.76	234.69
763.08	234.67
763.41	234.71
763.74	234.43
764.06	234.05
764.39	234.02
764.71	233.71
765.04	233.14
765.37	232.86
765.69	232.79
766.02	232.67
766.34	232.26
766.67	231.17
767.00	231.10
767.32	232.05
767.65	233.02
767.97	232.76
768.30	232.48
768.62	232.19
768.95	231.50
769.27	231.17
769.60	231.19
769.92	230.38
770.25	229.95
770.57	229.36
770.90	229.14
771.22	228.45
771.55	228.31
771.87	228.29
772.20	227.86
772.52	229.45
772.85	231.88
773.17	231.86
773.50	231.69
773.82	231.21
774.15	229.71
774.47	228.24
774.80	227.76
775.12	227.95
775.45	227.88
775.77	228.17
776.09	228.07
776.42	227.86
776.74	228.64
777.07	228.19
777.39	228.31
777.72	228.21
778.04	228.43
778.36	228.10
778.69	227.83
779.01	227.93
779.33	225.90
779.66	223.40
779.98	223.24
780.31	223.33
780.63	224.17
780.95	224.79
781.28	224.81
781.60	224.52
781.92	224.29
782.25	224.12
782.57	223.81
782.89	223.52
783.22	223.40
783.54	222.74
783.86	222.93
784.19	222.86
784.51	223.24
784.83	222.98
785.16	223.07
