SpectraSuite Data File
++++++++++++++++++++++++++++++++++++
Date: Tue Apr 02 18:42:21 EDT 2013
User: group
Dark Spectrum Present: No
Reference Spectrum Present: No
Number of Sampled Component Spectra: 1
Spectrometers: USB2E7196
Integration Time (usec): 580000 (USB2E7196)
Spectra Averaged: 2 (USB2E7196)
Boxcar Smoothing: 10 (USB2E7196)
Correct for Electrical Dark: No (USB2E7196)
Strobe/Lamp Enabled: No (USB2E7196)
Correct for Detector Non-linearity: No (USB2E7196)
Correct for Stray Light: No (USB2E7196)
Number of Pixels in Processed Spectrum: 2048
>>>>>Begin Processed Spectral Data<<<<<
339.09	0.00
339.48	190.00
339.86	196.50
340.24	194.50
340.63	198.50
341.01	238.00
341.39	199.00
341.78	203.50
342.16	208.00
342.54	207.00
342.93	197.19
343.31	207.02
343.69	207.81
344.07	208.33
344.46	209.19
344.84	209.74
345.22	208.10
345.60	208.64
345.99	209.00
346.37	209.05
346.75	209.17
347.13	209.36
347.52	209.33
347.90	210.07
348.28	210.19
348.66	210.86
349.05	210.31
349.43	210.45
349.81	210.60
350.19	210.52
350.57	210.76
350.96	210.95
351.34	211.33
351.72	211.33
352.10	211.38
352.48	211.24
352.87	211.10
353.25	211.26
353.63	211.05
354.01	210.88
354.39	210.88
354.77	211.05
355.15	211.55
355.54	211.50
355.92	210.76
356.30	211.00
356.68	212.10
357.06	211.98
357.44	211.60
357.82	211.69
358.20	212.86
358.58	212.62
358.97	212.71
359.35	212.95
359.73	213.48
360.11	213.45
360.49	213.50
360.87	213.69
361.25	214.02
361.63	214.93
362.01	215.05
362.39	215.14
362.77	215.24
363.15	214.95
363.53	214.95
363.91	215.36
364.29	215.02
364.67	213.10
365.05	213.24
365.43	213.60
365.81	213.64
366.19	213.93
366.57	214.81
366.95	214.98
367.33	214.38
367.71	214.36
368.09	214.76
368.47	214.57
368.85	214.55
369.23	214.95
369.61	214.26
369.99	214.79
370.37	215.10
370.75	215.93
371.13	215.45
371.51	215.48
371.89	215.74
372.27	215.81
372.65	216.26
373.03	216.36
373.41	216.21
373.78	216.45
374.16	215.38
374.54	214.98
374.92	214.43
375.30	214.79
375.68	214.33
376.06	214.57
376.44	214.64
376.82	214.74
377.19	214.83
377.57	214.67
377.95	214.14
378.33	213.93
378.71	212.71
379.09	213.36
379.47	213.29
379.84	213.00
380.22	213.05
380.60	212.60
380.98	212.40
381.36	212.36
381.73	212.02
382.11	212.48
382.49	212.43
382.87	212.31
383.25	212.31
383.62	214.52
384.00	213.81
384.38	214.00
384.76	214.31
385.13	214.67
385.51	214.83
385.89	214.69
386.27	214.83
386.64	215.36
387.02	215.12
387.40	215.12
387.78	215.12
388.15	215.19
388.53	215.07
388.91	215.26
389.29	215.48
389.66	215.69
390.04	215.31
390.42	215.79
390.79	216.02
391.17	216.10
391.55	214.14
391.92	214.31
392.30	214.40
392.68	214.21
393.05	214.19
393.43	214.43
393.81	214.60
394.18	214.17
394.56	214.14
394.94	214.67
395.31	214.26
395.69	214.81
396.06	214.95
396.44	215.29
396.82	215.02
397.19	216.05
397.57	216.07
397.95	216.24
398.32	215.52
398.70	215.71
399.07	215.95
399.45	215.95
399.82	216.05
400.20	215.90
400.58	215.74
400.95	215.00
401.33	215.21
401.70	216.64
402.08	216.93
402.45	216.69
402.83	217.12
403.20	217.55
403.58	217.67
403.95	218.36
404.33	218.90
404.71	219.45
405.08	220.45
405.46	220.67
405.83	220.98
406.21	221.50
406.58	222.10
406.96	222.31
407.33	223.10
407.70	223.74
408.08	226.00
408.45	227.05
408.83	228.21
409.20	228.79
409.58	228.36
409.95	229.38
410.33	230.64
410.70	230.81
411.08	232.07
411.45	233.07
411.82	233.81
412.20	235.38
412.57	237.76
412.95	237.29
413.32	238.98
413.69	240.45
414.07	242.12
414.44	243.81
414.82	245.93
415.19	248.19
415.56	250.60
415.94	251.86
416.31	254.55
416.68	257.05
417.06	260.55
417.43	264.24
417.81	267.88
418.18	271.40
418.55	275.10
418.93	279.05
419.30	283.21
419.67	287.93
420.04	292.07
420.42	296.19
420.79	303.48
421.16	309.12
421.54	316.12
421.91	322.31
422.28	328.48
422.66	334.76
423.03	342.38
423.40	349.43
423.77	356.29
424.15	363.55
424.52	371.55
424.89	380.26
425.26	387.48
425.64	394.83
426.01	403.24
426.38	412.31
426.75	422.31
427.13	431.67
427.50	441.55
427.87	451.67
428.24	461.69
428.61	470.21
428.99	481.31
429.36	492.14
429.73	503.71
430.10	515.40
430.47	527.29
430.85	538.07
431.22	550.60
431.59	565.50
431.96	578.36
432.33	592.67
432.70	605.88
433.08	622.55
433.45	638.19
433.82	653.76
434.19	670.90
434.56	687.71
434.93	703.38
435.30	718.71
435.68	736.60
436.05	754.17
436.42	771.62
436.79	787.86
437.16	804.52
437.53	822.67
437.90	840.74
438.27	858.90
438.64	877.24
439.01	894.79
439.38	909.29
439.75	923.98
440.13	941.00
440.50	957.69
440.87	970.79
441.24	984.26
441.61	999.00
441.98	1009.52
442.35	1021.55
442.72	1035.38
443.09	1048.67
443.46	1056.64
443.83	1062.38
444.20	1066.95
444.57	1073.48
444.94	1077.14
445.31	1080.62
445.68	1086.26
446.05	1088.07
446.42	1086.90
446.79	1085.83
447.16	1083.71
447.53	1082.79
447.90	1076.17
448.27	1069.10
448.64	1060.64
449.01	1054.52
449.37	1042.95
449.74	1032.67
450.11	1020.95
450.48	1004.86
450.85	989.29
451.22	976.36
451.59	964.17
451.96	951.69
452.33	935.55
452.70	921.45
453.07	903.67
453.43	883.64
453.80	866.88
454.17	851.21
454.54	835.17
454.91	818.76
455.28	802.29
455.65	787.21
456.02	775.38
456.38	762.48
456.75	746.07
457.12	732.88
457.49	719.64
457.86	705.43
458.23	695.86
458.59	684.26
458.96	672.48
459.33	661.55
459.70	651.52
460.07	643.21
460.43	633.29
460.80	625.24
461.17	618.05
461.54	609.67
461.91	601.05
462.27	592.67
462.64	585.48
463.01	578.12
463.38	571.31
463.74	560.48
464.11	553.76
464.48	548.48
464.85	542.05
465.21	537.74
465.58	533.10
465.95	526.62
466.32	521.55
466.68	515.62
467.05	509.67
467.42	505.02
467.78	499.26
468.15	494.19
468.52	490.00
468.88	484.24
469.25	479.10
469.62	476.00
469.98	471.81
470.35	468.19
470.72	464.74
471.08	460.21
471.45	457.60
471.82	454.67
472.18	451.40
472.55	448.69
472.92	444.64
473.28	441.24
473.65	438.29
474.02	435.62
474.38	433.81
474.75	432.55
475.11	429.69
475.48	428.17
475.85	426.57
476.21	424.55
476.58	423.52
476.94	422.74
477.31	421.10
477.67	419.90
478.04	418.79
478.41	418.29
478.77	419.62
479.14	418.38
479.50	417.67
479.87	417.24
480.23	417.10
480.60	416.81
480.96	416.67
481.33	417.81
481.69	417.74
482.06	417.71
482.42	418.45
482.79	419.10
483.15	419.33
483.52	420.00
483.88	420.29
484.25	420.64
484.61	421.10
484.98	421.88
485.34	423.62
485.71	425.14
486.07	426.00
486.44	425.86
486.80	427.19
487.17	428.52
487.53	430.62
487.90	432.90
488.26	435.88
488.62	438.36
488.99	439.90
489.35	442.48
489.72	444.83
490.08	446.90
490.44	449.69
490.81	453.02
491.17	455.74
491.54	459.29
491.90	463.10
492.26	467.00
492.63	471.10
492.99	474.48
493.36	478.40
493.72	483.24
494.08	487.36
494.45	492.50
494.81	497.45
495.17	501.76
495.54	507.00
495.90	511.81
496.26	516.81
496.63	522.62
496.99	528.14
497.35	534.69
497.72	540.55
498.08	546.36
498.44	552.76
498.80	559.79
499.17	566.26
499.53	572.36
499.89	579.50
500.26	585.90
500.62	593.02
500.98	600.33
501.34	607.36
501.71	614.74
502.07	621.93
502.43	628.90
502.79	636.36
503.16	643.33
503.52	650.55
503.88	658.10
504.24	665.81
504.60	673.31
504.97	680.29
505.33	687.69
505.69	696.93
506.05	704.07
506.41	712.00
506.78	720.02
507.14	728.12
507.50	735.43
507.86	743.40
508.22	751.52
508.59	758.79
508.95	767.10
509.31	775.79
509.67	783.69
510.03	791.83
510.39	799.64
510.75	807.71
511.12	815.26
511.48	823.17
511.84	830.24
512.20	837.76
512.56	845.45
512.92	853.74
513.28	860.81
513.64	868.33
514.00	875.38
514.37	882.81
514.73	890.24
515.09	897.83
515.45	904.57
515.81	911.57
516.17	919.02
516.53	924.79
516.89	930.62
517.25	937.21
517.61	943.86
517.97	950.43
518.33	956.62
518.69	963.57
519.05	969.81
519.41	976.71
519.77	984.19
520.13	990.45
520.49	995.50
520.85	1000.98
521.21	1007.98
521.57	1014.12
521.93	1019.14
522.29	1024.93
522.65	1030.02
523.01	1036.69
523.37	1041.52
523.73	1046.74
524.09	1052.55
524.45	1057.79
524.81	1062.71
525.17	1067.50
525.53	1072.10
525.89	1076.74
526.25	1081.64
526.61	1086.55
526.97	1090.10
527.33	1094.29
527.68	1100.62
528.04	1105.40
528.40	1109.10
528.76	1112.98
529.12	1116.57
529.48	1121.71
529.84	1126.14
530.20	1130.26
530.56	1134.10
530.91	1138.71
531.27	1142.95
531.63	1146.90
531.99	1150.55
532.35	1154.31
532.71	1157.93
533.07	1163.12
533.42	1169.90
533.78	1173.83
534.14	1177.90
534.50	1182.50
534.86	1187.29
535.21	1189.76
535.57	1194.14
535.93	1198.57
536.29	1203.57
536.65	1208.19
537.00	1212.05
537.36	1215.76
537.72	1219.90
538.08	1224.00
538.44	1227.10
538.79	1230.86
539.15	1234.17
539.51	1238.48
539.87	1242.21
540.22	1246.31
540.58	1249.52
540.94	1250.81
541.29	1253.71
541.65	1256.05
542.01	1259.14
542.37	1261.79
542.72	1263.71
543.08	1266.33
543.44	1269.12
543.79	1270.14
544.15	1273.48
544.51	1276.69
544.87	1279.17
545.22	1282.07
545.58	1284.33
545.94	1287.45
546.29	1290.64
546.65	1293.50
547.01	1295.64
547.36	1299.26
547.72	1301.50
548.07	1304.38
548.43	1306.55
548.79	1308.83
549.14	1311.55
549.50	1315.43
549.86	1316.86
550.21	1320.69
550.57	1324.05
550.92	1327.05
551.28	1330.40
551.64	1332.88
551.99	1335.88
552.35	1338.45
552.70	1341.05
553.06	1344.60
553.41	1348.36
553.77	1352.79
554.13	1356.93
554.48	1361.67
554.84	1365.50
555.19	1370.14
555.55	1374.29
555.90	1378.71
556.26	1383.14
556.61	1387.40
556.97	1389.76
557.32	1394.14
557.68	1396.86
558.03	1400.76
558.39	1404.74
558.74	1409.45
559.10	1412.86
559.45	1416.88
559.81	1421.98
560.16	1426.60
560.52	1430.98
560.87	1435.62
561.23	1438.21
561.58	1443.21
561.94	1447.19
562.29	1450.98
562.64	1455.67
563.00	1459.86
563.35	1464.38
563.71	1469.79
564.06	1474.43
564.42	1480.60
564.77	1486.40
565.12	1493.83
565.48	1501.21
565.83	1506.79
566.19	1512.02
566.54	1518.50
566.89	1524.21
567.25	1529.83
567.60	1536.81
567.96	1543.76
568.31	1550.05
568.66	1556.38
569.02	1560.26
569.37	1565.64
569.72	1571.62
570.08	1576.98
570.43	1581.64
570.78	1587.52
571.14	1591.90
571.49	1597.74
571.84	1603.57
572.20	1608.62
572.55	1612.60
572.90	1615.79
573.26	1620.67
573.61	1625.02
573.96	1629.60
574.31	1633.17
574.67	1636.76
575.02	1639.21
575.37	1641.52
575.72	1644.57
576.08	1648.12
576.43	1652.43
576.78	1655.81
577.13	1659.14
577.49	1662.07
577.84	1666.33
578.19	1669.05
578.54	1673.60
578.90	1677.45
579.25	1679.90
579.60	1682.31
579.95	1685.07
580.30	1687.83
580.66	1691.38
581.01	1694.81
581.36	1696.55
581.71	1698.95
582.06	1704.36
582.42	1708.71
582.77	1711.02
583.12	1713.76
583.47	1717.19
583.82	1721.24
584.17	1724.93
584.53	1728.50
584.88	1731.12
585.23	1734.24
585.58	1736.19
585.93	1737.19
586.28	1740.05
586.63	1742.79
586.98	1746.19
587.34	1750.07
587.69	1752.90
588.04	1755.12
588.39	1757.50
588.74	1758.74
589.09	1761.31
589.44	1760.93
589.79	1763.12
590.14	1765.45
590.49	1767.93
590.84	1768.52
591.19	1769.40
591.54	1770.00
591.89	1769.50
592.25	1771.98
592.60	1771.48
592.95	1773.00
593.30	1775.62
593.65	1775.52
594.00	1775.38
594.35	1781.12
594.70	1780.95
595.05	1780.74
595.40	1780.67
595.75	1780.86
596.10	1782.88
596.45	1784.10
596.80	1784.93
597.15	1784.10
597.50	1784.38
597.85	1784.05
598.19	1784.24
598.54	1783.67
598.89	1783.31
599.24	1784.52
599.59	1784.29
599.94	1784.86
600.29	1785.71
600.64	1784.57
600.99	1784.60
601.34	1785.48
601.69	1779.36
602.04	1778.05
602.39	1778.36
602.74	1778.71
603.08	1777.36
603.43	1778.00
603.78	1777.52
604.13	1776.62
604.48	1775.52
604.83	1775.10
605.18	1774.67
605.53	1774.57
605.87	1773.67
606.22	1772.38
606.57	1770.48
606.92	1768.36
607.27	1767.88
607.62	1766.95
607.96	1766.45
608.31	1766.29
608.66	1764.48
609.01	1762.62
609.36	1761.64
609.70	1759.86
610.05	1756.07
610.40	1754.07
610.75	1751.07
611.10	1748.33
611.44	1745.98
611.79	1743.64
612.14	1740.50
612.49	1736.31
612.83	1732.90
613.18	1730.55
613.53	1728.26
613.88	1724.93
614.22	1721.88
614.57	1718.24
614.92	1713.81
615.27	1709.86
615.61	1704.19
615.96	1700.29
616.31	1696.52
616.65	1693.50
617.00	1689.74
617.35	1686.86
617.70	1682.74
618.04	1678.48
618.39	1674.12
618.74	1670.31
619.08	1665.79
619.43	1661.31
619.78	1657.38
620.12	1654.00
620.47	1649.45
620.82	1643.74
621.16	1639.38
621.51	1636.26
621.85	1630.43
622.20	1624.48
622.55	1619.26
622.89	1615.93
623.24	1611.95
623.59	1607.95
623.93	1603.50
624.28	1599.21
624.62	1596.55
624.97	1595.07
625.32	1590.50
625.66	1586.74
626.01	1581.62
626.35	1578.57
626.70	1574.69
627.04	1571.76
627.39	1566.69
627.73	1563.19
628.08	1560.38
628.43	1556.71
628.77	1551.40
629.12	1548.45
629.46	1545.93
629.81	1542.48
630.15	1536.48
630.50	1530.60
630.84	1525.76
631.19	1520.05
631.53	1514.29
631.88	1507.17
632.22	1499.71
632.57	1495.29
632.91	1490.00
633.26	1485.12
633.60	1478.69
633.95	1473.62
634.29	1467.55
634.64	1462.38
634.98	1455.81
635.32	1451.05
635.67	1446.40
636.01	1441.62
636.36	1435.93
636.70	1431.74
637.05	1426.31
637.39	1422.40
637.73	1418.31
638.08	1413.62
638.42	1408.31
638.77	1403.83
639.11	1398.88
639.45	1393.36
639.80	1387.64
640.14	1382.79
640.49	1377.02
640.83	1371.60
641.17	1366.29
641.52	1360.83
641.86	1355.55
642.20	1351.24
642.55	1344.31
642.89	1337.69
643.23	1331.36
643.58	1326.55
643.92	1319.00
644.26	1312.98
644.61	1306.64
644.95	1300.38
645.29	1293.71
645.64	1288.31
645.98	1281.90
646.32	1276.43
646.66	1270.48
647.01	1264.05
647.35	1257.29
647.69	1251.26
648.04	1246.52
648.38	1240.45
648.72	1234.02
649.06	1227.31
649.41	1220.26
649.75	1214.05
650.09	1208.05
650.43	1200.95
650.78	1193.98
651.12	1188.26
651.46	1182.33
651.80	1176.60
652.14	1170.45
652.49	1164.71
652.83	1158.17
653.17	1151.40
653.51	1144.50
653.85	1138.38
654.20	1131.83
654.54	1124.79
654.88	1118.21
655.22	1111.50
655.56	1104.43
655.90	1097.24
656.25	1090.76
656.59	1083.76
656.93	1077.90
657.27	1072.19
657.61	1066.64
657.95	1060.29
658.29	1053.24
658.64	1046.69
658.98	1039.45
659.32	1031.62
659.66	1025.19
660.00	1018.83
660.34	1012.69
660.68	1006.12
661.02	999.17
661.36	992.98
661.70	987.05
662.05	981.02
662.39	974.71
662.73	969.52
663.07	965.38
663.41	959.50
663.75	953.50
664.09	947.26
664.43	940.57
664.77	934.14
665.11	928.07
665.45	922.29
665.79	916.38
666.13	910.62
666.47	905.60
666.81	899.24
667.15	893.12
667.49	888.05
667.83	883.55
668.17	878.43
668.51	872.98
668.85	867.83
669.19	863.38
669.53	856.64
669.87	850.64
670.21	844.02
670.55	837.83
670.89	833.76
671.23	828.55
671.57	822.71
671.91	817.31
672.25	812.10
672.58	807.71
672.92	801.74
673.26	796.64
673.60	790.81
673.94	785.88
674.28	780.83
674.62	775.93
674.96	770.45
675.30	765.67
675.64	760.69
675.97	755.76
676.31	749.57
676.65	744.90
676.99	740.38
677.33	735.60
677.67	731.31
678.01	725.64
678.34	721.00
678.68	716.90
679.02	712.31
679.36	707.52
679.70	701.90
680.04	697.24
680.37	692.21
680.71	688.00
681.05	683.45
681.39	679.07
681.73	674.10
682.06	669.17
682.40	664.50
682.74	660.21
683.08	656.19
683.42	652.50
683.75	648.31
684.09	643.21
684.43	638.79
684.77	634.29
685.10	629.69
685.44	625.33
685.78	620.74
686.12	616.79
686.45	612.17
686.79	607.86
687.13	604.00
687.46	600.07
687.80	596.55
688.14	592.52
688.48	588.21
688.81	584.02
689.15	580.55
689.49	576.31
689.82	572.48
690.16	567.29
690.50	562.60
690.83	558.43
691.17	554.62
691.51	550.81
691.84	547.14
692.18	543.29
692.52	539.21
692.85	535.74
693.19	532.71
693.52	528.98
693.86	525.07
694.20	521.48
694.53	517.95
694.87	513.88
695.21	510.26
695.54	506.93
695.88	502.62
696.21	497.83
696.55	494.12
696.88	490.38
697.22	487.19
697.56	484.57
697.89	481.17
698.23	477.93
698.56	474.02
698.90	470.74
699.23	467.29
699.57	464.14
699.90	460.62
700.24	456.74
700.58	453.60
700.91	451.29
701.25	449.88
701.58	447.38
701.92	445.07
702.25	442.14
702.59	438.76
702.92	436.48
703.26	434.81
703.59	432.57
703.93	431.55
704.26	429.19
704.60	426.67
704.93	424.10
705.26	421.21
705.60	419.45
705.93	416.64
706.27	415.02
706.60	413.24
706.94	411.55
707.27	408.74
707.61	406.43
707.94	403.76
708.27	399.60
708.61	396.57
708.94	393.90
709.28	391.38
709.61	389.19
709.94	387.10
710.28	384.64
710.61	382.12
710.95	377.90
711.28	376.90
711.61	374.57
711.95	373.29
712.28	371.52
712.61	369.24
712.95	368.36
713.28	367.14
713.61	364.67
713.95	362.14
714.28	360.74
714.61	358.90
714.95	357.00
715.28	355.05
715.61	353.10
715.95	351.74
716.28	349.98
716.61	348.60
716.95	346.33
717.28	344.64
717.61	343.10
717.94	341.62
718.28	338.45
718.61	336.81
718.94	334.52
719.27	332.81
719.61	331.69
719.94	329.67
720.27	326.98
720.60	325.21
720.94	323.83
721.27	322.69
721.60	321.52
721.93	320.17
722.27	319.55
722.60	318.62
722.93	316.69
723.26	315.52
723.59	313.95
723.93	313.38
724.26	312.31
724.59	311.14
724.92	310.26
725.25	310.10
725.59	308.74
725.92	308.10
726.25	307.07
726.58	305.76
726.91	304.69
727.24	304.02
727.57	303.21
727.91	302.00
728.24	300.64
728.57	299.57
728.90	298.79
729.23	297.12
729.56	297.17
729.89	296.31
730.22	295.10
730.55	294.12
730.89	293.10
731.22	291.86
731.55	290.64
731.88	289.98
732.21	288.62
732.54	287.86
732.87	286.81
733.20	286.02
733.53	285.02
733.86	284.40
734.19	283.19
734.52	282.36
734.85	282.69
735.18	281.60
735.51	281.29
735.84	280.67
736.17	280.55
736.50	278.86
736.83	280.45
737.16	280.19
737.49	279.60
737.82	278.74
738.15	278.24
738.48	277.60
738.81	276.64
739.14	275.60
739.47	274.64
739.80	273.88
740.13	273.40
740.46	272.29
740.79	271.02
741.12	270.40
741.45	269.60
741.78	268.07
742.11	268.12
742.44	267.19
742.77	266.69
743.10	265.55
743.43	264.67
743.75	261.79
744.08	263.50
744.41	262.62
744.74	262.05
745.07	261.07
745.40	260.86
745.73	260.90
746.06	260.29
746.39	260.19
746.71	259.17
747.04	258.21
747.37	257.79
747.70	257.88
748.03	257.57
748.36	257.50
748.68	256.71
749.01	255.43
749.34	254.76
749.67	254.24
750.00	254.24
750.33	255.14
750.65	255.07
750.98	252.33
751.31	252.31
751.64	251.88
751.97	252.60
752.29	252.02
752.62	250.79
752.95	250.36
753.28	249.26
753.60	249.02
753.93	249.21
754.26	248.93
754.59	247.79
754.91	247.00
755.24	246.00
755.57	245.86
755.90	245.38
756.22	244.74
756.55	244.21
756.88	243.43
757.20	242.05
757.53	241.00
757.86	240.67
758.19	240.33
758.51	239.71
758.84	238.29
759.17	237.95
759.49	237.71
759.82	238.48
760.15	238.33
760.47	238.31
760.80	237.36
761.13	237.33
761.45	236.98
761.78	236.79
762.11	236.74
762.43	236.43
762.76	236.40
763.08	236.50
763.41	236.31
763.74	236.14
764.06	235.62
764.39	235.60
764.71	234.98
765.04	234.50
765.37	234.36
765.69	234.24
766.02	233.93
766.34	233.62
766.67	232.36
767.00	232.93
767.32	233.38
767.65	234.12
767.97	233.69
768.30	233.60
768.62	233.33
768.95	232.98
769.27	232.71
769.60	232.71
769.92	232.19
770.25	231.57
770.57	231.05
770.90	230.90
771.22	230.48
771.55	230.40
771.87	230.45
772.20	230.26
772.52	231.69
772.85	233.90
773.17	233.90
773.50	233.69
773.82	233.14
774.15	232.02
774.47	230.86
774.80	230.57
775.12	230.36
775.45	230.31
775.77	230.45
776.09	230.43
776.42	230.14
776.74	230.64
777.07	230.12
777.39	230.00
777.72	229.71
778.04	229.74
778.36	229.33
778.69	229.26
779.01	229.02
779.33	227.29
779.66	225.17
779.98	224.83
780.31	225.02
780.63	225.64
780.95	225.86
781.28	225.76
781.60	225.79
781.92	225.71
782.25	225.67
782.57	225.60
782.89	225.14
783.22	225.00
783.54	224.36
783.86	224.76
784.19	224.74
784.51	225.29
784.83	224.79
785.16	224.93
