SpectraSuite Data File
++++++++++++++++++++++++++++++++++++
Date: Tue Apr 02 18:45:24 EDT 2013
User: group
Dark Spectrum Present: No
Reference Spectrum Present: No
Number of Sampled Component Spectra: 1
Spectrometers: USB2E7196
Integration Time (usec): 580000 (USB2E7196)
Spectra Averaged: 2 (USB2E7196)
Boxcar Smoothing: 10 (USB2E7196)
Correct for Electrical Dark: No (USB2E7196)
Strobe/Lamp Enabled: No (USB2E7196)
Correct for Detector Non-linearity: No (USB2E7196)
Correct for Stray Light: No (USB2E7196)
Number of Pixels in Processed Spectrum: 2048
>>>>>Begin Processed Spectral Data<<<<<
339.09	0.00
339.48	191.00
339.86	197.50
340.24	192.50
340.63	196.50
341.01	230.50
341.39	201.50
341.78	206.50
342.16	205.50
342.54	204.00
342.93	196.24
343.31	206.00
343.69	206.69
344.07	207.05
344.46	207.74
344.84	208.29
345.22	207.05
345.60	207.38
345.99	207.43
346.37	207.67
346.75	207.79
347.13	207.88
347.52	208.29
347.90	209.17
348.28	209.05
348.66	209.48
349.05	208.90
349.43	208.98
349.81	209.43
350.19	209.52
350.57	209.48
350.96	209.26
351.34	209.40
351.72	209.45
352.10	209.55
352.48	209.45
352.87	209.45
353.25	209.55
353.63	209.40
354.01	209.52
354.39	209.83
354.77	209.90
355.15	210.69
355.54	210.26
355.92	209.48
356.30	209.60
356.68	211.00
357.06	211.26
357.44	211.19
357.82	210.95
358.20	211.95
358.58	212.17
358.97	212.55
359.35	213.26
359.73	213.90
360.11	213.98
360.49	214.26
360.87	214.31
361.25	214.67
361.63	215.60
362.01	215.93
362.39	215.67
362.77	216.07
363.15	215.76
363.53	215.95
363.91	216.29
364.29	216.21
364.67	214.52
365.05	214.50
365.43	214.71
365.81	215.45
366.19	215.67
366.57	216.45
366.95	216.40
367.33	215.86
367.71	215.67
368.09	216.26
368.47	216.43
368.85	216.45
369.23	216.93
369.61	216.17
369.99	216.90
370.37	217.24
370.75	217.98
371.13	217.74
371.51	217.50
371.89	217.86
372.27	218.17
372.65	218.33
373.03	218.62
373.41	218.50
373.78	218.14
374.16	217.07
374.54	216.40
374.92	216.52
375.30	216.69
375.68	216.40
376.06	216.38
376.44	216.36
376.82	216.69
377.19	216.50
377.57	216.52
377.95	215.64
378.33	215.40
378.71	214.45
379.09	214.71
379.47	215.19
379.84	214.93
380.22	214.88
380.60	214.57
380.98	214.40
381.36	214.26
381.73	213.95
382.11	214.38
382.49	214.52
382.87	214.12
383.25	213.98
383.62	216.36
384.00	215.69
384.38	215.60
384.76	216.05
385.13	216.79
385.51	216.81
385.89	216.45
386.27	216.31
386.64	216.52
387.02	216.40
387.40	216.07
387.78	216.07
388.15	216.14
388.53	215.98
388.91	215.93
389.29	215.90
389.66	216.33
390.04	216.07
390.42	216.48
390.79	216.64
391.17	216.71
391.55	214.48
391.92	214.60
392.30	214.55
392.68	213.95
393.05	213.90
393.43	214.19
393.81	214.10
394.18	214.00
394.56	214.05
394.94	214.33
395.31	214.17
395.69	214.76
396.06	214.86
396.44	215.07
396.82	214.98
397.19	216.00
397.57	215.83
397.95	216.17
398.32	215.33
398.70	215.55
399.07	215.98
399.45	215.90
399.82	216.02
400.20	216.00
400.58	215.86
400.95	215.00
401.33	215.19
401.70	216.86
402.08	217.12
402.45	216.98
402.83	217.38
403.20	217.71
403.58	217.79
403.95	218.24
404.33	218.95
404.71	219.31
405.08	220.52
405.46	220.76
405.83	221.24
406.21	221.76
406.58	222.26
406.96	222.60
407.33	223.21
407.70	224.00
408.08	226.52
408.45	227.38
408.83	228.48
409.20	228.95
409.58	228.79
409.95	230.00
410.33	231.10
410.70	231.43
411.08	232.52
411.45	233.64
411.82	234.48
412.20	235.67
412.57	238.12
412.95	237.64
413.32	239.45
413.69	240.69
414.07	242.43
414.44	243.95
414.82	245.60
415.19	248.05
415.56	249.83
415.94	250.57
416.31	253.29
416.68	256.00
417.06	259.26
417.43	262.76
417.81	266.21
418.18	269.83
418.55	273.60
418.93	277.48
419.30	281.19
419.67	285.64
420.04	289.93
420.42	293.83
420.79	300.62
421.16	306.36
421.54	313.26
421.91	319.38
422.28	325.48
422.66	332.31
423.03	340.10
423.40	347.00
423.77	354.12
424.15	360.93
424.52	368.62
424.89	377.31
425.26	384.64
425.64	391.93
426.01	399.95
426.38	408.79
426.75	418.26
427.13	427.40
427.50	436.76
427.87	446.93
428.24	456.88
428.61	465.40
428.99	476.12
429.36	486.55
429.73	497.31
430.10	508.79
430.47	520.17
430.85	530.62
431.22	543.24
431.59	558.12
431.96	571.67
432.33	585.57
432.70	598.64
433.08	614.45
433.45	629.76
433.82	644.57
434.19	661.45
434.56	678.07
434.93	694.07
435.30	709.90
435.68	727.76
436.05	745.02
436.42	762.26
436.79	777.88
437.16	794.71
437.53	813.14
437.90	830.86
438.27	848.60
438.64	866.71
439.01	883.86
439.38	897.93
439.75	912.05
440.13	928.24
440.50	944.21
440.87	957.21
441.24	970.50
441.61	986.02
441.98	997.05
442.35	1008.86
442.72	1021.71
443.09	1035.36
443.46	1042.05
443.83	1047.67
444.20	1051.88
444.57	1057.88
444.94	1061.07
445.31	1064.31
445.68	1069.88
446.05	1071.29
446.42	1070.69
446.79	1069.81
447.16	1067.69
447.53	1066.76
447.90	1060.62
448.27	1053.95
448.64	1045.14
449.01	1038.90
449.37	1026.98
449.74	1016.21
450.11	1005.05
450.48	990.12
450.85	974.45
451.22	962.62
451.59	950.21
451.96	938.95
452.33	923.62
452.70	909.48
453.07	892.86
453.43	873.33
453.80	857.43
454.17	840.76
454.54	824.98
454.91	808.83
455.28	793.57
455.65	778.74
456.02	767.55
456.38	755.67
456.75	740.57
457.12	727.79
457.49	714.17
457.86	700.10
458.23	690.38
458.59	677.88
458.96	665.90
459.33	655.81
459.70	645.24
460.07	636.83
460.43	627.55
460.80	618.64
461.17	611.40
461.54	602.71
461.91	594.98
462.27	586.88
462.64	579.98
463.01	571.93
463.38	566.02
463.74	555.31
464.11	548.24
464.48	542.21
464.85	536.19
465.21	532.31
465.58	527.07
465.95	520.26
466.32	515.98
466.68	510.48
467.05	505.55
467.42	501.05
467.78	495.93
468.15	490.83
468.52	487.26
468.88	481.88
469.25	477.26
469.62	474.00
469.98	470.10
470.35	466.64
470.72	463.10
471.08	458.29
471.45	455.12
471.82	452.33
472.18	448.55
472.55	446.00
472.92	442.10
473.28	439.62
473.65	436.98
474.02	434.31
474.38	432.50
474.75	430.29
475.11	427.81
475.48	426.14
475.85	424.88
476.21	422.43
476.58	420.81
476.94	420.02
477.31	418.50
477.67	417.55
478.04	415.93
478.41	415.00
478.77	416.21
479.14	415.40
479.50	414.93
479.87	414.98
480.23	414.29
480.60	414.12
480.96	413.76
481.33	414.98
481.69	414.90
482.06	414.79
482.42	414.76
482.79	415.12
483.15	415.29
483.52	415.95
483.88	416.64
484.25	417.17
484.61	417.55
484.98	418.12
485.34	419.64
485.71	421.55
486.07	423.43
486.44	423.14
486.80	424.95
487.17	426.19
487.53	428.50
487.90	430.90
488.26	433.81
488.62	436.69
488.99	438.00
489.35	440.67
489.72	443.21
490.08	446.10
490.44	448.90
490.81	452.79
491.17	455.33
491.54	459.02
491.90	463.14
492.26	466.90
492.63	470.71
492.99	474.10
493.36	477.90
493.72	482.26
494.08	486.69
494.45	491.43
494.81	496.43
495.17	500.83
495.54	505.93
495.90	510.67
496.26	515.55
496.63	521.45
496.99	526.43
497.35	532.60
497.72	538.43
498.08	544.40
498.44	550.24
498.80	556.76
499.17	562.21
499.53	568.19
499.89	574.74
500.26	581.69
500.62	588.29
500.98	595.67
501.34	601.98
501.71	609.21
502.07	616.21
502.43	623.19
502.79	630.31
503.16	637.07
503.52	644.45
503.88	651.26
504.24	659.00
504.60	667.36
504.97	675.21
505.33	682.55
505.69	691.26
506.05	698.74
506.41	706.88
506.78	715.36
507.14	723.02
507.50	730.48
507.86	738.45
508.22	746.81
508.59	753.76
508.95	761.88
509.31	770.93
509.67	779.00
510.03	786.31
510.39	794.26
510.75	802.17
511.12	809.79
511.48	817.67
511.84	825.10
512.20	832.07
512.56	839.05
512.92	847.02
513.28	853.26
513.64	860.86
514.00	867.69
514.37	874.83
514.73	882.57
515.09	890.26
515.45	896.93
515.81	903.21
516.17	910.38
516.53	916.69
516.89	922.14
517.25	928.88
517.61	936.38
517.97	942.31
518.33	948.29
518.69	954.24
519.05	961.12
519.41	967.19
519.77	974.64
520.13	980.45
520.49	985.43
520.85	991.95
521.21	998.43
521.57	1004.88
521.93	1009.71
522.29	1015.38
522.65	1020.19
523.01	1025.48
523.37	1030.48
523.73	1035.90
524.09	1041.19
524.45	1045.98
524.81	1050.86
525.17	1055.62
525.53	1060.60
525.89	1065.69
526.25	1070.90
526.61	1074.52
526.97	1078.10
527.33	1081.64
527.68	1087.98
528.04	1093.12
528.40	1097.05
528.76	1100.62
529.12	1104.36
529.48	1109.50
529.84	1113.40
530.20	1118.45
530.56	1123.12
530.91	1127.74
531.27	1131.90
531.63	1136.74
531.99	1140.02
532.35	1143.67
532.71	1146.98
533.07	1151.40
533.42	1157.67
533.78	1161.67
534.14	1167.00
534.50	1171.24
534.86	1176.14
535.21	1179.00
535.57	1183.19
535.93	1186.60
536.29	1191.88
536.65	1196.05
537.00	1199.64
537.36	1202.90
537.72	1206.05
538.08	1209.26
538.44	1211.60
538.79	1214.83
539.15	1217.21
539.51	1221.81
539.87	1225.07
540.22	1228.07
540.58	1231.67
540.94	1233.57
541.29	1236.88
541.65	1238.24
542.01	1241.43
542.37	1243.36
542.72	1244.74
543.08	1246.98
543.44	1250.10
543.79	1250.38
544.15	1252.55
544.51	1255.88
544.87	1258.90
545.22	1261.38
545.58	1263.79
545.94	1267.29
546.29	1269.50
546.65	1272.12
547.01	1274.14
547.36	1276.69
547.72	1279.93
548.07	1282.55
548.43	1284.12
548.79	1285.57
549.14	1288.93
549.50	1291.74
549.86	1293.31
550.21	1295.88
550.57	1298.62
550.92	1300.31
551.28	1304.43
551.64	1307.62
551.99	1309.79
552.35	1312.62
552.70	1315.50
553.06	1319.10
553.41	1322.62
553.77	1327.10
554.13	1331.07
554.48	1335.62
554.84	1339.67
555.19	1343.57
555.55	1348.26
555.90	1351.76
556.26	1355.67
556.61	1358.69
556.97	1362.02
557.32	1366.67
557.68	1370.81
558.03	1374.62
558.39	1378.98
558.74	1381.95
559.10	1385.38
559.45	1390.00
559.81	1393.95
560.16	1397.88
560.52	1401.57
560.87	1405.76
561.23	1408.43
561.58	1413.64
561.94	1416.10
562.29	1419.67
562.64	1423.86
563.00	1427.67
563.35	1432.36
563.71	1437.05
564.06	1442.86
564.42	1447.98
564.77	1454.07
565.12	1460.26
565.48	1467.17
565.83	1472.88
566.19	1478.45
566.54	1484.52
566.89	1489.07
567.25	1495.83
567.60	1503.10
567.96	1510.40
568.31	1517.45
568.66	1524.79
569.02	1529.71
569.37	1535.36
569.72	1540.71
570.08	1546.52
570.43	1550.86
570.78	1556.83
571.14	1563.17
571.49	1567.83
571.84	1573.12
572.20	1576.76
572.55	1580.76
572.90	1584.36
573.26	1589.38
573.61	1593.55
573.96	1598.52
574.31	1603.76
574.67	1606.88
575.02	1609.62
575.37	1611.52
575.72	1614.29
576.08	1618.43
576.43	1621.86
576.78	1626.67
577.13	1631.05
577.49	1633.60
577.84	1637.62
578.19	1641.33
578.54	1644.45
578.90	1648.71
579.25	1651.60
579.60	1655.83
579.95	1659.10
580.30	1662.74
580.66	1666.62
581.01	1670.93
581.36	1673.76
581.71	1676.48
582.06	1681.93
582.42	1686.33
582.77	1690.55
583.12	1694.43
583.47	1696.98
583.82	1700.00
584.17	1702.38
584.53	1705.48
584.88	1708.98
585.23	1712.02
585.58	1714.86
585.93	1717.71
586.28	1719.90
586.63	1723.81
586.98	1726.21
587.34	1730.29
587.69	1731.88
588.04	1734.48
588.39	1736.31
588.74	1737.74
589.09	1739.95
589.44	1739.36
589.79	1741.40
590.14	1743.26
590.49	1744.31
590.84	1745.60
591.19	1748.00
591.54	1750.05
591.89	1750.83
592.25	1754.43
592.60	1755.55
592.95	1756.74
593.30	1758.55
593.65	1760.29
594.00	1760.10
594.35	1767.38
594.70	1767.79
595.05	1769.14
595.40	1769.95
595.75	1771.21
596.10	1773.55
596.45	1774.83
596.80	1776.71
597.15	1777.62
597.50	1778.26
597.85	1779.64
598.19	1780.40
598.54	1780.07
598.89	1780.60
599.24	1782.55
599.59	1781.38
599.94	1782.26
600.29	1782.81
600.64	1782.50
600.99	1782.95
601.34	1784.55
601.69	1778.43
602.04	1778.10
602.39	1778.24
602.74	1778.40
603.08	1778.76
603.43	1779.12
603.78	1779.07
604.13	1779.02
604.48	1778.14
604.83	1778.21
605.18	1777.93
605.53	1777.07
605.87	1776.55
606.22	1776.12
606.57	1774.33
606.92	1772.90
607.27	1771.43
607.62	1770.83
607.96	1770.76
608.31	1770.21
608.66	1768.45
609.01	1767.40
609.36	1766.76
609.70	1765.17
610.05	1762.74
610.40	1760.29
610.75	1756.74
611.10	1755.60
611.44	1752.36
611.79	1750.02
612.14	1747.57
612.49	1743.64
612.83	1741.81
613.18	1739.43
613.53	1736.02
613.88	1733.17
614.22	1731.43
614.57	1728.33
614.92	1724.43
615.27	1720.62
615.61	1715.90
615.96	1712.48
616.31	1709.12
616.65	1706.45
617.00	1704.00
617.35	1701.00
617.70	1698.00
618.04	1695.21
618.39	1690.95
618.74	1688.45
619.08	1685.00
619.43	1681.74
619.78	1679.33
620.12	1675.38
620.47	1672.79
620.82	1668.88
621.16	1664.67
621.51	1661.14
621.85	1657.45
622.20	1654.21
622.55	1650.38
622.89	1647.50
623.24	1644.64
623.59	1641.12
623.93	1636.17
624.28	1632.19
624.62	1630.62
624.97	1628.50
625.32	1624.29
625.66	1620.19
626.01	1616.71
626.35	1613.50
626.70	1608.74
627.04	1605.10
627.39	1600.81
627.73	1597.62
628.08	1595.17
628.43	1591.90
628.77	1587.05
629.12	1583.55
629.46	1579.60
629.81	1575.60
630.15	1570.48
630.50	1565.45
630.84	1560.76
631.19	1556.26
631.53	1551.48
631.88	1543.71
632.22	1536.88
632.57	1532.86
632.91	1528.24
633.26	1523.12
633.60	1517.33
633.95	1512.14
634.29	1506.38
634.64	1503.12
634.98	1497.00
635.32	1492.81
635.67	1489.05
636.01	1485.50
636.36	1480.79
636.70	1477.05
637.05	1472.83
637.39	1468.83
637.73	1464.62
638.08	1460.29
638.42	1455.93
638.77	1451.43
639.11	1447.79
639.45	1443.57
639.80	1437.90
640.14	1433.57
640.49	1428.79
640.83	1424.55
641.17	1421.00
641.52	1416.55
641.86	1410.50
642.20	1405.95
642.55	1399.71
642.89	1394.12
643.23	1387.83
643.58	1383.45
643.92	1376.48
644.26	1370.93
644.61	1366.33
644.95	1360.31
645.29	1354.26
645.64	1349.60
645.98	1344.31
646.32	1338.98
646.66	1332.81
647.01	1326.67
647.35	1321.40
647.69	1315.19
648.04	1310.31
648.38	1304.90
648.72	1299.31
649.06	1293.74
649.41	1287.38
649.75	1281.57
650.09	1274.88
650.43	1268.95
650.78	1261.71
651.12	1255.88
651.46	1249.26
651.80	1242.81
652.14	1237.86
652.49	1233.17
652.83	1226.50
653.17	1219.57
653.51	1213.07
653.85	1207.57
654.20	1202.62
654.54	1194.74
654.88	1188.50
655.22	1182.17
655.56	1174.62
655.90	1168.50
656.25	1161.95
656.59	1156.12
656.93	1149.88
657.27	1144.69
657.61	1138.43
657.95	1133.24
658.29	1127.00
658.64	1121.02
658.98	1114.31
659.32	1106.83
659.66	1099.60
660.00	1093.02
660.34	1087.02
660.68	1080.60
661.02	1074.26
661.36	1067.71
661.70	1063.21
662.05	1057.00
662.39	1050.48
662.73	1045.45
663.07	1039.98
663.41	1034.55
663.75	1027.98
664.09	1021.90
664.43	1016.05
664.77	1010.12
665.11	1003.79
665.45	998.24
665.79	992.67
666.13	987.12
666.47	981.76
666.81	975.79
667.15	970.79
667.49	965.05
667.83	960.17
668.17	954.31
668.51	949.21
668.85	943.14
669.19	938.40
669.53	932.17
669.87	926.74
670.21	920.05
670.55	914.00
670.89	910.10
671.23	904.81
671.57	899.02
671.91	894.31
672.25	889.12
672.58	884.24
672.92	878.52
673.26	872.79
673.60	867.14
673.94	862.31
674.28	856.64
674.62	852.55
674.96	847.24
675.30	842.38
675.64	837.07
675.97	832.24
676.31	827.02
676.65	821.52
676.99	817.31
677.33	812.50
677.67	808.07
678.01	801.62
678.34	796.81
678.68	791.86
679.02	786.21
679.36	781.26
679.70	775.62
680.04	770.88
680.37	766.07
680.71	761.12
681.05	756.67
681.39	751.88
681.73	746.29
682.06	741.29
682.40	736.81
682.74	732.14
683.08	727.64
683.42	722.74
683.75	718.71
684.09	713.05
684.43	708.62
684.77	703.93
685.10	698.93
685.44	694.31
685.78	689.55
686.12	685.07
686.45	679.98
686.79	675.98
687.13	671.69
687.46	667.29
687.80	663.79
688.14	658.83
688.48	654.64
688.81	650.57
689.15	646.74
689.49	641.98
689.82	637.60
690.16	632.55
690.50	628.24
690.83	623.83
691.17	618.52
691.51	614.07
691.84	609.88
692.18	606.17
692.52	602.24
692.85	598.79
693.19	595.60
693.52	591.55
693.86	586.98
694.20	583.07
694.53	579.21
694.87	574.93
695.21	570.76
695.54	566.48
695.88	561.52
696.21	556.40
696.55	552.36
696.88	548.38
697.22	544.43
697.56	541.07
697.89	537.33
698.23	534.21
698.56	530.81
698.90	527.26
699.23	523.19
699.57	519.43
699.90	515.31
700.24	511.07
700.58	507.31
700.91	504.31
701.25	502.07
701.58	499.17
701.92	496.10
702.25	493.07
702.59	489.74
702.92	486.88
703.26	484.45
703.59	481.33
703.93	479.67
704.26	476.88
704.60	473.48
704.93	470.17
705.26	467.12
705.60	464.55
705.93	460.98
706.27	459.14
706.60	456.14
706.94	454.24
707.27	451.43
707.61	449.14
707.94	446.38
708.27	441.83
708.61	438.45
708.94	435.29
709.28	432.64
709.61	430.21
709.94	427.86
710.28	424.86
710.61	422.17
710.95	417.95
711.28	416.67
711.61	414.24
711.95	412.36
712.28	409.74
712.61	406.86
712.95	405.60
713.28	403.60
713.61	401.36
713.95	398.40
714.28	395.95
714.61	393.36
714.95	391.00
715.28	388.79
715.61	386.74
715.95	384.81
716.28	382.45
716.61	380.67
716.95	378.33
717.28	376.26
717.61	374.26
717.94	372.26
718.28	368.48
718.61	366.52
718.94	363.88
719.27	361.88
719.61	360.14
719.94	357.26
720.27	354.36
720.60	351.90
720.94	349.69
721.27	347.98
721.60	346.55
721.93	344.55
722.27	343.45
722.60	341.79
722.93	340.21
723.26	338.57
723.59	336.45
723.93	335.24
724.26	333.95
724.59	332.52
724.92	331.43
725.25	330.93
725.59	329.36
725.92	328.38
726.25	327.33
726.58	326.10
726.91	325.17
727.24	324.48
727.57	323.71
727.91	322.24
728.24	321.36
728.57	319.62
728.90	318.95
729.23	317.33
729.56	317.24
729.89	315.74
730.22	314.69
730.55	313.36
730.89	312.31
731.22	311.26
731.55	310.12
731.88	309.19
732.21	307.69
732.54	306.62
732.87	305.62
733.20	304.90
733.53	303.86
733.86	302.69
734.19	301.21
734.52	300.33
734.85	301.02
735.18	299.60
735.51	299.48
735.84	298.55
736.17	298.17
736.50	296.19
736.83	298.00
737.16	296.98
737.49	296.31
737.82	295.33
738.15	294.64
738.48	293.76
738.81	292.60
739.14	291.69
739.47	290.74
739.80	289.86
740.13	288.83
740.46	287.57
740.79	286.64
741.12	285.62
741.45	284.31
741.78	282.40
742.11	282.36
742.44	281.17
742.77	280.50
743.10	279.17
743.43	278.31
743.75	275.26
744.08	277.31
744.41	276.55
744.74	275.45
745.07	274.10
745.40	273.76
745.73	273.90
746.06	273.14
746.39	272.50
746.71	271.57
747.04	270.62
747.37	269.74
747.70	269.24
748.03	268.69
748.36	268.31
748.68	267.57
749.01	266.19
749.34	265.50
749.67	264.86
750.00	264.83
750.33	265.76
750.65	265.26
750.98	262.17
751.31	261.64
751.64	261.33
751.97	262.07
752.29	261.17
752.62	259.50
752.95	258.74
753.28	258.17
753.60	257.83
753.93	257.76
754.26	257.50
754.59	256.45
754.91	255.79
755.24	255.33
755.57	254.74
755.90	254.07
756.22	253.31
756.55	252.40
756.88	251.38
757.20	249.40
757.53	248.43
757.86	247.93
758.19	247.26
758.51	246.95
758.84	245.29
759.17	244.69
759.49	244.50
759.82	245.48
760.15	244.90
760.47	244.36
760.80	243.55
761.13	243.50
761.45	243.29
761.78	243.00
762.11	242.52
762.43	241.86
762.76	241.64
763.08	241.55
763.41	241.19
763.74	240.95
764.06	240.62
764.39	240.43
764.71	240.07
765.04	239.62
765.37	238.98
765.69	238.81
766.02	238.69
766.34	238.10
766.67	236.79
767.00	237.19
767.32	237.88
767.65	238.76
767.97	238.24
768.30	237.81
768.62	237.33
768.95	237.24
769.27	237.00
769.60	236.81
769.92	236.38
770.25	236.00
770.57	235.31
770.90	234.90
771.22	234.50
771.55	234.31
771.87	234.33
772.20	234.02
772.52	235.36
772.85	237.45
773.17	237.45
773.50	237.05
773.82	236.40
774.15	235.14
774.47	233.64
774.80	233.24
775.12	233.21
775.45	233.10
775.77	232.45
776.09	232.36
776.42	232.24
776.74	232.69
777.07	232.24
777.39	232.38
777.72	232.26
778.04	232.21
778.36	231.57
778.69	231.29
779.01	231.19
779.33	229.43
779.66	227.07
779.98	226.64
780.31	226.55
780.63	227.17
780.95	227.31
781.28	227.14
781.60	226.81
781.92	226.60
782.25	226.31
782.57	226.43
782.89	226.21
783.22	225.86
783.54	225.19
783.86	225.55
784.19	225.21
784.51	225.67
784.83	225.14
