SpectraSuite Data File
++++++++++++++++++++++++++++++++++++
Date: Tue Apr 02 18:41:16 EDT 2013
User: group
Dark Spectrum Present: No
Reference Spectrum Present: No
Number of Sampled Component Spectra: 1
Spectrometers: USB2E7196
Integration Time (usec): 580000 (USB2E7196)
Spectra Averaged: 2 (USB2E7196)
Boxcar Smoothing: 10 (USB2E7196)
Correct for Electrical Dark: No (USB2E7196)
Strobe/Lamp Enabled: No (USB2E7196)
Correct for Detector Non-linearity: No (USB2E7196)
Correct for Stray Light: No (USB2E7196)
Number of Pixels in Processed Spectrum: 2048
>>>>>Begin Processed Spectral Data<<<<<
339.09	0.00
339.48	194.00
339.86	196.00
340.24	195.00
340.63	200.00
341.01	233.00
341.39	201.50
341.78	204.50
342.16	213.50
342.54	206.00
342.93	198.74
343.31	208.69
343.69	209.26
344.07	209.86
344.46	210.79
344.84	211.21
345.22	210.00
345.60	210.31
345.99	210.67
346.37	210.43
346.75	210.57
347.13	210.45
347.52	210.64
347.90	211.50
348.28	211.55
348.66	211.95
349.05	211.52
349.43	211.48
349.81	211.74
350.19	211.74
350.57	212.12
350.96	212.33
351.34	212.60
351.72	213.02
352.10	213.14
352.48	212.88
352.87	212.93
353.25	213.10
353.63	213.21
354.01	213.14
354.39	213.17
354.77	213.21
355.15	213.90
355.54	213.71
355.92	212.95
356.30	212.81
356.68	213.98
357.06	213.86
357.44	213.29
357.82	213.19
358.20	214.21
358.58	213.98
358.97	214.14
359.35	214.38
359.73	214.50
360.11	214.38
360.49	214.43
360.87	214.48
361.25	214.67
361.63	215.38
362.01	215.38
362.39	215.36
362.77	215.33
363.15	215.17
363.53	215.05
363.91	215.33
364.29	215.17
364.67	213.45
365.05	213.36
365.43	213.81
365.81	213.79
366.19	213.90
366.57	214.43
366.95	214.02
367.33	213.33
367.71	213.38
368.09	213.86
368.47	214.10
368.85	214.05
369.23	214.31
369.61	213.50
369.99	214.36
370.37	214.64
370.75	215.60
371.13	215.21
371.51	214.88
371.89	214.86
372.27	215.12
372.65	215.10
373.03	215.38
373.41	215.33
373.78	215.52
374.16	214.50
374.54	214.17
374.92	214.02
375.30	214.36
375.68	213.74
376.06	213.74
376.44	213.14
376.82	213.31
377.19	213.19
377.57	213.00
377.95	212.26
378.33	212.14
378.71	211.00
379.09	211.00
379.47	211.60
379.84	211.55
380.22	211.38
380.60	211.24
380.98	211.14
381.36	210.93
381.73	210.57
382.11	210.93
382.49	210.83
382.87	210.69
383.25	210.64
383.62	213.14
384.00	212.69
384.38	213.12
384.76	213.33
385.13	214.12
385.51	214.38
385.89	213.95
386.27	214.02
386.64	214.40
387.02	214.38
387.40	214.07
387.78	214.14
388.15	214.36
388.53	214.21
388.91	213.98
389.29	214.05
389.66	214.55
390.04	214.10
390.42	214.40
390.79	214.71
391.17	214.74
391.55	212.50
391.92	212.76
392.30	213.05
392.68	212.57
393.05	212.43
393.43	212.33
393.81	212.69
394.18	212.45
394.56	212.67
394.94	213.07
395.31	212.98
395.69	213.83
396.06	213.98
396.44	214.24
396.82	214.33
397.19	215.21
397.57	215.02
397.95	215.64
398.32	215.07
398.70	215.19
399.07	215.81
399.45	215.76
399.82	215.71
400.20	215.45
400.58	215.60
400.95	214.79
401.33	215.33
401.70	216.79
402.08	217.10
402.45	217.14
402.83	217.81
403.20	218.19
403.58	217.69
403.95	218.19
404.33	218.79
404.71	219.21
405.08	220.48
405.46	220.88
405.83	221.14
406.21	221.67
406.58	222.12
406.96	222.02
407.33	222.88
407.70	223.55
408.08	225.64
408.45	226.67
408.83	227.74
409.20	227.88
409.58	227.52
409.95	228.76
410.33	229.67
410.70	229.88
411.08	231.02
411.45	232.24
411.82	233.21
412.20	234.83
412.57	237.12
412.95	236.83
413.32	238.62
413.69	240.14
414.07	241.88
414.44	243.79
414.82	246.07
415.19	248.55
415.56	250.62
415.94	252.07
416.31	255.05
416.68	258.19
417.06	261.64
417.43	265.12
417.81	268.45
418.18	272.17
418.55	276.02
418.93	280.43
419.30	284.52
419.67	289.36
420.04	293.64
420.42	298.12
420.79	305.19
421.16	310.95
421.54	318.10
421.91	324.50
422.28	330.79
422.66	337.69
423.03	345.60
423.40	353.10
423.77	360.45
424.15	367.90
424.52	375.62
424.89	384.88
425.26	392.83
425.64	400.57
426.01	409.40
426.38	418.31
426.75	427.86
427.13	437.40
427.50	447.05
427.87	457.33
428.24	467.71
428.61	476.60
428.99	488.36
429.36	498.74
429.73	510.74
430.10	522.52
430.47	534.48
430.85	545.52
431.22	557.93
431.59	573.45
431.96	586.52
432.33	600.60
432.70	614.76
433.08	631.45
433.45	647.67
433.82	662.93
434.19	681.29
434.56	699.07
434.93	715.26
435.30	731.90
435.68	750.67
436.05	768.50
436.42	785.76
436.79	801.98
437.16	820.12
437.53	838.19
437.90	856.88
438.27	875.36
438.64	894.40
439.01	912.81
439.38	926.55
439.75	941.76
440.13	959.69
440.50	976.05
440.87	989.40
441.24	1003.24
441.61	1018.98
441.98	1029.57
442.35	1042.00
442.72	1056.24
443.09	1070.26
443.46	1077.50
443.83	1083.05
444.20	1088.95
444.57	1095.31
444.94	1098.40
445.31	1102.33
445.68	1107.95
446.05	1109.60
446.42	1107.60
446.79	1105.88
447.16	1104.00
447.53	1103.14
447.90	1097.24
448.27	1090.50
448.64	1081.52
449.01	1074.74
449.37	1063.10
449.74	1051.71
450.11	1039.45
450.48	1023.64
450.85	1006.83
451.22	994.05
451.59	981.57
451.96	969.05
452.33	953.17
452.70	939.07
453.07	921.26
453.43	901.12
453.80	883.74
454.17	867.64
454.54	851.76
454.91	835.29
455.28	818.52
455.65	802.29
456.02	789.79
456.38	776.60
456.75	761.07
457.12	746.95
457.49	734.21
457.86	719.67
458.23	709.02
458.59	696.98
458.96	684.71
459.33	673.43
459.70	662.76
460.07	653.81
460.43	643.76
460.80	634.81
461.17	626.98
461.54	618.24
461.91	610.31
462.27	601.88
462.64	594.90
463.01	587.40
463.38	580.60
463.74	569.88
464.11	562.95
464.48	556.67
464.85	550.33
465.21	545.38
465.58	539.81
465.95	533.10
466.32	527.45
466.68	521.98
467.05	517.21
467.42	511.76
467.78	506.21
468.15	500.86
468.52	497.24
468.88	491.55
469.25	486.83
469.62	483.52
469.98	479.38
470.35	475.31
470.72	471.10
471.08	466.21
471.45	463.31
471.82	460.62
472.18	456.71
472.55	454.07
472.92	450.14
473.28	447.36
473.65	444.50
474.02	442.24
474.38	439.98
474.75	438.17
475.11	435.62
475.48	434.02
475.85	432.21
476.21	430.02
476.58	428.79
476.94	427.52
477.31	425.67
477.67	424.38
478.04	423.26
478.41	422.57
478.77	423.90
479.14	422.62
479.50	422.05
479.87	422.10
480.23	421.43
480.60	421.43
480.96	421.26
481.33	422.12
481.69	421.93
482.06	421.83
482.42	421.64
482.79	422.36
483.15	422.69
483.52	423.67
483.88	424.14
484.25	424.79
484.61	425.76
484.98	426.31
485.34	428.02
485.71	429.71
486.07	431.26
486.44	431.36
486.80	433.10
487.17	434.55
487.53	436.76
487.90	439.31
488.26	441.98
488.62	444.74
488.99	446.88
489.35	449.67
489.72	452.36
490.08	454.90
490.44	457.57
490.81	460.67
491.17	463.36
491.54	466.64
491.90	470.10
492.26	473.90
492.63	477.90
492.99	481.86
493.36	485.81
493.72	490.60
494.08	494.50
494.45	499.76
494.81	504.62
495.17	509.19
495.54	514.67
495.90	519.67
496.26	524.95
496.63	530.52
496.99	536.00
497.35	541.93
497.72	548.21
498.08	554.62
498.44	560.79
498.80	567.79
499.17	574.26
499.53	580.79
499.89	587.90
500.26	594.40
500.62	601.07
500.98	608.67
501.34	615.67
501.71	623.88
502.07	630.62
502.43	637.21
502.79	644.52
503.16	651.74
503.52	658.74
503.88	665.52
504.24	672.76
504.60	681.24
504.97	689.40
505.33	697.21
505.69	704.93
506.05	712.83
506.41	720.60
506.78	728.55
507.14	736.83
507.50	744.90
507.86	753.93
508.22	762.64
508.59	769.43
508.95	777.14
509.31	785.55
509.67	794.17
510.03	802.12
510.39	810.36
510.75	818.64
511.12	826.55
511.48	835.07
511.84	843.10
512.20	850.81
512.56	858.05
512.92	866.31
513.28	874.64
513.64	881.74
514.00	890.05
514.37	897.83
514.73	905.48
515.09	913.33
515.45	919.55
515.81	926.29
516.17	933.90
516.53	940.38
516.89	946.40
517.25	953.38
517.61	960.86
517.97	967.83
518.33	974.14
518.69	982.12
519.05	989.69
519.41	996.60
519.77	1003.26
520.13	1009.40
520.49	1014.71
520.85	1020.79
521.21	1028.40
521.57	1034.05
521.93	1039.43
522.29	1045.24
522.65	1050.10
523.01	1056.86
523.37	1062.21
523.73	1067.98
524.09	1074.17
524.45	1080.10
524.81	1085.14
525.17	1090.69
525.53	1095.79
525.89	1101.57
526.25	1105.79
526.61	1109.29
526.97	1113.64
527.33	1118.26
527.68	1125.00
528.04	1130.33
528.40	1135.24
528.76	1139.26
529.12	1143.76
529.48	1149.31
529.84	1153.48
530.20	1158.93
530.56	1163.33
530.91	1167.79
531.27	1172.93
531.63	1177.79
531.99	1180.90
532.35	1184.57
532.71	1189.43
533.07	1193.83
533.42	1200.14
533.78	1205.31
534.14	1210.76
534.50	1215.05
534.86	1219.76
535.21	1222.95
535.57	1228.14
535.93	1231.48
536.29	1236.57
536.65	1241.33
537.00	1244.88
537.36	1249.07
537.72	1251.95
538.08	1256.74
538.44	1260.74
538.79	1264.05
539.15	1266.26
539.51	1271.52
539.87	1275.71
540.22	1278.98
540.58	1283.10
540.94	1284.60
541.29	1287.45
541.65	1289.57
542.01	1294.33
542.37	1297.60
542.72	1300.71
543.08	1302.38
543.44	1306.21
543.79	1307.45
544.15	1310.81
544.51	1315.62
544.87	1319.10
545.22	1322.67
545.58	1325.71
545.94	1330.07
546.29	1333.29
546.65	1337.33
547.01	1340.17
547.36	1343.71
547.72	1347.67
548.07	1351.17
548.43	1354.26
548.79	1356.90
549.14	1360.60
549.50	1363.50
549.86	1366.45
550.21	1369.88
550.57	1373.95
550.92	1376.67
551.28	1381.26
551.64	1384.55
551.99	1386.90
552.35	1391.07
552.70	1394.57
553.06	1397.50
553.41	1400.69
553.77	1405.76
554.13	1409.79
554.48	1414.19
554.84	1419.10
555.19	1423.21
555.55	1428.19
555.90	1432.31
556.26	1436.45
556.61	1440.52
556.97	1443.48
557.32	1447.79
557.68	1452.45
558.03	1456.83
558.39	1461.21
558.74	1465.50
559.10	1469.07
559.45	1473.93
559.81	1478.38
560.16	1483.17
560.52	1488.17
560.87	1492.76
561.23	1496.36
561.58	1502.76
561.94	1506.21
562.29	1510.38
562.64	1515.67
563.00	1519.31
563.35	1523.88
563.71	1529.19
564.06	1534.95
564.42	1540.79
564.77	1546.24
565.12	1552.33
565.48	1559.98
565.83	1567.21
566.19	1573.71
566.54	1580.33
566.89	1586.29
567.25	1593.07
567.60	1600.26
567.96	1607.40
568.31	1614.17
568.66	1620.88
569.02	1625.64
569.37	1632.05
569.72	1636.90
570.08	1640.74
570.43	1645.71
570.78	1651.74
571.14	1657.52
571.49	1662.45
571.84	1667.93
572.20	1672.76
572.55	1677.07
572.90	1680.02
573.26	1683.10
573.61	1686.36
573.96	1690.12
574.31	1693.29
574.67	1696.12
575.02	1699.50
575.37	1701.43
575.72	1703.26
576.08	1705.26
576.43	1708.38
576.78	1712.07
577.13	1716.07
577.49	1719.71
577.84	1723.17
578.19	1726.52
578.54	1730.67
578.90	1734.24
579.25	1737.69
579.60	1739.36
579.95	1742.14
580.30	1745.48
580.66	1749.88
581.01	1753.26
581.36	1755.90
581.71	1758.76
582.06	1763.02
582.42	1766.12
582.77	1768.40
583.12	1771.19
583.47	1774.38
583.82	1776.81
584.17	1779.07
584.53	1781.88
584.88	1784.45
585.23	1786.86
585.58	1788.14
585.93	1788.79
586.28	1789.86
586.63	1791.43
586.98	1794.48
587.34	1797.24
587.69	1797.64
588.04	1797.79
588.39	1799.26
588.74	1800.36
589.09	1802.40
589.44	1801.64
589.79	1801.45
590.14	1802.81
590.49	1803.86
590.84	1804.29
591.19	1805.31
591.54	1805.40
591.89	1804.81
592.25	1806.69
592.60	1807.05
592.95	1808.24
593.30	1809.26
593.65	1810.19
594.00	1808.98
594.35	1814.71
594.70	1812.86
595.05	1814.21
595.40	1814.45
595.75	1814.19
596.10	1814.67
596.45	1814.21
596.80	1814.98
597.15	1814.90
597.50	1814.74
597.85	1815.64
598.19	1815.24
598.54	1815.00
598.89	1814.79
599.24	1815.21
599.59	1813.57
599.94	1812.36
600.29	1811.12
600.64	1810.02
600.99	1808.24
601.34	1808.67
601.69	1802.10
602.04	1801.21
602.39	1798.60
602.74	1797.95
603.08	1795.83
603.43	1795.90
603.78	1794.36
604.13	1792.50
604.48	1790.76
604.83	1789.45
605.18	1787.38
605.53	1786.31
605.87	1783.21
606.22	1781.43
606.57	1778.64
606.92	1776.07
607.27	1774.55
607.62	1773.36
607.96	1771.98
608.31	1771.69
608.66	1769.62
609.01	1766.95
609.36	1765.00
609.70	1762.74
610.05	1759.95
610.40	1757.90
610.75	1753.55
611.10	1751.17
611.44	1747.76
611.79	1743.67
612.14	1740.57
612.49	1736.86
612.83	1733.62
613.18	1730.33
613.53	1726.33
613.88	1722.69
614.22	1718.10
614.57	1713.76
614.92	1708.52
615.27	1703.43
615.61	1697.17
615.96	1691.48
616.31	1687.26
616.65	1683.64
617.00	1679.24
617.35	1674.10
617.70	1669.33
618.04	1663.57
618.39	1657.31
618.74	1651.95
619.08	1647.86
619.43	1642.50
619.78	1637.17
620.12	1632.17
620.47	1627.67
620.82	1622.71
621.16	1616.76
621.51	1613.67
621.85	1607.79
622.20	1602.05
622.55	1596.69
622.89	1592.57
623.24	1588.67
623.59	1583.55
623.93	1578.02
624.28	1573.95
624.62	1570.57
624.97	1566.98
625.32	1563.55
625.66	1559.60
626.01	1554.95
626.35	1550.55
626.70	1546.33
627.04	1542.40
627.39	1537.19
627.73	1533.64
628.08	1529.83
628.43	1526.02
628.77	1520.19
629.12	1516.74
629.46	1513.33
629.81	1508.81
630.15	1503.29
630.50	1497.83
630.84	1492.07
631.19	1486.60
631.53	1479.98
631.88	1472.50
632.22	1464.69
632.57	1459.74
632.91	1453.69
633.26	1448.26
633.60	1441.83
633.95	1435.29
634.29	1428.60
634.64	1423.05
634.98	1415.98
635.32	1410.69
635.67	1405.88
636.01	1401.29
636.36	1395.02
636.70	1389.74
637.05	1384.21
637.39	1378.98
637.73	1373.40
638.08	1369.64
638.42	1364.00
638.77	1359.81
639.11	1354.76
639.45	1351.02
639.80	1343.60
640.14	1338.26
640.49	1331.95
640.83	1325.62
641.17	1320.07
641.52	1314.40
641.86	1308.29
642.20	1303.14
642.55	1295.33
642.89	1288.64
643.23	1281.29
643.58	1275.69
643.92	1268.02
644.26	1261.52
644.61	1255.79
644.95	1249.69
645.29	1242.00
645.64	1235.76
645.98	1229.12
646.32	1223.02
646.66	1215.62
647.01	1209.57
647.35	1204.07
647.69	1198.12
648.04	1193.14
648.38	1187.19
648.72	1180.83
649.06	1173.98
649.41	1167.14
649.75	1160.43
650.09	1153.93
650.43	1147.26
650.78	1139.88
651.12	1134.02
651.46	1127.10
651.80	1120.36
652.14	1114.07
652.49	1108.05
652.83	1101.26
653.17	1093.62
653.51	1086.38
653.85	1079.86
654.20	1072.95
654.54	1064.90
654.88	1057.45
655.22	1051.10
655.56	1043.90
655.90	1037.21
656.25	1031.38
656.59	1024.60
656.93	1019.24
657.27	1013.43
657.61	1007.36
657.95	1001.62
658.29	994.88
658.64	989.43
658.98	982.67
659.32	975.67
659.66	969.24
660.00	963.14
660.34	957.79
660.68	952.10
661.02	945.86
661.36	940.14
661.70	934.31
662.05	929.05
662.39	922.81
662.73	917.69
663.07	912.52
663.41	905.74
663.75	899.88
664.09	893.43
664.43	886.57
664.77	880.48
665.11	874.36
665.45	868.55
665.79	862.29
666.13	856.40
666.47	851.02
666.81	845.17
667.15	839.21
667.49	833.33
667.83	828.67
668.17	822.95
668.51	817.62
668.85	812.60
669.19	808.17
669.53	802.12
669.87	796.00
670.21	790.00
670.55	784.93
670.89	781.10
671.23	776.26
671.57	771.38
671.91	766.79
672.25	761.60
672.58	757.50
672.92	752.17
673.26	747.12
673.60	742.17
673.94	737.50
674.28	732.86
674.62	728.05
674.96	722.21
675.30	717.86
675.64	713.26
675.97	708.55
676.31	703.38
676.65	698.98
676.99	695.40
677.33	690.90
677.67	686.52
678.01	680.62
678.34	676.50
678.68	672.64
679.02	667.40
679.36	662.95
679.70	657.81
680.04	653.64
680.37	649.52
680.71	645.05
681.05	640.71
681.39	636.31
681.73	632.05
682.06	627.81
682.40	623.19
682.74	618.50
683.08	614.45
683.42	609.67
683.75	605.55
684.09	600.21
684.43	596.00
684.77	592.05
685.10	587.64
685.44	583.07
685.78	578.26
686.12	574.07
686.45	569.81
686.79	565.57
687.13	561.88
687.46	557.31
687.80	553.90
688.14	549.69
688.48	546.12
688.81	542.10
689.15	539.40
689.49	535.69
689.82	532.31
690.16	527.60
690.50	524.12
690.83	520.33
691.17	516.62
691.51	512.86
691.84	509.26
692.18	505.81
692.52	502.24
692.85	499.29
693.19	496.98
693.52	493.45
693.86	489.95
694.20	486.48
694.53	483.93
694.87	479.90
695.21	476.17
695.54	472.81
695.88	469.12
696.21	464.69
696.55	461.79
696.88	458.83
697.22	456.21
697.56	453.50
697.89	450.14
698.23	447.05
698.56	444.02
698.90	441.43
699.23	438.60
699.57	435.69
699.90	432.05
700.24	428.67
700.58	426.12
700.91	423.76
701.25	422.64
701.58	420.14
701.92	417.90
702.25	416.05
702.59	412.88
702.92	410.48
703.26	408.31
703.59	405.88
703.93	404.71
704.26	402.62
704.60	399.83
704.93	397.71
705.26	395.55
705.60	393.79
705.93	390.55
706.27	388.86
706.60	387.31
706.94	386.38
707.27	384.17
707.61	382.02
707.94	379.40
708.27	375.90
708.61	373.26
708.94	371.24
709.28	369.55
709.61	367.83
709.94	366.43
710.28	364.36
710.61	362.50
710.95	359.05
711.28	358.67
711.61	357.29
711.95	356.07
712.28	354.21
712.61	352.19
712.95	351.81
713.28	350.88
713.61	348.64
713.95	346.05
714.28	344.40
714.61	342.81
714.95	341.19
715.28	339.02
715.61	337.43
715.95	336.00
716.28	334.05
716.61	333.05
716.95	331.10
717.28	329.33
717.61	327.67
717.94	326.21
718.28	323.14
718.61	321.24
718.94	319.19
719.27	317.71
719.61	316.14
719.94	314.26
720.27	311.64
720.60	310.19
720.94	308.83
721.27	307.52
721.60	306.69
721.93	305.95
722.27	305.71
722.60	304.79
722.93	303.40
723.26	302.29
723.59	300.67
723.93	299.88
724.26	299.19
724.59	297.88
724.92	296.86
725.25	296.57
725.59	295.88
725.92	295.26
726.25	294.43
726.58	293.88
726.91	292.81
727.24	292.12
727.57	291.38
727.91	290.69
728.24	290.00
728.57	288.79
728.90	288.17
729.23	286.71
729.56	286.69
729.89	285.90
730.22	284.81
730.55	284.14
730.89	282.93
731.22	281.83
731.55	281.12
731.88	280.57
732.21	279.29
732.54	278.31
732.87	277.71
733.20	277.07
733.53	276.14
733.86	275.45
734.19	274.69
734.52	274.10
734.85	274.67
735.18	273.74
735.51	273.52
735.84	272.79
736.17	272.79
736.50	271.12
736.83	272.86
737.16	272.43
737.49	271.74
737.82	271.21
738.15	271.05
738.48	270.40
738.81	269.43
739.14	268.33
739.47	267.50
739.80	266.93
740.13	266.60
740.46	265.79
740.79	264.79
741.12	264.07
741.45	263.33
741.78	261.62
742.11	261.45
742.44	260.57
742.77	260.19
743.10	259.38
743.43	258.71
743.75	255.88
744.08	257.88
744.41	257.33
744.74	256.83
745.07	255.57
745.40	255.60
745.73	256.19
746.06	256.21
746.39	255.88
746.71	254.98
747.04	253.95
747.37	253.38
747.70	253.52
748.03	253.38
748.36	253.45
748.68	252.74
749.01	251.81
749.34	251.36
749.67	250.90
750.00	250.62
750.33	251.90
750.65	251.62
750.98	248.57
751.31	248.07
751.64	247.83
751.97	248.81
752.29	248.17
752.62	246.64
752.95	245.95
753.28	245.69
753.60	245.38
753.93	245.86
754.26	245.64
754.59	244.86
754.91	243.98
755.24	242.98
755.57	242.69
755.90	242.14
756.22	241.69
756.55	240.95
756.88	239.90
757.20	238.24
757.53	237.21
757.86	236.98
758.19	236.90
758.51	236.45
758.84	235.12
759.17	234.45
759.49	234.29
759.82	235.29
760.15	235.14
760.47	234.55
760.80	233.55
761.13	233.60
761.45	233.14
761.78	233.07
762.11	232.98
762.43	232.62
762.76	232.48
763.08	232.52
763.41	232.48
763.74	232.55
764.06	232.21
764.39	232.10
764.71	231.95
765.04	231.55
765.37	231.05
765.69	230.95
766.02	230.88
766.34	230.71
766.67	229.52
767.00	229.38
767.32	230.43
767.65	231.43
767.97	231.07
768.30	231.17
768.62	230.88
768.95	230.40
769.27	230.19
769.60	230.38
769.92	229.81
770.25	229.43
770.57	228.93
770.90	228.71
771.22	228.64
771.55	228.60
771.87	228.55
772.20	228.31
772.52	229.74
772.85	232.02
773.17	231.60
773.50	231.21
773.82	230.79
774.15	229.76
774.47	228.26
774.80	227.79
775.12	227.43
775.45	227.38
775.77	227.43
776.09	227.29
776.42	226.93
776.74	227.48
777.07	226.74
777.39	226.90
777.72	226.43
778.04	226.71
778.36	226.29
778.69	226.19
779.01	226.71
779.33	224.86
779.66	222.33
779.98	222.21
780.31	221.98
780.63	222.90
780.95	223.21
781.28	223.45
781.60	223.26
781.92	223.26
782.25	223.02
782.57	222.95
782.89	222.83
783.22	222.79
783.54	222.00
783.86	222.64
784.19	221.95
784.51	222.81
784.83	222.21
785.16	222.07
