SpectraSuite Data File
++++++++++++++++++++++++++++++++++++
Date: Tue Apr 02 18:39:19 EDT 2013
User: group
Dark Spectrum Present: No
Reference Spectrum Present: No
Number of Sampled Component Spectra: 1
Spectrometers: USB2E7196
Integration Time (usec): 580000 (USB2E7196)
Spectra Averaged: 2 (USB2E7196)
Boxcar Smoothing: 10 (USB2E7196)
Correct for Electrical Dark: No (USB2E7196)
Strobe/Lamp Enabled: No (USB2E7196)
Correct for Detector Non-linearity: No (USB2E7196)
Correct for Stray Light: No (USB2E7196)
Number of Pixels in Processed Spectrum: 2048
>>>>>Begin Processed Spectral Data<<<<<
339.09	0.00
339.48	195.00
339.86	196.00
340.24	193.50
340.63	197.00
341.01	236.50
341.39	200.50
341.78	207.50
342.16	212.00
342.54	208.00
342.93	198.93
343.31	208.88
343.69	209.36
344.07	209.90
344.46	210.93
344.84	211.71
345.22	210.36
345.60	210.98
345.99	211.02
346.37	210.90
346.75	211.07
347.13	210.95
347.52	211.10
347.90	211.95
348.28	212.17
348.66	212.60
349.05	212.02
349.43	212.40
349.81	212.50
350.19	212.71
350.57	212.81
350.96	212.79
351.34	213.10
351.72	213.40
352.10	213.43
352.48	213.17
352.87	212.95
353.25	212.98
353.63	212.60
354.01	212.40
354.39	212.69
354.77	212.74
355.15	213.38
355.54	213.19
355.92	212.50
356.30	212.45
356.68	213.81
357.06	213.74
357.44	213.60
357.82	213.67
358.20	214.33
358.58	214.26
358.97	214.62
359.35	214.86
359.73	215.10
360.11	215.19
360.49	215.29
360.87	215.26
361.25	215.38
361.63	216.45
362.01	216.76
362.39	216.60
362.77	216.69
363.15	216.29
363.53	216.24
363.91	216.31
364.29	216.21
364.67	214.10
365.05	214.33
365.43	214.38
365.81	214.38
366.19	214.67
366.57	215.43
366.95	215.12
367.33	214.57
367.71	214.67
368.09	214.86
368.47	214.71
368.85	214.90
369.23	215.29
369.61	214.57
369.99	215.33
370.37	215.52
370.75	216.31
371.13	216.10
371.51	215.74
371.89	216.17
372.27	216.33
372.65	216.55
373.03	216.60
373.41	216.31
373.78	216.43
374.16	215.52
374.54	214.88
374.92	214.69
375.30	214.81
375.68	214.29
376.06	214.67
376.44	214.62
376.82	214.55
377.19	214.52
377.57	214.48
377.95	213.83
378.33	213.64
378.71	212.48
379.09	212.79
379.47	213.10
379.84	212.62
380.22	212.36
380.60	212.00
380.98	211.93
381.36	211.90
381.73	211.52
382.11	211.69
382.49	211.57
382.87	211.43
383.25	211.31
383.62	213.93
384.00	213.31
384.38	213.52
384.76	213.90
385.13	214.79
385.51	214.64
385.89	214.52
386.27	214.74
386.64	215.12
387.02	215.07
387.40	215.02
387.78	215.29
388.15	215.45
388.53	215.52
388.91	215.62
389.29	215.64
389.66	215.95
390.04	215.79
390.42	216.10
390.79	216.38
391.17	216.40
391.55	214.26
391.92	214.45
392.30	214.69
392.68	214.38
393.05	214.31
393.43	214.38
393.81	214.55
394.18	214.21
394.56	214.40
394.94	214.76
395.31	214.71
395.69	215.55
396.06	215.67
396.44	215.86
396.82	215.55
397.19	216.57
397.57	216.33
397.95	216.60
398.32	216.31
398.70	216.29
399.07	216.79
399.45	216.43
399.82	216.24
400.20	215.83
400.58	215.79
400.95	214.83
401.33	215.19
401.70	216.71
402.08	216.90
402.45	216.71
402.83	217.14
403.20	217.62
403.58	217.24
403.95	218.07
404.33	218.52
404.71	218.79
405.08	219.98
405.46	220.45
405.83	221.12
406.21	221.50
406.58	222.31
406.96	222.69
407.33	223.64
407.70	224.45
408.08	226.79
408.45	227.83
408.83	228.90
409.20	229.33
409.58	228.79
409.95	230.05
410.33	231.14
410.70	231.52
411.08	232.74
411.45	233.60
411.82	234.38
412.20	236.21
412.57	239.05
412.95	238.74
413.32	240.64
413.69	241.86
414.07	243.69
414.44	245.55
414.82	247.55
415.19	249.83
415.56	252.43
415.94	253.95
416.31	257.38
416.68	260.43
417.06	264.05
417.43	267.83
417.81	271.40
418.18	275.60
418.55	280.10
418.93	284.45
419.30	289.33
419.67	294.57
420.04	299.40
420.42	304.07
420.79	312.00
421.16	318.40
421.54	326.24
421.91	333.43
422.28	340.43
422.66	347.83
423.03	356.69
423.40	364.50
423.77	372.67
424.15	380.36
424.52	389.19
424.89	399.19
425.26	407.81
425.64	416.33
426.01	425.57
426.38	435.38
426.75	445.69
427.13	455.86
427.50	466.40
427.87	477.60
428.24	488.60
428.61	498.21
428.99	510.52
429.36	522.50
429.73	534.95
430.10	547.76
430.47	561.24
430.85	573.07
431.22	586.81
431.59	603.02
431.96	617.55
432.33	633.48
432.70	648.21
433.08	666.36
433.45	683.83
433.82	700.69
434.19	719.69
434.56	738.48
434.93	756.48
435.30	774.14
435.68	794.05
436.05	813.55
436.42	832.40
436.79	850.17
437.16	869.83
437.53	889.98
437.90	910.26
438.27	930.07
438.64	951.14
439.01	970.50
439.38	985.83
439.75	1002.00
440.13	1020.26
440.50	1038.21
440.87	1052.88
441.24	1067.40
441.61	1084.21
441.98	1096.12
442.35	1110.52
442.72	1125.12
443.09	1139.76
443.46	1147.26
443.83	1153.67
444.20	1159.31
444.57	1165.71
444.94	1168.52
445.31	1172.17
445.68	1177.93
446.05	1179.24
446.42	1177.43
446.79	1175.95
447.16	1173.93
447.53	1172.76
447.90	1165.40
448.27	1157.76
448.64	1147.62
449.01	1140.93
449.37	1128.24
449.74	1115.69
450.11	1101.64
450.48	1084.69
450.85	1067.02
451.22	1053.21
451.59	1039.40
451.96	1025.71
452.33	1008.19
452.70	992.43
453.07	973.64
453.43	951.24
453.80	932.98
454.17	914.36
454.54	897.05
454.91	878.95
455.28	861.60
455.65	845.48
456.02	832.71
456.38	818.83
456.75	801.50
457.12	786.79
457.49	772.86
457.86	757.38
458.23	746.40
458.59	733.31
458.96	720.48
459.33	708.43
459.70	697.02
460.07	688.00
460.43	677.12
460.80	666.71
461.17	658.74
461.54	649.00
461.91	640.79
462.27	631.36
462.64	623.76
463.01	614.74
463.38	607.07
463.74	595.07
464.11	587.19
464.48	580.83
464.85	573.90
465.21	568.64
465.58	563.05
465.95	555.24
466.32	549.81
466.68	543.81
467.05	538.10
467.42	532.40
467.78	526.36
468.15	520.74
468.52	516.76
468.88	510.62
469.25	505.60
469.62	501.90
469.98	497.67
470.35	493.40
470.72	489.62
471.08	485.05
471.45	482.07
471.82	479.36
472.18	475.50
472.55	472.57
472.92	468.64
473.28	465.40
473.65	462.24
474.02	459.38
474.38	457.21
474.75	455.17
475.11	452.74
475.48	450.74
475.85	448.90
476.21	446.88
476.58	445.64
476.94	444.48
477.31	442.52
477.67	441.38
478.04	440.38
478.41	439.31
478.77	440.00
479.14	438.88
479.50	437.74
479.87	437.48
480.23	437.17
480.60	436.98
480.96	437.00
481.33	438.40
481.69	438.48
482.06	438.76
482.42	439.14
482.79	439.48
483.15	440.07
483.52	441.36
483.88	441.93
484.25	442.43
484.61	443.12
484.98	444.07
485.34	445.90
485.71	447.71
486.07	449.62
486.44	449.81
486.80	452.17
487.17	454.00
487.53	456.33
487.90	458.79
488.26	461.81
488.62	464.36
488.99	466.64
489.35	469.76
489.72	472.36
490.08	475.17
490.44	478.69
490.81	482.24
491.17	485.02
491.54	489.12
491.90	493.83
492.26	498.36
492.63	502.76
492.99	506.64
493.36	511.12
493.72	516.17
494.08	521.17
494.45	526.14
494.81	531.90
495.17	537.02
495.54	542.71
495.90	547.90
496.26	554.21
496.63	560.21
496.99	566.24
497.35	572.81
497.72	579.88
498.08	587.02
498.44	594.10
498.80	602.31
499.17	609.31
499.53	616.00
499.89	623.79
500.26	631.48
500.62	638.93
500.98	647.12
501.34	654.90
501.71	662.95
502.07	671.19
502.43	679.14
502.79	687.81
503.16	695.98
503.52	704.57
503.88	712.83
504.24	721.95
504.60	730.83
504.97	739.64
505.33	748.52
505.69	757.86
506.05	767.19
506.41	775.57
506.78	784.24
507.14	793.10
507.50	802.26
507.86	811.83
508.22	821.98
508.59	830.52
508.95	840.07
509.31	850.74
509.67	859.10
510.03	868.79
510.39	877.64
510.75	886.88
511.12	896.36
511.48	906.14
511.84	914.88
512.20	924.40
512.56	934.52
512.92	942.83
513.28	951.64
513.64	960.52
514.00	969.74
514.37	979.24
514.73	988.57
515.09	997.36
515.45	1005.38
515.81	1013.57
516.17	1022.48
516.53	1030.19
516.89	1036.95
517.25	1045.36
517.61	1054.26
517.97	1062.50
518.33	1070.33
518.69	1078.88
519.05	1086.57
519.41	1094.74
519.77	1103.26
520.13	1110.31
520.49	1118.31
520.85	1125.81
521.21	1133.95
521.57	1141.60
521.93	1149.00
522.29	1156.57
522.65	1163.50
523.01	1171.40
523.37	1178.19
523.73	1185.38
524.09	1192.31
524.45	1199.50
524.81	1206.76
525.17	1213.76
525.53	1220.48
525.89	1227.62
526.25	1233.95
526.61	1239.76
526.97	1245.50
527.33	1251.07
527.68	1258.74
528.04	1264.81
528.40	1270.95
528.76	1277.12
529.12	1283.50
529.48	1289.55
529.84	1296.29
530.20	1302.55
530.56	1308.50
530.91	1315.19
531.27	1321.50
531.63	1328.14
531.99	1334.29
532.35	1339.90
532.71	1344.74
533.07	1350.93
533.42	1358.71
533.78	1364.26
534.14	1370.98
534.50	1376.76
534.86	1383.36
535.21	1387.67
535.57	1394.69
535.93	1399.29
536.29	1406.55
536.65	1411.62
537.00	1416.33
537.36	1420.69
537.72	1425.19
538.08	1431.17
538.44	1435.12
538.79	1439.69
539.15	1444.55
539.51	1449.50
539.87	1455.12
540.22	1460.12
540.58	1464.71
540.94	1467.76
541.29	1473.19
541.65	1476.90
542.01	1481.60
542.37	1484.29
542.72	1488.29
543.08	1491.88
543.44	1497.52
543.79	1499.17
544.15	1504.24
544.51	1510.19
544.87	1515.24
545.22	1520.93
545.58	1523.55
545.94	1528.02
546.29	1531.62
546.65	1535.33
547.01	1539.24
547.36	1543.52
547.72	1547.05
548.07	1551.17
548.43	1554.57
548.79	1557.10
549.14	1560.21
549.50	1564.50
549.86	1568.21
550.21	1572.02
550.57	1574.81
550.92	1578.02
551.28	1582.31
551.64	1585.86
551.99	1588.19
552.35	1591.55
552.70	1593.40
553.06	1597.50
553.41	1601.10
553.77	1607.12
554.13	1611.26
554.48	1615.12
554.84	1619.19
555.19	1623.26
555.55	1627.60
555.90	1630.67
556.26	1635.21
556.61	1639.36
556.97	1642.07
557.32	1646.00
557.68	1650.24
558.03	1654.12
558.39	1657.76
558.74	1660.55
559.10	1663.62
559.45	1668.10
559.81	1672.14
560.16	1677.48
560.52	1681.52
560.87	1686.26
561.23	1687.90
561.58	1693.40
561.94	1696.93
562.29	1699.64
562.64	1703.81
563.00	1706.90
563.35	1711.40
563.71	1715.55
564.06	1720.52
564.42	1726.38
564.77	1731.86
565.12	1737.21
565.48	1744.17
565.83	1750.10
566.19	1756.02
566.54	1760.88
566.89	1765.31
567.25	1769.83
567.60	1774.71
567.96	1779.93
568.31	1784.64
568.66	1789.81
569.02	1791.79
569.37	1794.93
569.72	1799.45
570.08	1802.26
570.43	1804.86
570.78	1808.88
571.14	1811.71
571.49	1814.21
571.84	1816.38
572.20	1818.88
572.55	1820.95
572.90	1821.74
573.26	1823.60
573.61	1824.17
573.96	1825.31
574.31	1826.29
574.67	1827.64
575.02	1829.00
575.37	1829.83
575.72	1829.71
576.08	1831.86
576.43	1832.76
576.78	1834.10
577.13	1833.86
577.49	1835.29
577.84	1837.74
578.19	1838.02
578.54	1839.17
578.90	1840.52
579.25	1840.90
579.60	1840.14
579.95	1838.52
580.30	1838.33
580.66	1837.57
581.01	1838.57
581.36	1838.48
581.71	1838.81
582.06	1839.76
582.42	1838.83
582.77	1837.86
583.12	1838.21
583.47	1835.98
583.82	1835.71
584.17	1835.69
584.53	1836.31
584.88	1835.17
585.23	1834.33
585.58	1832.00
585.93	1830.00
586.28	1828.38
586.63	1827.07
586.98	1826.95
587.34	1827.55
587.69	1825.76
588.04	1823.40
588.39	1821.24
588.74	1818.62
589.09	1817.07
589.44	1812.90
589.79	1810.86
590.14	1809.50
590.49	1807.29
590.84	1805.60
591.19	1803.83
591.54	1802.24
591.89	1799.57
592.25	1799.43
592.60	1795.55
592.95	1795.19
593.30	1793.10
593.65	1790.19
594.00	1787.14
594.35	1789.79
594.70	1786.26
595.05	1783.81
595.40	1781.69
595.75	1778.45
596.10	1776.69
596.45	1773.57
596.80	1772.38
597.15	1770.10
597.50	1766.19
597.85	1764.19
598.19	1761.02
598.54	1756.98
598.89	1753.38
599.24	1749.98
599.59	1745.48
599.94	1742.45
600.29	1738.81
600.64	1735.81
600.99	1732.48
601.34	1729.98
601.69	1721.05
602.04	1717.10
602.39	1713.81
602.74	1710.57
603.08	1707.29
603.43	1704.83
603.78	1701.48
604.13	1697.43
604.48	1692.36
604.83	1689.07
605.18	1684.62
605.53	1681.02
605.87	1677.26
606.22	1672.31
606.57	1667.67
606.92	1662.26
607.27	1658.74
607.62	1654.43
607.96	1650.86
608.31	1647.14
608.66	1642.67
609.01	1638.71
609.36	1634.50
609.70	1629.48
610.05	1623.74
610.40	1620.21
610.75	1614.57
611.10	1610.67
611.44	1604.74
611.79	1600.21
612.14	1595.02
612.49	1589.33
612.83	1583.64
613.18	1578.19
613.53	1573.05
613.88	1567.48
614.22	1561.57
614.57	1555.74
614.92	1549.21
615.27	1543.50
615.61	1537.17
615.96	1530.64
616.31	1523.57
616.65	1518.36
617.00	1512.83
617.35	1508.10
617.70	1500.76
618.04	1493.95
618.39	1485.98
618.74	1479.52
619.08	1472.67
619.43	1466.38
619.78	1460.48
620.12	1454.93
620.47	1449.21
620.82	1441.76
621.16	1435.69
621.51	1431.40
621.85	1424.05
622.20	1418.29
622.55	1410.62
622.89	1403.95
623.24	1398.43
623.59	1392.76
623.93	1386.79
624.28	1381.14
624.62	1376.83
624.97	1372.55
625.32	1366.57
625.66	1361.07
626.01	1355.71
626.35	1351.33
626.70	1345.48
627.04	1339.50
627.39	1332.57
627.73	1327.50
628.08	1323.19
628.43	1318.05
628.77	1311.45
629.12	1307.31
629.46	1301.29
629.81	1295.88
630.15	1289.79
630.50	1283.50
630.84	1276.98
631.19	1269.90
631.53	1263.02
631.88	1253.76
632.22	1245.81
632.57	1240.62
632.91	1234.29
633.26	1228.05
633.60	1220.98
633.95	1214.95
634.29	1208.60
634.64	1202.38
634.98	1195.24
635.32	1189.95
635.67	1183.12
636.01	1176.31
636.36	1168.69
636.70	1163.79
637.05	1157.67
637.39	1151.86
637.73	1146.10
638.08	1140.98
638.42	1135.24
638.77	1129.79
639.11	1124.38
639.45	1118.40
639.80	1111.71
640.14	1105.52
640.49	1099.07
640.83	1092.29
641.17	1085.69
641.52	1079.19
641.86	1073.00
642.20	1067.45
642.55	1060.02
642.89	1053.83
643.23	1047.36
643.58	1042.29
643.92	1034.40
644.26	1027.93
644.61	1022.24
644.95	1015.57
645.29	1008.36
645.64	1003.10
645.98	995.86
646.32	989.38
646.66	982.88
647.01	976.50
647.35	971.19
647.69	964.62
648.04	959.52
648.38	952.98
648.72	947.12
649.06	940.95
649.41	934.00
649.75	927.38
650.09	921.24
650.43	915.74
650.78	908.88
651.12	902.90
651.46	896.33
651.80	890.21
652.14	884.21
652.49	878.33
652.83	871.33
653.17	865.93
653.51	859.88
653.85	854.71
654.20	848.67
654.54	841.79
654.88	835.79
655.22	829.83
655.56	824.86
655.90	818.93
656.25	813.12
656.59	807.36
656.93	802.36
657.27	797.50
657.61	791.17
657.95	786.50
658.29	780.69
658.64	775.52
658.98	769.81
659.32	763.45
659.66	758.26
660.00	752.52
660.34	746.93
660.68	741.98
661.02	735.81
661.36	730.40
661.70	725.38
662.05	721.05
662.39	715.83
662.73	711.10
663.07	706.71
663.41	701.95
663.75	696.55
664.09	691.74
664.43	685.98
664.77	681.74
665.11	675.98
665.45	671.79
665.79	667.83
666.13	663.05
666.47	658.60
666.81	653.55
667.15	648.74
667.49	644.24
667.83	640.14
668.17	636.21
668.51	631.76
668.85	627.29
669.19	623.67
669.53	618.38
669.87	613.17
670.21	607.90
670.55	603.50
670.89	600.48
671.23	596.26
671.57	592.31
671.91	587.88
672.25	584.19
672.58	580.88
672.92	576.17
673.26	572.43
673.60	569.14
673.94	566.05
674.28	562.57
674.62	559.31
674.96	555.21
675.30	551.48
675.64	548.14
675.97	544.81
676.31	540.50
676.65	536.95
676.99	534.29
677.33	530.83
677.67	527.57
678.01	523.57
678.34	520.00
678.68	516.98
679.02	513.50
679.36	510.17
679.70	506.38
680.04	502.71
680.37	499.21
680.71	495.38
681.05	492.17
681.39	488.74
681.73	485.14
682.06	481.76
682.40	478.60
682.74	475.57
683.08	473.02
683.42	469.57
683.75	466.86
684.09	462.95
684.43	460.45
684.77	456.95
685.10	454.07
685.44	450.93
685.78	447.67
686.12	445.05
686.45	441.79
686.79	438.69
687.13	436.67
687.46	433.95
687.80	432.19
688.14	429.05
688.48	426.90
688.81	424.57
689.15	422.55
689.49	419.79
689.82	417.50
690.16	414.12
690.50	411.57
690.83	409.33
691.17	406.81
691.51	404.02
691.84	402.19
692.18	399.88
692.52	397.71
692.85	395.98
693.19	394.48
693.52	392.45
693.86	390.12
694.20	387.83
694.53	385.67
694.87	383.24
695.21	380.74
695.54	378.50
695.88	375.55
696.21	372.76
696.55	370.69
696.88	368.62
697.22	366.64
697.56	365.24
697.89	363.14
698.23	361.74
698.56	359.62
698.90	357.95
699.23	355.86
699.57	354.00
699.90	351.71
700.24	349.10
700.58	347.52
700.91	346.07
701.25	345.76
701.58	344.55
701.92	343.17
702.25	341.93
702.59	340.10
702.92	338.98
703.26	337.90
703.59	336.29
703.93	336.24
704.26	335.02
704.60	333.60
704.93	332.07
705.26	330.24
705.60	329.36
705.93	327.33
706.27	326.19
706.60	325.19
706.94	324.90
707.27	323.52
707.61	321.95
707.94	320.36
708.27	317.76
708.61	315.60
708.94	314.24
709.28	313.14
709.61	311.69
709.94	310.81
710.28	309.55
710.61	308.95
710.95	305.90
711.28	306.07
711.61	305.00
711.95	304.33
712.28	303.31
712.61	302.07
712.95	302.12
713.28	302.10
713.61	300.57
713.95	298.98
714.28	298.24
714.61	297.17
714.95	296.17
715.28	294.76
715.61	294.29
715.95	293.33
716.28	292.05
716.61	291.71
716.95	290.29
717.28	289.17
717.61	287.69
717.94	286.86
718.28	284.62
718.61	283.38
718.94	281.90
719.27	280.95
719.61	280.31
719.94	278.86
720.27	276.74
720.60	276.02
720.94	275.05
721.27	274.31
721.60	273.86
721.93	273.24
722.27	273.26
722.60	272.83
722.93	271.76
723.26	271.52
723.59	270.38
723.93	269.98
724.26	269.48
724.59	268.50
724.92	268.00
725.25	267.83
725.59	267.00
725.92	266.86
726.25	266.38
726.58	265.74
726.91	265.36
727.24	264.93
727.57	264.38
727.91	263.62
728.24	263.29
728.57	262.50
728.90	262.40
729.23	261.10
729.56	261.10
729.89	260.81
730.22	259.79
730.55	259.29
730.89	258.74
731.22	258.02
731.55	258.00
731.88	257.57
732.21	256.71
732.54	256.07
732.87	255.57
733.20	254.98
733.53	254.38
733.86	253.88
734.19	253.36
734.52	253.00
734.85	253.83
735.18	253.24
735.51	253.43
735.84	252.79
736.17	253.07
736.50	251.64
736.83	253.21
737.16	252.86
737.49	252.64
737.82	252.17
738.15	252.36
738.48	251.74
738.81	251.33
739.14	250.62
739.47	250.36
739.80	249.83
740.13	249.79
740.46	249.38
740.79	248.81
741.12	248.50
741.45	247.90
741.78	246.50
742.11	246.45
742.44	245.93
742.77	245.98
743.10	245.21
743.43	244.90
743.75	242.57
744.08	244.98
744.41	244.50
744.74	243.88
745.07	242.98
745.40	243.38
745.73	243.90
746.06	243.69
746.39	243.69
746.71	243.14
747.04	242.48
747.37	241.98
747.70	242.00
748.03	242.00
748.36	242.26
748.68	242.02
749.01	241.14
749.34	240.60
749.67	240.24
750.00	240.36
750.33	241.81
750.65	241.81
750.98	238.95
751.31	238.76
751.64	239.10
751.97	240.02
752.29	239.31
752.62	237.93
752.95	237.60
753.28	237.00
753.60	236.86
753.93	237.38
754.26	237.29
754.59	236.50
754.91	235.90
755.24	235.33
755.57	234.86
755.90	234.71
756.22	234.50
756.55	233.98
756.88	233.29
757.20	231.62
757.53	230.74
757.86	230.74
758.19	230.69
758.51	230.26
758.84	228.83
759.17	228.55
759.49	228.67
759.82	229.62
760.15	229.86
760.47	229.60
760.80	228.76
761.13	229.02
761.45	229.00
761.78	228.71
762.11	228.55
762.43	228.36
762.76	228.36
763.08	228.38
763.41	228.29
763.74	228.38
764.06	228.14
764.39	228.17
764.71	227.48
765.04	227.02
765.37	227.00
765.69	226.86
766.02	226.74
766.34	226.38
766.67	225.71
767.00	225.88
767.32	226.79
767.65	227.86
767.97	227.33
768.30	227.07
768.62	227.12
768.95	226.86
769.27	226.76
769.60	226.67
769.92	226.07
770.25	225.64
770.57	224.90
770.90	224.52
771.22	224.26
771.55	224.67
771.87	224.67
772.20	224.33
772.52	226.02
772.85	228.26
773.17	228.26
773.50	227.69
773.82	227.21
774.15	226.21
774.47	224.88
774.80	224.60
775.12	224.50
775.45	224.40
775.77	224.48
776.09	224.45
776.42	224.24
776.74	224.93
777.07	224.81
777.39	224.90
777.72	224.74
778.04	224.74
778.36	224.45
778.69	224.31
779.01	224.48
779.33	222.67
779.66	220.19
779.98	219.90
780.31	219.76
780.63	220.40
780.95	220.57
781.28	220.36
781.60	220.19
781.92	220.33
782.25	220.19
782.57	220.14
782.89	219.98
783.22	219.81
783.54	219.24
783.86	219.38
784.19	219.26
784.51	219.81
784.83	219.74
785.16	219.55
785.48	219.69
