SpectraSuite Data File
++++++++++++++++++++++++++++++++++++
Date: Tue Apr 02 18:42:50 EDT 2013
User: group
Dark Spectrum Present: No
Reference Spectrum Present: No
Number of Sampled Component Spectra: 1
Spectrometers: USB2E7196
Integration Time (usec): 580000 (USB2E7196)
Spectra Averaged: 2 (USB2E7196)
Boxcar Smoothing: 10 (USB2E7196)
Correct for Electrical Dark: No (USB2E7196)
Strobe/Lamp Enabled: No (USB2E7196)
Correct for Detector Non-linearity: No (USB2E7196)
Correct for Stray Light: No (USB2E7196)
Number of Pixels in Processed Spectrum: 2048
>>>>>Begin Processed Spectral Data<<<<<
339.09	0.00
339.48	192.00
339.86	192.50
340.24	194.00
340.63	199.50
341.01	235.00
341.39	199.50
341.78	203.50
342.16	208.00
342.54	207.00
342.93	196.86
343.31	206.52
343.69	206.95
344.07	207.26
344.46	208.07
344.84	208.45
345.22	207.00
345.60	207.57
345.99	207.81
346.37	207.79
346.75	207.76
347.13	207.98
347.52	207.86
347.90	208.69
348.28	208.62
348.66	209.10
349.05	208.64
349.43	209.12
349.81	209.33
350.19	209.17
350.57	209.64
350.96	210.14
351.34	210.48
351.72	210.81
352.10	211.29
352.48	211.31
352.87	211.43
353.25	211.55
353.63	211.40
354.01	211.43
354.39	211.52
354.77	211.64
355.15	212.05
355.54	212.14
355.92	211.64
356.30	211.81
356.68	213.14
357.06	213.10
357.44	212.81
357.82	212.67
358.20	213.86
358.58	213.48
358.97	213.57
359.35	214.14
359.73	214.62
360.11	214.69
360.49	214.67
360.87	214.62
361.25	215.02
361.63	215.93
362.01	216.00
362.39	215.95
362.77	216.12
363.15	216.10
363.53	215.81
363.91	215.95
364.29	215.90
364.67	214.19
365.05	214.33
365.43	214.50
365.81	214.95
366.19	215.05
366.57	216.00
366.95	215.98
367.33	215.43
367.71	215.38
368.09	215.67
368.47	215.67
368.85	215.83
369.23	216.14
369.61	215.33
369.99	216.00
370.37	216.57
370.75	217.64
371.13	217.21
371.51	217.29
371.89	217.45
372.27	217.50
372.65	217.60
373.03	217.45
373.41	217.19
373.78	217.12
374.16	216.05
374.54	215.52
374.92	215.10
375.30	215.24
375.68	214.93
376.06	215.19
376.44	215.17
376.82	215.26
377.19	215.31
377.57	215.24
377.95	214.62
378.33	214.19
378.71	213.10
379.09	213.69
379.47	213.93
379.84	213.57
380.22	213.26
380.60	212.88
380.98	212.90
381.36	212.93
381.73	212.45
382.11	212.86
382.49	212.83
382.87	212.79
383.25	212.57
383.62	215.00
384.00	214.45
384.38	214.40
384.76	214.90
385.13	215.31
385.51	215.24
385.89	215.12
386.27	215.36
386.64	215.48
387.02	214.98
387.40	214.79
387.78	214.86
388.15	215.00
388.53	214.90
388.91	214.98
389.29	214.60
389.66	215.14
390.04	214.79
390.42	215.19
390.79	215.43
391.17	215.40
391.55	212.95
391.92	212.93
392.30	213.26
392.68	212.60
393.05	212.48
393.43	212.52
393.81	212.52
394.18	211.95
394.56	212.12
394.94	212.57
395.31	212.31
395.69	213.07
396.06	213.31
396.44	213.43
396.82	213.31
397.19	214.60
397.57	214.26
397.95	214.93
398.32	214.21
398.70	214.31
399.07	214.90
399.45	214.86
399.82	214.90
400.20	214.64
400.58	214.79
400.95	214.14
401.33	214.81
401.70	216.55
402.08	216.83
402.45	216.74
402.83	217.48
403.20	217.86
403.58	217.74
403.95	218.43
404.33	218.83
404.71	219.38
405.08	220.71
405.46	221.24
405.83	221.10
406.21	221.40
406.58	222.07
406.96	222.26
407.33	223.05
407.70	223.76
408.08	226.07
408.45	226.81
408.83	227.74
409.20	228.00
409.58	227.31
409.95	228.64
410.33	229.74
410.70	229.81
411.08	231.12
411.45	232.05
411.82	232.57
412.20	234.26
412.57	236.45
412.95	236.02
413.32	237.71
413.69	239.26
414.07	241.24
414.44	242.98
414.82	244.64
415.19	247.00
415.56	249.05
415.94	250.29
416.31	253.21
416.68	256.10
417.06	259.26
417.43	262.83
417.81	266.19
418.18	269.86
418.55	274.17
418.93	278.02
419.30	282.02
419.67	286.83
420.04	291.21
420.42	295.50
420.79	302.52
421.16	308.12
421.54	315.19
421.91	321.38
422.28	327.48
422.66	334.24
423.03	342.33
423.40	349.62
423.77	356.74
424.15	363.69
424.52	371.62
424.89	380.50
425.26	388.02
425.64	395.76
426.01	403.62
426.38	412.19
426.75	421.79
427.13	431.31
427.50	441.02
427.87	450.62
428.24	460.64
428.61	469.26
428.99	480.43
429.36	491.31
429.73	502.57
430.10	514.38
430.47	526.31
430.85	536.62
431.22	548.81
431.59	563.71
431.96	576.50
432.33	590.29
432.70	603.88
433.08	620.79
433.45	636.21
433.82	651.57
434.19	668.36
434.56	685.48
434.93	701.26
435.30	716.93
435.68	735.36
436.05	752.48
436.42	769.48
436.79	785.55
437.16	802.33
437.53	820.26
437.90	837.71
438.27	855.71
438.64	873.33
439.01	890.74
439.38	904.62
439.75	919.71
440.13	937.43
440.50	952.98
440.87	964.88
441.24	977.95
441.61	992.33
441.98	1003.31
442.35	1015.00
442.72	1028.86
443.09	1042.50
443.46	1049.38
443.83	1054.60
444.20	1059.52
444.57	1065.43
444.94	1068.86
445.31	1072.52
445.68	1078.02
446.05	1079.50
446.42	1079.26
446.79	1078.50
447.16	1076.36
447.53	1075.45
447.90	1068.74
448.27	1062.05
448.64	1053.60
449.01	1047.60
449.37	1037.26
449.74	1026.12
450.11	1014.43
450.48	998.69
450.85	981.79
451.22	969.10
451.59	957.55
451.96	945.36
452.33	929.50
452.70	915.00
453.07	897.64
453.43	878.45
453.80	861.88
454.17	845.74
454.54	829.90
454.91	813.71
455.28	797.60
455.65	782.12
456.02	770.95
456.38	758.21
456.75	742.26
457.12	728.64
457.49	715.83
457.86	702.00
458.23	692.17
458.59	681.17
458.96	669.88
459.33	658.81
459.70	648.62
460.07	640.05
460.43	630.55
460.80	622.19
461.17	614.50
461.54	606.64
461.91	598.43
462.27	589.88
462.64	582.67
463.01	575.26
463.38	568.67
463.74	558.07
464.11	551.69
464.48	546.24
464.85	539.81
465.21	534.98
465.58	529.90
465.95	523.00
466.32	517.93
466.68	512.29
467.05	507.36
467.42	502.31
467.78	497.43
468.15	492.45
468.52	488.52
468.88	483.00
469.25	477.71
469.62	474.57
469.98	470.79
470.35	467.45
470.72	464.00
471.08	459.26
471.45	456.81
471.82	454.17
472.18	450.45
472.55	448.29
472.92	444.93
473.28	441.90
473.65	439.21
474.02	436.48
474.38	434.55
474.75	432.90
475.11	430.69
475.48	429.02
475.85	427.17
476.21	425.21
476.58	423.76
476.94	422.67
477.31	420.86
477.67	419.52
478.04	418.33
478.41	417.33
478.77	418.83
479.14	417.26
479.50	416.50
479.87	416.29
480.23	415.98
480.60	415.86
480.96	415.62
481.33	416.57
481.69	416.88
482.06	417.24
482.42	417.21
482.79	417.43
483.15	417.43
483.52	418.57
483.88	419.17
484.25	419.83
484.61	420.17
484.98	421.19
485.34	423.14
485.71	424.57
486.07	425.74
486.44	425.50
486.80	427.17
487.17	428.38
487.53	430.60
487.90	432.74
488.26	436.00
488.62	438.90
488.99	440.40
489.35	442.93
489.72	445.10
490.08	447.86
490.44	451.17
490.81	454.71
491.17	457.36
491.54	460.83
491.90	464.90
492.26	468.76
492.63	472.55
492.99	475.64
493.36	479.43
493.72	484.00
494.08	488.57
494.45	492.98
494.81	498.12
495.17	502.90
495.54	508.21
495.90	512.38
496.26	517.43
496.63	522.98
496.99	529.02
497.35	535.14
497.72	541.02
498.08	546.67
498.44	552.95
498.80	559.79
499.17	566.02
499.53	571.79
499.89	579.12
500.26	585.71
500.62	592.74
500.98	600.12
501.34	606.67
501.71	614.24
502.07	621.67
502.43	628.64
502.79	635.14
503.16	641.83
503.52	648.90
503.88	655.88
504.24	663.29
504.60	670.43
504.97	678.19
505.33	685.74
505.69	693.86
506.05	701.26
506.41	708.26
506.78	715.43
507.14	723.24
507.50	730.81
507.86	738.57
508.22	746.43
508.59	753.50
508.95	761.40
509.31	769.95
509.67	778.21
510.03	785.57
510.39	793.83
510.75	801.64
511.12	809.40
511.48	817.57
511.84	825.36
512.20	832.83
512.56	840.36
512.92	847.83
513.28	855.55
513.64	862.86
514.00	870.83
514.37	878.71
514.73	886.33
515.09	893.45
515.45	900.24
515.81	907.24
516.17	914.81
516.53	921.17
516.89	927.05
517.25	932.62
517.61	940.29
517.97	946.88
518.33	954.05
518.69	961.02
519.05	966.74
519.41	972.86
519.77	980.57
520.13	986.12
520.49	991.67
520.85	997.43
521.21	1004.26
521.57	1010.17
521.93	1014.81
522.29	1020.76
522.65	1025.86
523.01	1032.05
523.37	1037.31
523.73	1042.07
524.09	1047.14
524.45	1051.71
524.81	1057.17
525.17	1061.60
525.53	1066.14
525.89	1070.29
526.25	1075.17
526.61	1079.69
526.97	1083.76
527.33	1087.52
527.68	1093.48
528.04	1098.69
528.40	1103.00
528.76	1106.52
529.12	1110.50
529.48	1116.57
529.84	1120.31
530.20	1124.55
530.56	1129.10
530.91	1133.38
531.27	1138.33
531.63	1143.14
531.99	1146.93
532.35	1150.29
532.71	1154.29
533.07	1159.33
533.42	1165.60
533.78	1169.55
534.14	1174.55
534.50	1178.98
534.86	1183.36
535.21	1185.86
535.57	1190.38
535.93	1193.00
536.29	1197.57
536.65	1202.26
537.00	1205.31
537.36	1208.93
537.72	1212.76
538.08	1216.05
538.44	1219.48
538.79	1222.62
539.15	1226.36
539.51	1230.60
539.87	1235.05
540.22	1239.40
540.58	1242.62
540.94	1243.52
541.29	1246.55
541.65	1248.79
542.01	1252.00
542.37	1254.10
542.72	1257.21
543.08	1258.83
543.44	1262.86
543.79	1264.48
544.15	1267.05
544.51	1270.05
544.87	1273.48
545.22	1276.33
545.58	1278.95
545.94	1281.79
546.29	1284.50
546.65	1287.26
547.01	1289.26
547.36	1291.95
547.72	1293.76
548.07	1296.33
548.43	1299.14
548.79	1301.69
549.14	1304.79
549.50	1307.60
549.86	1310.21
550.21	1313.14
550.57	1316.90
550.92	1318.83
551.28	1322.38
551.64	1325.00
551.99	1327.76
552.35	1329.86
552.70	1332.71
553.06	1335.79
553.41	1339.29
553.77	1344.00
554.13	1346.81
554.48	1351.12
554.84	1355.43
555.19	1359.55
555.55	1364.52
555.90	1368.26
556.26	1371.86
556.61	1375.05
556.97	1378.79
557.32	1383.10
557.68	1386.48
558.03	1390.36
558.39	1395.12
558.74	1399.26
559.10	1402.88
559.45	1407.62
559.81	1412.93
560.16	1416.88
560.52	1421.10
560.87	1424.93
561.23	1428.14
561.58	1434.88
561.94	1438.79
562.29	1442.69
562.64	1447.36
563.00	1450.71
563.35	1455.36
563.71	1460.43
564.06	1466.07
564.42	1470.83
564.77	1476.07
565.12	1483.17
565.48	1490.69
565.83	1496.69
566.19	1502.10
566.54	1507.98
566.89	1513.60
567.25	1519.74
567.60	1527.19
567.96	1534.98
568.31	1541.83
568.66	1548.12
569.02	1552.60
569.37	1558.31
569.72	1564.26
570.08	1568.93
570.43	1573.79
570.78	1579.79
571.14	1586.26
571.49	1592.21
571.84	1597.74
572.20	1602.19
572.55	1606.52
572.90	1609.21
573.26	1613.36
573.61	1618.19
573.96	1623.48
574.31	1627.14
574.67	1629.81
575.02	1633.26
575.37	1635.83
575.72	1638.79
576.08	1643.48
576.43	1646.52
576.78	1650.19
577.13	1653.81
577.49	1658.12
577.84	1662.57
578.19	1665.95
578.54	1668.67
578.90	1672.12
579.25	1676.02
579.60	1679.45
579.95	1682.88
580.30	1686.19
580.66	1690.17
581.01	1693.12
581.36	1694.57
581.71	1698.31
582.06	1703.64
582.42	1707.57
582.77	1710.52
583.12	1713.83
583.47	1716.21
583.82	1719.55
584.17	1722.33
584.53	1725.29
584.88	1727.43
585.23	1731.05
585.58	1733.31
585.93	1735.71
586.28	1736.88
586.63	1738.74
586.98	1741.79
587.34	1744.29
587.69	1746.50
588.04	1748.14
588.39	1750.62
588.74	1753.40
589.09	1754.86
589.44	1754.45
589.79	1755.57
590.14	1757.69
590.49	1759.60
590.84	1760.64
591.19	1762.14
591.54	1764.07
591.89	1764.60
592.25	1768.55
592.60	1767.86
592.95	1769.71
593.30	1771.38
593.65	1773.26
594.00	1773.86
594.35	1780.14
594.70	1779.64
595.05	1780.86
595.40	1781.29
595.75	1781.60
596.10	1782.57
596.45	1784.05
596.80	1786.00
597.15	1786.45
597.50	1785.57
597.85	1786.81
598.19	1786.57
598.54	1786.45
598.89	1785.79
599.24	1787.62
599.59	1785.40
599.94	1785.81
600.29	1785.57
600.64	1785.40
600.99	1784.81
601.34	1786.05
601.69	1780.40
602.04	1779.43
602.39	1778.52
602.74	1779.50
603.08	1778.67
603.43	1778.88
603.78	1777.45
604.13	1776.83
604.48	1775.83
604.83	1776.38
605.18	1775.26
605.53	1774.67
605.87	1773.60
606.22	1772.24
606.57	1769.64
606.92	1768.62
607.27	1768.26
607.62	1767.45
607.96	1766.14
608.31	1766.19
608.66	1764.69
609.01	1763.10
609.36	1762.40
609.70	1761.05
610.05	1758.40
610.40	1757.17
610.75	1754.52
611.10	1753.40
611.44	1750.48
611.79	1748.76
612.14	1746.71
612.49	1742.81
612.83	1740.14
613.18	1737.45
613.53	1735.02
613.88	1732.36
614.22	1728.86
614.57	1725.17
614.92	1720.79
615.27	1716.62
615.61	1711.40
615.96	1707.17
616.31	1703.40
616.65	1701.40
617.00	1697.31
617.35	1693.81
617.70	1690.83
618.04	1687.05
618.39	1682.29
618.74	1678.50
619.08	1674.14
619.43	1670.17
619.78	1667.79
620.12	1664.14
620.47	1661.05
620.82	1656.55
621.16	1651.71
621.51	1648.83
621.85	1644.07
622.20	1639.88
622.55	1635.64
622.89	1632.05
623.24	1628.60
623.59	1624.52
623.93	1619.88
624.28	1616.00
624.62	1613.79
624.97	1610.40
625.32	1606.76
625.66	1602.43
626.01	1598.40
626.35	1595.17
626.70	1590.79
627.04	1586.74
627.39	1582.38
627.73	1578.10
628.08	1575.98
628.43	1572.05
628.77	1568.05
629.12	1565.02
629.46	1561.52
629.81	1557.88
630.15	1552.48
630.50	1547.33
630.84	1542.52
631.19	1537.14
631.53	1531.83
631.88	1525.31
632.22	1518.00
632.57	1513.67
632.91	1508.26
633.26	1503.38
633.60	1497.57
633.95	1492.19
634.29	1486.40
634.64	1481.50
634.98	1475.79
635.32	1470.93
635.67	1466.88
636.01	1461.88
636.36	1455.10
636.70	1451.00
637.05	1445.76
637.39	1441.64
637.73	1437.33
638.08	1433.05
638.42	1428.05
638.77	1424.21
639.11	1418.74
639.45	1414.29
639.80	1407.33
640.14	1403.12
640.49	1397.81
640.83	1392.38
641.17	1387.14
641.52	1381.52
641.86	1376.64
642.20	1372.43
642.55	1365.38
642.89	1359.81
643.23	1353.55
643.58	1349.36
643.92	1342.33
644.26	1336.57
644.61	1331.33
644.95	1324.57
645.29	1318.29
645.64	1313.07
645.98	1306.31
646.32	1300.69
646.66	1293.71
647.01	1287.81
647.35	1282.17
647.69	1276.17
648.04	1270.43
648.38	1263.95
648.72	1257.95
649.06	1251.40
649.41	1243.79
649.75	1237.67
650.09	1230.86
650.43	1224.45
650.78	1217.79
651.12	1211.00
651.46	1204.26
651.80	1197.76
652.14	1192.14
652.49	1185.88
652.83	1178.12
653.17	1170.86
653.51	1163.62
653.85	1157.62
654.20	1151.48
654.54	1143.76
654.88	1136.69
655.22	1130.00
655.56	1123.12
655.90	1116.45
656.25	1109.52
656.59	1103.45
656.93	1096.86
657.27	1091.21
657.61	1084.17
657.95	1078.48
658.29	1073.07
658.64	1067.48
658.98	1060.62
659.32	1054.07
659.66	1047.31
660.00	1041.50
660.34	1035.71
660.68	1029.74
661.02	1023.43
661.36	1016.62
661.70	1010.88
662.05	1005.31
662.39	998.98
662.73	994.29
663.07	989.12
663.41	982.88
663.75	975.95
664.09	970.62
664.43	964.38
664.77	958.60
665.11	951.00
665.45	944.71
665.79	937.98
666.13	931.69
666.47	925.29
666.81	919.48
667.15	913.69
667.49	908.31
667.83	903.05
668.17	897.55
668.51	892.74
668.85	887.07
669.19	881.74
669.53	875.24
669.87	868.29
670.21	861.69
670.55	856.64
670.89	852.33
671.23	846.05
671.57	840.07
671.91	834.79
672.25	829.93
672.58	825.10
672.92	819.86
673.26	815.24
673.60	810.00
673.94	805.02
674.28	799.76
674.62	794.95
674.96	789.57
675.30	784.57
675.64	779.02
675.97	774.31
676.31	768.67
676.65	764.05
676.99	760.26
677.33	754.81
677.67	750.14
678.01	744.74
678.34	740.57
678.68	736.12
679.02	730.86
679.36	726.43
679.70	720.81
680.04	715.64
680.37	710.74
680.71	705.55
681.05	701.29
681.39	696.71
681.73	692.14
682.06	687.17
682.40	682.90
682.74	678.93
683.08	675.05
683.42	669.93
683.75	665.86
684.09	660.57
684.43	656.31
684.77	651.24
685.10	646.79
685.44	641.98
685.78	637.19
686.12	632.88
686.45	628.24
686.79	624.05
687.13	620.57
687.46	615.79
687.80	612.38
688.14	607.38
688.48	603.33
688.81	598.93
689.15	595.21
689.49	590.93
689.82	586.10
690.16	581.10
690.50	577.21
690.83	573.10
691.17	568.50
691.51	564.31
691.84	560.86
692.18	556.64
692.52	553.00
692.85	549.24
693.19	546.48
693.52	542.74
693.86	538.88
694.20	534.81
694.53	531.36
694.87	527.26
695.21	523.62
695.54	520.17
695.88	515.69
696.21	511.52
696.55	507.81
696.88	504.57
697.22	500.93
697.56	498.02
697.89	494.40
698.23	491.33
698.56	488.40
698.90	484.86
699.23	481.29
699.57	477.67
699.90	473.93
700.24	470.10
700.58	466.95
700.91	464.14
701.25	462.79
701.58	460.24
701.92	457.76
702.25	454.55
702.59	450.98
702.92	448.60
703.26	445.71
703.59	442.74
703.93	441.55
704.26	438.81
704.60	436.05
704.93	433.29
705.26	430.45
705.60	427.95
705.93	424.74
706.27	423.24
706.60	420.86
706.94	419.69
707.27	416.83
707.61	414.45
707.94	411.69
708.27	407.62
708.61	404.57
708.94	402.02
709.28	400.45
709.61	398.21
709.94	396.05
710.28	393.93
710.61	391.62
710.95	387.60
711.28	386.74
711.61	384.69
711.95	383.24
712.28	381.07
712.61	379.07
712.95	378.26
713.28	376.88
713.61	374.76
713.95	371.81
714.28	369.90
714.61	367.71
714.95	365.86
715.28	363.76
715.61	362.26
715.95	360.40
716.28	357.95
716.61	356.74
716.95	354.74
717.28	353.00
717.61	351.36
717.94	349.64
718.28	346.52
718.61	344.69
718.94	342.57
719.27	341.02
719.61	339.40
719.94	337.26
720.27	334.62
720.60	332.71
720.94	330.93
721.27	329.52
721.60	328.50
721.93	326.95
722.27	326.29
722.60	325.00
722.93	323.48
723.26	322.36
723.59	320.45
723.93	319.36
724.26	318.24
724.59	317.07
724.92	316.07
725.25	315.55
725.59	314.21
725.92	313.05
726.25	312.12
726.58	311.10
726.91	309.74
727.24	308.79
727.57	308.02
727.91	306.79
728.24	305.88
728.57	304.79
728.90	303.90
729.23	302.14
729.56	301.76
729.89	300.76
730.22	299.69
730.55	298.74
730.89	297.71
731.22	296.45
731.55	295.55
731.88	294.64
732.21	293.38
732.54	292.43
732.87	291.52
733.20	290.74
733.53	289.81
733.86	289.10
734.19	287.81
734.52	287.26
734.85	288.10
735.18	287.02
735.51	286.52
735.84	286.19
736.17	285.76
736.50	284.24
736.83	285.81
737.16	284.88
737.49	284.19
737.82	283.14
738.15	282.69
738.48	281.93
738.81	281.02
739.14	279.81
739.47	278.81
739.80	277.60
740.13	276.90
740.46	275.62
740.79	274.74
741.12	274.17
741.45	273.17
741.78	271.33
742.11	271.36
742.44	270.24
742.77	269.50
743.10	268.60
743.43	267.64
743.75	264.52
744.08	266.48
744.41	265.88
744.74	265.12
745.07	264.05
745.40	263.64
745.73	263.86
746.06	263.38
746.39	263.19
746.71	262.60
747.04	261.40
747.37	261.07
747.70	260.86
748.03	260.40
748.36	260.10
748.68	259.45
749.01	258.17
749.34	257.50
749.67	257.02
750.00	257.07
750.33	258.29
750.65	258.36
750.98	255.21
751.31	254.55
751.64	254.55
751.97	255.38
752.29	254.79
752.62	253.52
752.95	253.02
753.28	252.62
753.60	252.29
753.93	252.64
754.26	252.17
754.59	251.05
754.91	250.26
755.24	249.40
755.57	249.12
755.90	248.69
756.22	248.31
756.55	247.48
756.88	246.55
757.20	244.48
757.53	243.21
757.86	242.81
758.19	242.62
758.51	241.86
758.84	240.38
759.17	239.90
759.49	239.43
759.82	240.07
760.15	239.52
760.47	239.12
760.80	238.19
761.13	238.26
761.45	238.00
761.78	237.48
762.11	237.48
762.43	236.83
762.76	236.38
763.08	236.17
763.41	236.07
763.74	235.79
764.06	235.52
764.39	235.62
764.71	235.43
765.04	234.98
765.37	234.76
765.69	234.43
766.02	234.17
766.34	233.98
766.67	233.10
767.00	233.24
767.32	234.17
767.65	235.10
767.97	234.83
768.30	234.45
768.62	234.62
768.95	234.12
769.27	233.74
769.60	233.86
769.92	233.45
770.25	232.88
770.57	232.38
770.90	232.21
771.22	231.62
771.55	231.64
771.87	231.55
772.20	231.17
772.52	232.43
772.85	234.62
773.17	234.36
773.50	234.00
773.82	233.52
774.15	232.19
774.47	230.60
774.80	229.95
775.12	230.24
775.45	230.00
775.77	229.60
776.09	229.88
776.42	229.71
776.74	230.02
777.07	229.79
777.39	229.60
777.72	229.45
778.04	229.67
778.36	229.07
778.69	229.02
779.01	229.10
779.33	227.55
779.66	225.00
779.98	224.74
780.31	224.76
780.63	225.36
780.95	225.57
781.28	225.90
781.60	225.76
781.92	225.45
782.25	225.55
782.57	225.93
782.89	225.31
783.22	225.14
783.54	224.71
783.86	224.88
784.19	224.74
784.51	225.24
784.83	224.93
785.16	224.52
