SpectraSuite Data File
++++++++++++++++++++++++++++++++++++
Date: Tue Apr 02 18:41:33 EDT 2013
User: group
Dark Spectrum Present: No
Reference Spectrum Present: No
Number of Sampled Component Spectra: 1
Spectrometers: USB2E7196
Integration Time (usec): 580000 (USB2E7196)
Spectra Averaged: 2 (USB2E7196)
Boxcar Smoothing: 10 (USB2E7196)
Correct for Electrical Dark: No (USB2E7196)
Strobe/Lamp Enabled: No (USB2E7196)
Correct for Detector Non-linearity: No (USB2E7196)
Correct for Stray Light: No (USB2E7196)
Number of Pixels in Processed Spectrum: 2048
>>>>>Begin Processed Spectral Data<<<<<
339.09	0.00
339.48	194.00
339.86	194.50
340.24	198.00
340.63	195.00
341.01	225.00
341.39	202.00
341.78	208.00
342.16	210.50
342.54	201.00
342.93	196.48
343.31	206.29
343.69	206.79
344.07	207.52
344.46	208.21
344.84	208.95
345.22	208.05
345.60	208.40
345.99	208.48
346.37	208.50
346.75	208.81
347.13	209.24
347.52	209.45
347.90	210.12
348.28	210.05
348.66	210.64
349.05	210.14
349.43	210.81
349.81	211.19
350.19	211.48
350.57	211.64
350.96	212.02
351.34	212.29
351.72	212.45
352.10	212.64
352.48	212.50
352.87	212.50
353.25	212.67
353.63	212.67
354.01	212.69
354.39	212.71
354.77	212.83
355.15	213.33
355.54	212.98
355.92	212.55
356.30	212.88
356.68	214.12
357.06	214.40
357.44	213.90
357.82	213.79
358.20	214.74
358.58	214.67
358.97	214.95
359.35	215.38
359.73	215.93
360.11	215.55
360.49	215.81
360.87	215.95
361.25	216.29
361.63	217.21
362.01	217.50
362.39	217.57
362.77	217.79
363.15	217.38
363.53	217.55
363.91	217.86
364.29	218.00
364.67	216.12
365.05	216.17
365.43	216.67
365.81	217.00
366.19	217.07
366.57	217.88
366.95	217.98
367.33	217.38
367.71	217.29
368.09	217.88
368.47	217.60
368.85	217.48
369.23	217.88
369.61	217.00
369.99	217.52
370.37	217.79
370.75	218.95
371.13	218.69
371.51	218.36
371.89	218.36
372.27	218.17
372.65	218.38
373.03	218.31
373.41	217.76
373.78	217.52
374.16	216.36
374.54	215.86
374.92	215.55
375.30	215.74
375.68	215.33
376.06	215.36
376.44	215.43
376.82	215.50
377.19	215.43
377.57	215.45
377.95	214.79
378.33	214.36
378.71	212.83
379.09	213.17
379.47	213.62
379.84	213.29
380.22	213.12
380.60	212.93
380.98	212.90
381.36	213.02
381.73	212.67
382.11	213.07
382.49	212.93
382.87	212.62
383.25	212.43
383.62	215.05
384.00	214.48
384.38	214.57
384.76	215.05
385.13	215.79
385.51	215.79
385.89	215.50
386.27	215.74
386.64	216.17
387.02	215.86
387.40	215.52
387.78	215.69
388.15	215.90
388.53	215.83
388.91	215.76
389.29	215.64
389.66	215.74
390.04	215.60
390.42	215.90
390.79	216.17
391.17	216.31
391.55	213.74
391.92	213.95
392.30	214.14
392.68	213.60
393.05	213.21
393.43	213.24
393.81	213.33
394.18	212.98
394.56	212.93
394.94	213.31
395.31	213.29
395.69	213.88
396.06	214.10
396.44	214.07
396.82	214.00
397.19	215.12
397.57	215.07
397.95	215.21
398.32	214.71
398.70	214.93
399.07	215.31
399.45	215.05
399.82	214.86
400.20	214.55
400.58	214.55
400.95	213.71
401.33	214.10
401.70	215.76
402.08	216.07
402.45	216.05
402.83	216.64
403.20	216.83
403.58	216.52
403.95	217.07
404.33	217.62
404.71	218.00
405.08	219.02
405.46	219.57
405.83	220.07
406.21	220.36
406.58	220.74
406.96	221.10
407.33	222.02
407.70	223.05
408.08	225.19
408.45	226.26
408.83	227.40
409.20	227.76
409.58	227.31
409.95	228.31
410.33	229.26
410.70	229.76
411.08	230.88
411.45	232.05
411.82	232.86
412.20	234.67
412.57	237.02
412.95	236.79
413.32	238.57
413.69	239.79
414.07	241.81
414.44	243.38
414.82	245.43
415.19	247.62
415.56	249.57
415.94	251.05
416.31	254.05
416.68	256.90
417.06	260.40
417.43	264.10
417.81	267.83
418.18	272.00
418.55	275.81
418.93	280.00
419.30	284.50
419.67	289.07
420.04	293.12
420.42	297.31
420.79	304.62
421.16	310.38
421.54	317.57
421.91	323.52
422.28	330.14
422.66	336.76
423.03	345.05
423.40	352.48
423.77	359.90
424.15	367.12
424.52	375.12
424.89	384.10
425.26	391.83
425.64	399.71
426.01	407.81
426.38	416.93
426.75	427.07
427.13	436.21
427.50	446.00
427.87	456.29
428.24	466.52
428.61	475.38
428.99	486.95
429.36	497.88
429.73	509.62
430.10	521.33
430.47	533.71
430.85	544.38
431.22	557.29
431.59	572.71
431.96	585.57
432.33	599.71
432.70	613.19
433.08	629.83
433.45	645.21
433.82	660.76
434.19	678.14
434.56	694.40
434.93	710.88
435.30	727.19
435.68	745.67
436.05	763.45
436.42	780.76
436.79	796.64
437.16	814.40
437.53	832.86
437.90	851.19
438.27	870.00
438.64	889.31
439.01	907.02
439.38	920.52
439.75	936.00
440.13	953.21
440.50	969.64
440.87	982.36
441.24	995.98
441.61	1011.52
441.98	1022.93
442.35	1035.76
442.72	1048.55
443.09	1062.57
443.46	1070.45
443.83	1075.86
444.20	1080.45
444.57	1086.40
444.94	1089.83
445.31	1093.19
445.68	1099.07
446.05	1099.95
446.42	1098.57
446.79	1097.36
447.16	1095.79
447.53	1094.93
447.90	1088.69
448.27	1082.38
448.64	1073.81
449.01	1067.67
449.37	1055.95
449.74	1044.38
450.11	1032.57
450.48	1017.45
450.85	1000.62
451.22	987.17
451.59	975.43
451.96	963.31
452.33	947.62
452.70	932.43
453.07	914.95
453.43	894.81
453.80	877.62
454.17	861.12
454.54	845.12
454.91	828.45
455.28	811.71
455.65	796.64
456.02	784.64
456.38	771.52
456.75	755.40
457.12	742.05
457.49	728.38
457.86	713.95
458.23	704.17
458.59	692.67
458.96	680.33
459.33	669.00
459.70	658.60
460.07	650.48
460.43	640.90
460.80	632.14
461.17	624.86
461.54	616.14
461.91	607.95
462.27	599.64
462.64	592.31
463.01	584.62
463.38	577.62
463.74	566.60
464.11	559.64
464.48	554.14
464.85	547.24
465.21	543.19
465.58	538.14
465.95	531.12
466.32	526.00
466.68	520.95
467.05	515.40
467.42	510.14
467.78	504.38
468.15	499.31
468.52	495.67
468.88	489.57
469.25	484.86
469.62	481.26
469.98	476.88
470.35	473.57
470.72	469.98
471.08	465.43
471.45	462.21
471.82	459.45
472.18	455.33
472.55	452.74
472.92	448.90
473.28	445.79
473.65	443.14
474.02	440.00
474.38	437.67
474.75	435.86
475.11	433.33
475.48	431.52
475.85	429.43
476.21	427.10
476.58	425.71
476.94	424.57
477.31	423.10
477.67	421.67
478.04	420.19
478.41	419.29
478.77	420.17
479.14	419.19
479.50	418.62
479.87	418.48
480.23	418.36
480.60	418.17
480.96	418.02
481.33	418.69
481.69	419.05
482.06	419.36
482.42	420.21
482.79	420.81
483.15	421.21
483.52	422.57
483.88	423.05
484.25	423.76
484.61	424.40
484.98	425.10
485.34	427.05
485.71	428.50
486.07	429.62
486.44	429.60
486.80	431.69
487.17	433.05
487.53	435.45
487.90	437.55
488.26	440.26
488.62	442.88
488.99	444.74
489.35	447.40
489.72	450.10
490.08	452.12
490.44	454.69
490.81	457.74
491.17	460.64
491.54	464.21
491.90	467.93
492.26	471.86
492.63	475.86
492.99	479.24
493.36	483.07
493.72	487.93
494.08	492.00
494.45	495.88
494.81	500.79
495.17	505.71
495.54	511.19
495.90	515.71
496.26	520.43
496.63	525.88
496.99	531.55
497.35	537.40
497.72	543.79
498.08	550.00
498.44	556.69
498.80	563.29
499.17	569.88
499.53	576.33
499.89	583.29
500.26	590.02
500.62	597.19
500.98	604.83
501.34	611.57
501.71	619.52
502.07	626.90
502.43	634.05
502.79	640.69
503.16	647.52
503.52	655.38
503.88	662.98
504.24	670.67
504.60	678.14
504.97	685.76
505.33	692.90
505.69	701.95
506.05	709.12
506.41	716.48
506.78	723.79
507.14	731.40
507.50	739.69
507.86	747.74
508.22	754.98
508.59	761.83
508.95	770.38
509.31	778.60
509.67	786.79
510.03	795.02
510.39	803.33
510.75	811.07
511.12	819.02
511.48	828.07
511.84	835.67
512.20	843.05
512.56	850.98
512.92	858.93
513.28	866.05
513.64	873.76
514.00	881.83
514.37	889.52
514.73	897.29
515.09	905.07
515.45	912.76
515.81	920.62
516.17	928.45
516.53	934.74
516.89	940.79
517.25	947.21
517.61	954.52
517.97	961.26
518.33	968.10
518.69	974.88
519.05	980.67
519.41	987.71
519.77	995.64
520.13	1002.02
520.49	1008.02
520.85	1013.69
521.21	1020.36
521.57	1026.50
521.93	1032.88
522.29	1038.55
522.65	1043.10
523.01	1048.12
523.37	1053.57
523.73	1059.19
524.09	1064.38
524.45	1069.67
524.81	1075.74
525.17	1080.64
525.53	1085.52
525.89	1090.93
526.25	1096.33
526.61	1100.79
526.97	1104.64
527.33	1108.62
527.68	1114.38
528.04	1119.48
528.40	1124.14
528.76	1128.62
529.12	1132.69
529.48	1136.90
529.84	1141.62
530.20	1147.02
530.56	1151.57
530.91	1156.31
531.27	1160.95
531.63	1165.98
531.99	1170.07
532.35	1173.98
532.71	1178.43
533.07	1183.19
533.42	1189.81
533.78	1193.95
534.14	1198.93
534.50	1203.71
534.86	1208.98
535.21	1212.17
535.57	1216.86
535.93	1220.57
536.29	1225.69
536.65	1230.52
537.00	1234.12
537.36	1237.79
537.72	1241.17
538.08	1245.50
538.44	1248.76
538.79	1252.40
539.15	1255.52
539.51	1260.05
539.87	1263.90
540.22	1267.10
540.58	1270.21
540.94	1271.52
541.29	1274.29
541.65	1276.62
542.01	1280.17
542.37	1282.71
542.72	1285.36
543.08	1287.90
543.44	1292.07
543.79	1293.67
544.15	1296.88
544.51	1301.29
544.87	1305.69
545.22	1308.57
545.58	1311.88
545.94	1315.00
546.29	1318.55
546.65	1322.00
547.01	1325.05
547.36	1328.17
547.72	1331.26
548.07	1334.67
548.43	1337.33
548.79	1340.90
549.14	1344.17
549.50	1347.74
549.86	1349.86
550.21	1353.02
550.57	1356.76
550.92	1359.26
551.28	1363.71
551.64	1367.29
551.99	1370.55
552.35	1372.50
552.70	1376.36
553.06	1378.79
553.41	1382.40
553.77	1387.21
554.13	1391.38
554.48	1395.64
554.84	1401.19
555.19	1406.14
555.55	1411.88
555.90	1416.21
556.26	1420.12
556.61	1424.50
556.97	1427.31
557.32	1432.00
557.68	1437.10
558.03	1440.95
558.39	1445.76
558.74	1448.95
559.10	1452.79
559.45	1456.43
559.81	1461.36
560.16	1465.60
560.52	1471.26
560.87	1476.83
561.23	1479.71
561.58	1485.48
561.94	1489.17
562.29	1492.14
562.64	1497.26
563.00	1500.86
563.35	1506.36
563.71	1511.38
564.06	1516.86
564.42	1522.62
564.77	1528.29
565.12	1534.31
565.48	1541.90
565.83	1547.33
566.19	1553.33
566.54	1558.90
566.89	1564.95
567.25	1570.93
567.60	1578.21
567.96	1585.33
568.31	1591.48
568.66	1598.38
569.02	1602.26
569.37	1607.62
569.72	1612.90
570.08	1617.21
570.43	1621.88
570.78	1626.88
571.14	1632.14
571.49	1637.26
571.84	1642.52
572.20	1647.29
572.55	1650.45
572.90	1653.00
573.26	1657.31
573.61	1661.64
573.96	1666.31
574.31	1670.40
574.67	1674.52
575.02	1677.19
575.37	1679.67
575.72	1682.71
576.08	1686.17
576.43	1689.57
576.78	1693.57
577.13	1697.50
577.49	1700.38
577.84	1705.07
578.19	1708.14
578.54	1711.95
578.90	1715.02
579.25	1718.10
579.60	1720.57
579.95	1724.62
580.30	1727.83
580.66	1731.67
581.01	1734.79
581.36	1736.57
581.71	1739.14
582.06	1742.69
582.42	1745.98
582.77	1747.29
583.12	1749.24
583.47	1751.05
583.82	1754.05
584.17	1757.00
584.53	1760.50
584.88	1762.43
585.23	1763.69
585.58	1765.38
585.93	1767.48
586.28	1770.17
586.63	1772.38
586.98	1774.10
587.34	1776.05
587.69	1777.57
588.04	1778.48
588.39	1779.64
588.74	1781.05
589.09	1783.00
589.44	1782.50
589.79	1784.45
590.14	1787.00
590.49	1788.12
590.84	1789.05
591.19	1790.74
591.54	1790.76
591.89	1790.05
592.25	1793.71
592.60	1794.12
592.95	1795.55
593.30	1795.90
593.65	1795.79
594.00	1795.60
594.35	1802.86
594.70	1801.57
595.05	1802.19
595.40	1802.14
595.75	1801.95
596.10	1802.93
596.45	1803.64
596.80	1804.88
597.15	1804.60
597.50	1803.40
597.85	1804.50
598.19	1804.93
598.54	1803.69
598.89	1803.74
599.24	1803.43
599.59	1801.57
599.94	1801.29
600.29	1800.76
600.64	1800.19
600.99	1799.74
601.34	1799.93
601.69	1792.98
602.04	1792.19
602.39	1790.67
602.74	1789.76
603.08	1789.26
603.43	1789.17
603.78	1787.50
604.13	1786.40
604.48	1784.40
604.83	1784.55
605.18	1782.69
605.53	1781.17
605.87	1779.93
606.22	1777.76
606.57	1776.55
606.92	1774.60
607.27	1773.40
607.62	1772.31
607.96	1770.76
608.31	1769.57
608.66	1768.12
609.01	1766.33
609.36	1764.83
609.70	1762.74
610.05	1759.88
610.40	1757.81
610.75	1754.17
611.10	1751.31
611.44	1747.57
611.79	1743.95
612.14	1740.98
612.49	1737.19
612.83	1733.24
613.18	1729.57
613.53	1725.98
613.88	1721.26
614.22	1716.14
614.57	1711.93
614.92	1706.86
615.27	1702.07
615.61	1696.76
615.96	1691.88
616.31	1686.98
616.65	1683.40
617.00	1680.14
617.35	1676.62
617.70	1671.14
618.04	1666.48
618.39	1662.05
618.74	1658.26
619.08	1653.76
619.43	1648.26
619.78	1643.55
620.12	1640.05
620.47	1635.98
620.82	1630.90
621.16	1625.95
621.51	1622.83
621.85	1618.21
622.20	1612.50
622.55	1607.07
622.89	1602.14
623.24	1597.86
623.59	1593.12
623.93	1588.83
624.28	1584.14
624.62	1580.79
624.97	1577.64
625.32	1572.64
625.66	1568.55
626.01	1563.24
626.35	1559.29
626.70	1555.02
627.04	1551.69
627.39	1545.64
627.73	1541.64
628.08	1538.69
628.43	1535.50
628.77	1530.67
629.12	1525.31
629.46	1522.17
629.81	1518.12
630.15	1513.45
630.50	1507.67
630.84	1502.60
631.19	1496.29
631.53	1490.05
631.88	1483.21
632.22	1476.45
632.57	1472.10
632.91	1465.45
633.26	1460.86
633.60	1454.48
633.95	1448.74
634.29	1441.74
634.64	1436.83
634.98	1430.26
635.32	1425.17
635.67	1419.48
636.01	1414.64
636.36	1409.02
636.70	1403.74
637.05	1398.26
637.39	1393.31
637.73	1387.90
638.08	1383.60
638.42	1378.21
638.77	1374.17
639.11	1368.98
639.45	1364.26
639.80	1357.52
640.14	1351.95
640.49	1345.43
640.83	1340.12
641.17	1334.38
641.52	1328.93
641.86	1323.17
642.20	1318.57
642.55	1311.38
642.89	1305.45
643.23	1298.69
643.58	1293.64
643.92	1286.10
644.26	1279.14
644.61	1273.31
644.95	1267.00
645.29	1260.14
645.64	1254.12
645.98	1246.05
646.32	1240.36
646.66	1233.02
647.01	1227.10
647.35	1221.69
647.69	1215.48
648.04	1209.50
648.38	1203.69
648.72	1197.24
649.06	1190.38
649.41	1183.02
649.75	1176.81
650.09	1170.19
650.43	1163.31
650.78	1155.50
651.12	1149.07
651.46	1142.36
651.80	1134.83
652.14	1128.93
652.49	1122.12
652.83	1115.60
653.17	1108.86
653.51	1101.81
653.85	1096.10
654.20	1088.98
654.54	1080.93
654.88	1074.00
655.22	1067.10
655.56	1059.71
655.90	1053.14
656.25	1046.79
656.59	1040.21
656.93	1033.55
657.27	1028.07
657.61	1021.71
657.95	1016.40
658.29	1010.69
658.64	1005.48
658.98	999.02
659.32	991.79
659.66	985.93
660.00	980.31
660.34	975.02
660.68	969.17
661.02	963.10
661.36	957.26
661.70	952.26
662.05	946.19
662.39	940.69
662.73	935.64
663.07	930.83
663.41	925.05
663.75	918.31
664.09	912.57
664.43	905.57
664.77	899.57
665.11	893.45
665.45	887.62
665.79	881.36
666.13	874.98
666.47	868.98
666.81	863.29
667.15	856.76
667.49	851.10
667.83	845.12
668.17	838.95
668.51	833.52
668.85	828.55
669.19	824.38
669.53	818.36
669.87	812.07
670.21	805.52
670.55	799.86
670.89	795.71
671.23	790.19
671.57	784.88
671.91	779.62
672.25	774.93
672.58	770.26
672.92	764.90
673.26	760.45
673.60	755.83
673.94	750.40
674.28	745.57
674.62	741.12
674.96	736.12
675.30	731.48
675.64	726.38
675.97	720.93
676.31	715.50
676.65	710.45
676.99	706.64
677.33	702.05
677.67	697.83
678.01	692.52
678.34	688.24
678.68	684.29
679.02	680.05
679.36	674.93
679.70	669.86
680.04	665.67
680.37	661.36
680.71	657.45
681.05	653.24
681.39	648.88
681.73	644.02
682.06	639.48
682.40	635.26
682.74	631.31
683.08	627.60
683.42	622.55
683.75	618.57
684.09	613.62
684.43	609.07
684.77	604.67
685.10	600.86
685.44	596.86
685.78	592.76
686.12	588.45
686.45	583.57
686.79	579.31
687.13	575.48
687.46	571.52
687.80	567.67
688.14	563.48
688.48	559.62
688.81	555.69
689.15	552.40
689.49	548.52
689.82	544.86
690.16	539.74
690.50	536.50
690.83	532.86
691.17	528.33
691.51	524.95
691.84	521.45
692.18	517.40
692.52	513.76
692.85	510.02
693.19	507.60
693.52	504.90
693.86	501.00
694.20	497.14
694.53	494.00
694.87	490.05
695.21	486.40
695.54	483.07
695.88	479.24
696.21	474.62
696.55	471.17
696.88	468.10
697.22	465.02
697.56	462.12
697.89	458.60
698.23	456.24
698.56	453.07
698.90	450.00
699.23	447.05
699.57	443.86
699.90	440.88
700.24	436.79
700.58	433.71
700.91	431.90
701.25	430.76
701.58	428.64
701.92	426.48
702.25	424.29
702.59	421.45
702.92	419.19
703.26	417.43
703.59	415.07
703.93	413.93
704.26	411.81
704.60	409.55
704.93	407.14
705.26	404.57
705.60	402.60
705.93	399.52
706.27	397.64
706.60	395.76
706.94	394.24
707.27	392.10
707.61	390.10
707.94	387.40
708.27	384.00
708.61	380.67
708.94	378.50
709.28	376.48
709.61	374.50
709.94	372.60
710.28	370.43
710.61	368.31
710.95	364.17
711.28	363.76
711.61	361.60
711.95	360.55
712.28	358.93
712.61	356.69
712.95	356.02
713.28	355.24
713.61	353.07
713.95	350.40
714.28	348.93
714.61	347.14
714.95	345.29
715.28	343.52
715.61	341.88
715.95	340.38
716.28	338.50
716.61	337.21
716.95	335.48
717.28	333.95
717.61	332.52
717.94	331.48
718.28	328.38
718.61	326.98
718.94	324.81
719.27	323.12
719.61	322.00
719.94	320.12
720.27	317.40
720.60	316.02
720.94	314.71
721.27	313.38
721.60	312.17
721.93	311.02
722.27	310.48
722.60	309.86
722.93	308.14
723.26	307.14
723.59	305.36
723.93	304.36
724.26	303.38
724.59	302.31
724.92	301.10
725.25	300.57
725.59	299.43
725.92	298.67
726.25	297.69
726.58	296.69
726.91	295.74
727.24	295.55
727.57	294.40
727.91	293.19
728.24	292.38
728.57	291.07
728.90	290.62
729.23	289.19
729.56	288.95
729.89	288.10
730.22	287.10
730.55	286.74
730.89	285.81
731.22	284.95
731.55	283.90
731.88	283.60
732.21	282.64
732.54	281.45
732.87	280.71
733.20	280.10
733.53	279.33
733.86	278.88
734.19	277.38
734.52	277.29
734.85	278.21
735.18	277.38
735.51	277.60
735.84	277.14
736.17	276.88
736.50	275.12
736.83	276.86
737.16	276.29
737.49	275.21
737.82	274.55
738.15	274.26
738.48	273.48
738.81	272.45
739.14	271.55
739.47	271.00
739.80	270.26
740.13	269.83
740.46	268.88
740.79	267.98
741.12	267.62
741.45	266.45
741.78	264.48
742.11	264.40
742.44	263.10
742.77	262.40
743.10	261.26
743.43	260.83
743.75	257.83
744.08	259.64
744.41	259.21
744.74	258.40
745.07	257.29
745.40	257.31
745.73	257.60
746.06	257.19
746.39	256.83
746.71	256.07
747.04	255.12
747.37	254.86
747.70	254.50
748.03	253.95
748.36	253.71
748.68	253.69
749.01	252.24
749.34	251.86
749.67	251.33
750.00	251.21
750.33	252.26
750.65	252.48
750.98	249.67
751.31	249.24
751.64	248.86
751.97	249.60
752.29	249.00
752.62	247.69
752.95	247.24
753.28	246.81
753.60	246.38
753.93	246.38
754.26	245.90
754.59	245.14
754.91	244.60
755.24	244.33
755.57	243.52
755.90	243.45
756.22	243.12
756.55	242.43
756.88	241.79
757.20	240.05
757.53	239.05
757.86	238.76
758.19	238.52
758.51	238.52
758.84	237.12
759.17	236.64
759.49	236.57
759.82	237.07
760.15	236.81
760.47	236.36
760.80	235.43
761.13	235.74
761.45	235.38
761.78	235.14
762.11	234.83
762.43	234.74
762.76	234.29
763.08	234.24
763.41	234.29
763.74	234.07
764.06	233.74
764.39	233.45
764.71	233.05
765.04	232.57
765.37	232.17
765.69	232.14
766.02	232.02
766.34	231.57
766.67	230.67
767.00	230.83
767.32	232.05
767.65	233.33
767.97	232.67
768.30	232.55
768.62	232.43
768.95	231.88
769.27	231.38
769.60	231.57
769.92	231.24
770.25	230.62
770.57	230.12
770.90	229.86
771.22	229.57
771.55	229.64
771.87	229.71
772.20	229.31
772.52	230.55
772.85	232.60
773.17	232.43
773.50	232.00
773.82	231.43
774.15	230.26
774.47	228.88
774.80	228.50
775.12	228.40
775.45	228.31
775.77	228.40
776.09	228.38
776.42	228.21
776.74	228.50
777.07	228.26
777.39	228.29
777.72	228.24
778.04	228.38
778.36	227.86
778.69	227.67
779.01	227.74
779.33	226.12
779.66	223.76
779.98	223.55
780.31	223.55
780.63	224.52
780.95	224.79
781.28	224.64
781.60	224.62
781.92	224.38
782.25	224.19
782.57	224.05
782.89	223.95
783.22	223.62
783.54	223.07
783.86	223.21
784.19	223.17
784.51	223.50
784.83	222.95
785.16	222.95
