SpectraSuite Data File
++++++++++++++++++++++++++++++++++++
Date: Tue Apr 02 18:43:53 EDT 2013
User: group
Dark Spectrum Present: No
Reference Spectrum Present: No
Number of Sampled Component Spectra: 1
Spectrometers: USB2E7196
Integration Time (usec): 580000 (USB2E7196)
Spectra Averaged: 2 (USB2E7196)
Boxcar Smoothing: 10 (USB2E7196)
Correct for Electrical Dark: No (USB2E7196)
Strobe/Lamp Enabled: No (USB2E7196)
Correct for Detector Non-linearity: No (USB2E7196)
Correct for Stray Light: No (USB2E7196)
Number of Pixels in Processed Spectrum: 2048
>>>>>Begin Processed Spectral Data<<<<<
339.09	0.00
339.48	191.00
339.86	193.50
340.24	196.50
340.63	197.00
341.01	228.00
341.39	202.50
341.78	205.50
342.16	209.00
342.54	203.50
342.93	197.48
343.31	207.19
343.69	208.02
344.07	208.55
344.46	209.33
344.84	210.05
345.22	209.12
345.60	209.57
345.99	209.76
346.37	209.88
346.75	210.26
347.13	210.36
347.52	210.67
347.90	211.50
348.28	211.57
348.66	211.95
349.05	211.62
349.43	211.83
349.81	212.02
350.19	212.17
350.57	212.45
350.96	212.71
351.34	213.29
351.72	213.45
352.10	213.81
352.48	213.76
352.87	213.88
353.25	214.07
353.63	213.81
354.01	213.98
354.39	214.12
354.77	214.07
355.15	214.60
355.54	214.12
355.92	213.55
356.30	213.69
356.68	214.98
357.06	215.07
357.44	214.88
357.82	215.05
358.20	215.95
358.58	215.88
358.97	215.79
359.35	215.98
359.73	216.29
360.11	216.17
360.49	216.21
360.87	216.07
361.25	216.21
361.63	217.21
362.01	217.24
362.39	217.12
362.77	217.24
363.15	217.12
363.53	217.17
363.91	217.29
364.29	217.17
364.67	215.40
365.05	215.57
365.43	215.69
365.81	215.64
366.19	215.55
366.57	216.10
366.95	216.05
367.33	215.55
367.71	215.57
368.09	216.05
368.47	216.07
368.85	215.83
369.23	216.38
369.61	215.52
369.99	216.07
370.37	216.26
370.75	217.24
371.13	216.95
371.51	216.79
371.89	216.95
372.27	217.21
372.65	217.24
373.03	217.14
373.41	217.17
373.78	216.98
374.16	215.90
374.54	215.62
374.92	215.26
375.30	215.29
375.68	214.81
376.06	214.90
376.44	214.52
376.82	214.88
377.19	214.36
377.57	214.29
377.95	213.83
378.33	213.76
378.71	212.48
379.09	212.55
379.47	212.95
379.84	212.55
380.22	212.29
380.60	211.88
380.98	212.02
381.36	211.86
381.73	211.62
382.11	212.24
382.49	212.02
382.87	212.02
383.25	212.14
383.62	214.74
384.00	214.12
384.38	214.38
384.76	214.79
385.13	215.64
385.51	215.86
385.89	215.38
386.27	215.43
386.64	215.95
387.02	215.93
387.40	215.69
387.78	216.12
388.15	216.07
388.53	215.95
388.91	215.98
389.29	215.69
389.66	216.12
390.04	215.60
390.42	215.98
390.79	216.19
391.17	216.17
391.55	213.60
391.92	213.79
392.30	213.90
392.68	213.31
393.05	213.29
393.43	213.33
393.81	213.71
394.18	213.14
394.56	213.12
394.94	213.57
395.31	213.43
395.69	213.76
396.06	214.26
396.44	214.71
396.82	214.36
397.19	215.52
397.57	215.33
397.95	215.93
398.32	215.48
398.70	215.93
399.07	216.36
399.45	216.43
399.82	216.40
400.20	216.29
400.58	216.26
400.95	215.21
401.33	215.62
401.70	217.00
402.08	217.36
402.45	217.24
402.83	217.67
403.20	217.90
403.58	217.69
403.95	217.74
404.33	218.10
404.71	218.36
405.08	219.45
405.46	219.67
405.83	220.00
406.21	220.33
406.58	220.74
406.96	221.00
407.33	221.67
407.70	222.21
408.08	224.45
408.45	225.48
408.83	226.71
409.20	227.31
409.58	226.90
409.95	228.17
410.33	229.40
410.70	229.69
411.08	230.67
411.45	231.81
411.82	232.64
412.20	234.02
412.57	236.36
412.95	235.90
413.32	237.83
413.69	239.07
414.07	240.69
414.44	242.21
414.82	244.33
415.19	246.69
415.56	249.07
415.94	250.21
416.31	253.00
416.68	255.64
417.06	258.52
417.43	262.26
417.81	265.62
418.18	269.12
418.55	272.90
418.93	277.33
419.30	281.43
419.67	286.24
420.04	290.69
420.42	294.95
420.79	302.21
421.16	307.93
421.54	314.90
421.91	321.12
422.28	327.36
422.66	333.74
423.03	341.98
423.40	348.79
423.77	355.76
424.15	362.83
424.52	370.29
424.89	378.90
425.26	386.33
425.64	393.86
426.01	401.98
426.38	410.88
426.75	420.40
427.13	429.52
427.50	439.07
427.87	448.69
428.24	458.69
428.61	467.60
428.99	478.52
429.36	489.29
429.73	500.52
430.10	512.02
430.47	523.64
430.85	533.74
431.22	546.05
431.59	560.93
431.96	573.71
432.33	588.10
432.70	601.95
433.08	618.02
433.45	633.45
433.82	648.45
434.19	665.02
434.56	681.81
434.93	697.55
435.30	713.26
435.68	731.50
436.05	749.10
436.42	765.67
436.79	781.76
437.16	798.76
437.53	817.24
437.90	834.95
438.27	852.33
438.64	870.62
439.01	888.10
439.38	901.83
439.75	916.83
440.13	933.64
440.50	948.95
440.87	961.38
441.24	974.98
441.61	989.64
441.98	1000.45
442.35	1012.48
442.72	1025.50
443.09	1039.31
443.46	1046.64
443.83	1051.83
444.20	1056.67
444.57	1062.79
444.94	1065.79
445.31	1068.31
445.68	1074.14
446.05	1076.14
446.42	1075.21
446.79	1073.81
447.16	1072.00
447.53	1070.98
447.90	1064.81
448.27	1058.60
448.64	1050.52
449.01	1043.95
449.37	1033.29
449.74	1022.12
450.11	1010.45
450.48	995.48
450.85	979.83
451.22	967.45
451.59	954.81
451.96	943.62
452.33	927.12
452.70	913.21
453.07	896.48
453.43	877.17
453.80	860.95
454.17	844.26
454.54	829.24
454.91	813.19
455.28	797.21
455.65	782.12
456.02	770.55
456.38	757.95
456.75	742.36
457.12	728.69
457.49	716.67
457.86	702.50
458.23	692.76
458.59	680.67
458.96	668.48
459.33	658.12
459.70	647.21
460.07	639.50
460.43	629.74
460.80	621.17
461.17	613.45
461.54	605.19
461.91	597.74
462.27	589.10
462.64	581.74
463.01	573.88
463.38	567.79
463.74	557.31
464.11	550.17
464.48	544.50
464.85	538.21
465.21	533.60
465.58	528.36
465.95	522.29
466.32	517.29
466.68	512.05
467.05	506.83
467.42	501.43
467.78	496.10
468.15	490.93
468.52	487.10
468.88	481.45
469.25	476.10
469.62	472.98
469.98	469.10
470.35	465.95
470.72	462.33
471.08	457.43
471.45	454.57
471.82	452.21
472.18	448.95
472.55	446.83
472.92	443.10
473.28	440.17
473.65	436.90
474.02	434.19
474.38	432.12
474.75	430.79
475.11	428.93
475.48	427.17
475.85	425.60
476.21	423.76
476.58	422.43
476.94	421.86
477.31	420.05
477.67	418.71
478.04	417.36
478.41	417.05
478.77	418.48
479.14	417.36
479.50	416.52
479.87	416.07
480.23	415.95
480.60	415.62
480.96	415.88
481.33	417.12
481.69	417.10
482.06	417.21
482.42	417.19
482.79	417.57
483.15	417.98
483.52	419.00
483.88	419.55
484.25	420.00
484.61	420.33
484.98	421.19
485.34	422.95
485.71	424.48
486.07	425.50
486.44	424.55
486.80	426.19
487.17	427.64
487.53	430.40
487.90	432.07
488.26	434.86
488.62	437.31
488.99	438.67
489.35	441.52
489.72	444.26
490.08	447.19
490.44	449.90
490.81	453.60
491.17	456.21
491.54	459.67
491.90	463.57
492.26	467.45
492.63	471.10
492.99	474.24
493.36	478.24
493.72	482.71
494.08	487.33
494.45	491.95
494.81	497.10
495.17	501.33
495.54	506.79
495.90	511.71
496.26	516.67
496.63	522.33
496.99	527.48
497.35	533.19
497.72	538.81
498.08	544.64
498.44	550.19
498.80	557.17
499.17	563.38
499.53	569.52
499.89	575.67
500.26	582.83
500.62	589.95
500.98	597.29
501.34	604.07
501.71	611.60
502.07	618.36
502.43	625.40
502.79	632.05
503.16	638.67
503.52	645.90
503.88	653.07
504.24	660.76
504.60	668.07
504.97	675.81
505.33	683.69
505.69	692.17
506.05	699.74
506.41	706.45
506.78	713.90
507.14	722.02
507.50	730.12
507.86	738.02
508.22	745.60
508.59	752.79
508.95	761.52
509.31	769.74
509.67	778.14
510.03	785.71
510.39	793.88
510.75	801.95
511.12	809.40
511.48	816.95
511.84	824.10
512.20	832.17
512.56	839.60
512.92	846.90
513.28	853.90
513.64	861.62
514.00	869.52
514.37	876.71
514.73	883.79
515.09	891.40
515.45	897.62
515.81	904.81
516.17	911.83
516.53	917.19
516.89	923.00
517.25	929.48
517.61	936.31
517.97	942.33
518.33	949.07
518.69	955.69
519.05	962.71
519.41	969.21
519.77	976.12
520.13	981.74
520.49	987.43
520.85	993.31
521.21	999.93
521.57	1005.81
521.93	1010.98
522.29	1017.00
522.65	1021.26
523.01	1027.33
523.37	1032.95
523.73	1037.88
524.09	1043.29
524.45	1048.05
524.81	1053.26
525.17	1057.86
525.53	1062.83
525.89	1067.19
526.25	1071.88
526.61	1075.98
526.97	1079.45
527.33	1083.40
527.68	1090.31
528.04	1094.24
528.40	1098.57
528.76	1102.05
529.12	1105.93
529.48	1111.69
529.84	1114.81
530.20	1120.14
530.56	1124.33
530.91	1128.43
531.27	1133.19
531.63	1137.67
531.99	1142.21
532.35	1145.40
532.71	1149.45
533.07	1153.90
533.42	1160.31
533.78	1164.71
534.14	1168.48
534.50	1173.33
534.86	1177.90
535.21	1179.81
535.57	1185.24
535.93	1189.00
536.29	1192.98
536.65	1196.60
537.00	1199.07
537.36	1203.00
537.72	1206.02
538.08	1209.31
538.44	1212.21
538.79	1215.64
539.15	1219.17
539.51	1222.52
539.87	1225.93
540.22	1228.93
540.58	1232.29
540.94	1233.21
541.29	1235.95
541.65	1238.62
542.01	1242.14
542.37	1244.74
542.72	1246.57
543.08	1247.95
543.44	1250.79
543.79	1252.29
544.15	1255.52
544.51	1259.40
544.87	1262.31
545.22	1265.93
545.58	1268.74
545.94	1271.48
546.29	1274.12
546.65	1276.00
547.01	1278.24
547.36	1280.86
547.72	1283.93
548.07	1286.79
548.43	1288.74
548.79	1290.76
549.14	1293.12
549.50	1295.24
549.86	1296.90
550.21	1300.05
550.57	1303.43
550.92	1305.31
551.28	1309.26
551.64	1311.98
551.99	1314.24
552.35	1317.19
552.70	1318.79
553.06	1322.05
553.41	1325.36
553.77	1329.88
554.13	1333.64
554.48	1338.14
554.84	1342.40
555.19	1345.71
555.55	1350.19
555.90	1353.67
556.26	1357.69
556.61	1361.69
556.97	1365.21
557.32	1368.86
557.68	1372.50
558.03	1376.71
558.39	1380.93
558.74	1384.86
559.10	1389.52
559.45	1393.93
559.81	1398.50
560.16	1403.31
560.52	1407.76
560.87	1412.93
561.23	1416.31
561.58	1422.00
561.94	1425.21
562.29	1429.05
562.64	1433.90
563.00	1437.36
563.35	1443.33
563.71	1448.64
564.06	1454.21
564.42	1459.24
564.77	1465.07
565.12	1471.93
565.48	1478.95
565.83	1484.21
566.19	1489.71
566.54	1495.10
566.89	1500.14
567.25	1505.93
567.60	1513.02
567.96	1520.07
568.31	1525.98
568.66	1532.07
569.02	1536.36
569.37	1542.26
569.72	1548.14
570.08	1553.24
570.43	1558.64
570.78	1564.29
571.14	1569.71
571.49	1574.48
571.84	1580.88
572.20	1585.74
572.55	1590.69
572.90	1593.74
573.26	1598.81
573.61	1603.38
573.96	1608.00
574.31	1612.69
574.67	1617.21
575.02	1620.50
575.37	1622.88
575.72	1625.86
576.08	1629.57
576.43	1633.90
576.78	1637.55
577.13	1641.76
577.49	1646.17
577.84	1650.88
578.19	1654.40
578.54	1657.79
578.90	1662.17
579.25	1664.55
579.60	1668.19
579.95	1670.19
580.30	1673.83
580.66	1678.05
581.01	1681.83
581.36	1684.26
581.71	1687.60
582.06	1691.55
582.42	1695.02
582.77	1698.40
583.12	1702.17
583.47	1705.62
583.82	1708.57
584.17	1711.33
584.53	1714.71
584.88	1717.02
585.23	1719.05
585.58	1721.02
585.93	1723.33
586.28	1725.88
586.63	1728.29
586.98	1731.21
587.34	1734.81
587.69	1737.17
588.04	1739.36
588.39	1741.67
588.74	1742.98
589.09	1745.45
589.44	1745.62
589.79	1747.14
590.14	1749.33
590.49	1750.05
590.84	1750.33
591.19	1752.38
591.54	1754.50
591.89	1756.02
592.25	1759.45
592.60	1760.64
592.95	1762.36
593.30	1764.67
593.65	1765.45
594.00	1766.69
594.35	1773.00
594.70	1773.05
595.05	1773.71
595.40	1775.07
595.75	1774.40
596.10	1776.83
596.45	1778.10
596.80	1779.64
597.15	1780.95
597.50	1780.40
597.85	1782.50
598.19	1782.55
598.54	1782.40
598.89	1783.43
599.24	1783.55
599.59	1782.24
599.94	1782.71
600.29	1782.86
600.64	1782.19
600.99	1782.64
601.34	1783.12
601.69	1778.14
602.04	1778.12
602.39	1777.00
602.74	1776.24
603.08	1776.86
603.43	1775.90
603.78	1773.86
604.13	1772.69
604.48	1770.90
604.83	1771.29
605.18	1770.10
605.53	1770.10
605.87	1768.48
606.22	1766.93
606.57	1764.90
606.92	1763.00
607.27	1761.43
607.62	1760.98
607.96	1760.76
608.31	1759.48
608.66	1757.95
609.01	1756.71
609.36	1756.14
609.70	1755.69
610.05	1753.90
610.40	1752.24
610.75	1750.74
611.10	1750.17
611.44	1748.26
611.79	1745.62
612.14	1743.24
612.49	1739.69
612.83	1737.64
613.18	1735.12
613.53	1732.26
613.88	1728.86
614.22	1726.12
614.57	1722.81
614.92	1717.90
615.27	1714.43
615.61	1709.90
615.96	1706.14
616.31	1701.67
616.65	1698.57
617.00	1695.29
617.35	1692.48
617.70	1688.95
618.04	1685.24
618.39	1681.05
618.74	1677.93
619.08	1674.88
619.43	1671.07
619.78	1668.67
620.12	1664.64
620.47	1661.81
620.82	1657.62
621.16	1655.05
621.51	1652.64
621.85	1649.17
622.20	1645.40
622.55	1640.60
622.89	1637.88
623.24	1634.86
623.59	1630.64
623.93	1626.48
624.28	1621.98
624.62	1619.40
624.97	1616.79
625.32	1612.88
625.66	1609.05
626.01	1604.07
626.35	1601.00
626.70	1597.17
627.04	1593.83
627.39	1590.02
627.73	1587.17
628.08	1584.40
628.43	1579.71
628.77	1575.48
629.12	1572.31
629.46	1569.45
629.81	1566.29
630.15	1562.02
630.50	1556.67
630.84	1552.45
631.19	1547.21
631.53	1542.95
631.88	1535.81
632.22	1529.38
632.57	1525.14
632.91	1519.64
633.26	1516.00
633.60	1510.38
633.95	1505.40
634.29	1499.52
634.64	1495.07
634.98	1489.40
635.32	1484.69
635.67	1481.10
636.01	1476.48
636.36	1470.81
636.70	1466.40
637.05	1460.74
637.39	1456.12
637.73	1451.60
638.08	1447.95
638.42	1443.62
638.77	1439.79
639.11	1434.95
639.45	1430.05
639.80	1424.79
640.14	1420.29
640.49	1414.83
640.83	1409.52
641.17	1404.62
641.52	1399.36
641.86	1393.45
642.20	1389.33
642.55	1382.71
642.89	1376.10
643.23	1370.10
643.58	1365.29
643.92	1358.43
644.26	1353.14
644.61	1347.17
644.95	1342.14
645.29	1334.93
645.64	1329.43
645.98	1321.95
646.32	1317.48
646.66	1311.31
647.01	1304.45
647.35	1298.76
647.69	1293.12
648.04	1288.33
648.38	1282.36
648.72	1276.76
649.06	1270.62
649.41	1263.19
649.75	1256.81
650.09	1250.76
650.43	1244.81
650.78	1237.90
651.12	1232.31
651.46	1225.38
651.80	1218.93
652.14	1212.52
652.49	1207.64
652.83	1200.95
653.17	1195.05
653.51	1187.62
653.85	1181.43
654.20	1175.79
654.54	1168.50
654.88	1160.79
655.22	1154.74
655.56	1147.88
655.90	1141.29
656.25	1135.52
656.59	1129.36
656.93	1124.21
657.27	1119.05
657.61	1112.07
657.95	1105.33
658.29	1098.83
658.64	1093.31
658.98	1086.79
659.32	1080.29
659.66	1073.29
660.00	1067.02
660.34	1060.95
660.68	1054.81
661.02	1048.50
661.36	1042.02
661.70	1036.64
662.05	1031.81
662.39	1025.19
662.73	1019.83
663.07	1014.10
663.41	1007.90
663.75	1001.14
664.09	995.12
664.43	988.33
664.77	982.62
665.11	977.07
665.45	971.55
665.79	965.57
666.13	959.76
666.47	954.19
666.81	948.31
667.15	942.12
667.49	936.95
667.83	931.57
668.17	926.31
668.51	921.14
668.85	916.02
669.19	910.88
669.53	904.21
669.87	897.81
670.21	892.19
670.55	885.76
670.89	881.48
671.23	875.93
671.57	870.48
671.91	864.69
672.25	859.12
672.58	854.33
672.92	848.67
673.26	843.57
673.60	837.60
673.94	832.14
674.28	827.19
674.62	821.95
674.96	816.71
675.30	811.21
675.64	805.95
675.97	800.55
676.31	795.17
676.65	790.12
676.99	786.00
677.33	780.45
677.67	776.52
678.01	771.10
678.34	766.10
678.68	761.45
679.02	756.71
679.36	751.52
679.70	745.55
680.04	739.88
680.37	735.02
680.71	730.60
681.05	726.17
681.39	721.67
681.73	716.48
682.06	711.86
682.40	708.33
682.74	704.14
683.08	700.10
683.42	694.67
683.75	690.83
684.09	685.60
684.43	681.36
684.77	676.67
685.10	671.90
685.44	666.98
685.78	662.31
686.12	657.69
686.45	653.45
686.79	649.02
687.13	646.10
687.46	641.74
687.80	637.90
688.14	633.38
688.48	629.05
688.81	624.64
689.15	620.62
689.49	615.55
689.82	611.00
690.16	605.67
690.50	601.67
690.83	597.21
691.17	592.26
691.51	587.74
691.84	583.64
692.18	579.79
692.52	576.38
692.85	572.50
693.19	569.60
693.52	565.60
693.86	561.52
694.20	556.76
694.53	553.00
694.87	548.38
695.21	544.12
695.54	539.90
695.88	536.05
696.21	531.21
696.55	527.62
696.88	523.98
697.22	520.69
697.56	517.40
697.89	513.81
698.23	511.21
698.56	507.81
698.90	504.38
699.23	500.19
699.57	496.21
699.90	492.81
700.24	488.64
700.58	485.69
700.91	482.95
701.25	481.74
701.58	479.19
701.92	476.69
702.25	474.36
702.59	471.07
702.92	468.05
703.26	466.00
703.59	462.83
703.93	461.67
704.26	458.81
704.60	455.64
704.93	452.62
705.26	449.50
705.60	447.29
705.93	444.14
706.27	442.05
706.60	440.00
706.94	438.07
707.27	434.90
707.61	432.17
707.94	429.12
708.27	424.81
708.61	421.48
708.94	418.86
709.28	416.26
709.61	413.98
709.94	411.48
710.28	408.45
710.61	406.05
710.95	401.50
711.28	400.50
711.61	398.29
711.95	396.67
712.28	394.26
712.61	391.40
712.95	389.86
713.28	388.26
713.61	385.38
713.95	382.64
714.28	381.02
714.61	378.69
714.95	376.69
715.28	374.45
715.61	372.38
715.95	370.24
716.28	367.95
716.61	366.33
716.95	364.24
717.28	362.43
717.61	360.36
717.94	358.60
718.28	355.40
718.61	353.50
718.94	351.07
719.27	349.45
719.61	348.07
719.94	346.00
720.27	343.21
720.60	341.74
720.94	340.02
721.27	338.40
721.60	337.31
721.93	335.83
722.27	335.33
722.60	334.17
722.93	332.48
723.26	331.26
723.59	329.48
723.93	328.81
724.26	327.60
724.59	326.43
724.92	325.17
725.25	324.43
725.59	323.33
725.92	322.31
726.25	321.10
726.58	319.71
726.91	318.55
727.24	317.98
727.57	316.81
727.91	315.19
728.24	314.24
728.57	313.07
728.90	312.40
729.23	310.38
729.56	309.98
729.89	308.88
730.22	307.48
730.55	306.12
730.89	304.55
731.22	303.43
731.55	302.26
731.88	301.57
732.21	300.00
732.54	298.90
732.87	297.83
733.20	296.90
733.53	295.95
733.86	294.81
734.19	293.31
734.52	292.43
734.85	293.00
735.18	291.71
735.51	290.98
735.84	290.21
736.17	290.02
736.50	288.17
736.83	289.76
737.16	289.17
737.49	288.76
737.82	288.00
738.15	287.05
738.48	286.31
738.81	285.07
739.14	284.02
739.47	282.90
739.80	282.33
740.13	281.67
740.46	280.62
740.79	279.48
741.12	278.60
741.45	277.64
741.78	275.79
742.11	275.55
742.44	274.33
742.77	273.48
743.10	272.38
743.43	271.40
743.75	268.52
744.08	270.45
744.41	269.64
744.74	268.62
745.07	267.64
745.40	267.26
745.73	267.57
746.06	267.02
746.39	266.88
746.71	266.00
747.04	265.05
747.37	264.24
747.70	264.14
748.03	263.81
748.36	263.48
748.68	262.90
749.01	261.55
749.34	261.00
749.67	260.69
750.00	260.45
750.33	261.52
750.65	261.19
750.98	257.95
751.31	257.33
751.64	257.02
751.97	257.76
752.29	257.29
752.62	255.90
752.95	255.29
753.28	254.62
753.60	254.00
753.93	253.98
754.26	253.81
754.59	253.10
754.91	252.55
755.24	251.93
755.57	251.26
755.90	250.98
756.22	250.60
756.55	249.64
756.88	248.62
757.20	246.98
757.53	246.07
757.86	245.69
758.19	245.50
758.51	245.02
758.84	243.81
759.17	243.02
759.49	242.81
759.82	243.38
760.15	243.05
760.47	242.76
760.80	242.02
761.13	241.90
761.45	241.40
761.78	240.76
762.11	240.52
762.43	240.21
762.76	239.79
763.08	239.67
763.41	239.48
763.74	239.26
764.06	238.76
764.39	238.43
764.71	238.02
765.04	237.40
765.37	236.98
765.69	236.55
766.02	236.24
766.34	235.55
766.67	234.67
767.00	234.64
767.32	235.33
767.65	236.02
767.97	235.60
768.30	235.48
768.62	235.64
768.95	234.98
769.27	234.45
769.60	234.74
769.92	233.95
770.25	233.19
770.57	232.55
770.90	232.55
771.22	232.19
771.55	232.19
771.87	232.26
772.20	232.00
772.52	233.36
772.85	235.62
773.17	235.74
773.50	235.33
773.82	234.90
774.15	233.67
774.47	232.14
774.80	231.64
775.12	231.36
775.45	230.98
775.77	231.02
776.09	231.17
776.42	231.10
776.74	231.86
777.07	231.79
777.39	231.93
777.72	231.45
778.04	231.52
778.36	231.29
778.69	230.74
779.01	230.86
779.33	229.10
779.66	226.60
779.98	226.24
780.31	226.14
780.63	226.67
780.95	226.93
781.28	227.00
781.60	226.48
781.92	226.21
782.25	226.02
782.57	225.83
782.89	225.64
783.22	225.24
783.54	224.43
783.86	224.45
784.19	224.10
784.51	224.69
784.83	224.17
785.16	223.74
