SpectraSuite Data File
++++++++++++++++++++++++++++++++++++
Date: Tue Apr 02 18:42:55 EDT 2013
User: group
Dark Spectrum Present: No
Reference Spectrum Present: No
Number of Sampled Component Spectra: 1
Spectrometers: USB2E7196
Integration Time (usec): 580000 (USB2E7196)
Spectra Averaged: 2 (USB2E7196)
Boxcar Smoothing: 10 (USB2E7196)
Correct for Electrical Dark: No (USB2E7196)
Strobe/Lamp Enabled: No (USB2E7196)
Correct for Detector Non-linearity: No (USB2E7196)
Correct for Stray Light: No (USB2E7196)
Number of Pixels in Processed Spectrum: 2048
>>>>>Begin Processed Spectral Data<<<<<
339.09	0.00
339.48	189.50
339.86	192.50
340.24	196.00
340.63	199.50
341.01	227.00
341.39	200.00
341.78	207.00
342.16	212.00
342.54	204.50
342.93	196.64
343.31	206.40
343.69	207.17
344.07	207.52
344.46	208.33
344.84	208.67
345.22	207.62
345.60	208.07
345.99	208.19
346.37	208.02
346.75	207.93
347.13	207.76
347.52	207.90
347.90	208.62
348.28	208.48
348.66	208.95
349.05	208.57
349.43	208.64
349.81	208.69
350.19	208.57
350.57	208.71
350.96	209.05
351.34	209.43
351.72	209.48
352.10	209.71
352.48	209.36
352.87	209.60
353.25	209.83
353.63	209.81
354.01	209.81
354.39	210.00
354.77	210.14
355.15	210.93
355.54	210.76
355.92	210.40
356.30	210.57
356.68	211.76
357.06	211.57
357.44	211.33
357.82	211.43
358.20	212.48
358.58	212.57
358.97	212.62
359.35	213.24
359.73	213.62
360.11	213.76
360.49	214.14
360.87	214.07
361.25	214.26
361.63	215.07
362.01	215.24
362.39	215.02
362.77	215.38
363.15	215.33
363.53	215.45
363.91	215.52
364.29	215.57
364.67	213.71
365.05	214.26
365.43	214.71
365.81	214.86
366.19	215.10
366.57	216.07
366.95	216.17
367.33	215.55
367.71	215.76
368.09	216.17
368.47	216.29
368.85	216.21
369.23	216.79
369.61	216.05
369.99	217.02
370.37	217.48
370.75	218.62
371.13	218.33
371.51	218.43
371.89	218.50
372.27	218.83
372.65	219.12
373.03	219.14
373.41	218.90
373.78	218.93
374.16	218.00
374.54	217.43
374.92	217.40
375.30	217.57
375.68	217.31
376.06	217.48
376.44	217.14
376.82	217.57
377.19	217.31
377.57	217.36
377.95	216.43
378.33	216.38
378.71	215.24
379.09	215.71
379.47	215.74
379.84	215.76
380.22	215.40
380.60	215.24
380.98	214.90
381.36	214.81
381.73	214.50
382.11	214.67
382.49	214.67
382.87	214.43
383.25	214.31
383.62	216.64
384.00	216.26
384.38	216.55
384.76	216.90
385.13	217.81
385.51	217.81
385.89	217.38
386.27	217.14
386.64	217.21
387.02	216.71
387.40	216.69
387.78	216.64
388.15	217.00
388.53	216.79
388.91	216.95
389.29	216.90
389.66	217.14
390.04	216.95
390.42	217.33
390.79	217.29
391.17	217.17
391.55	214.74
391.92	214.79
392.30	214.76
392.68	214.17
393.05	213.93
393.43	213.86
393.81	214.10
394.18	214.00
394.56	214.12
394.94	214.62
395.31	214.17
395.69	214.86
396.06	214.79
396.44	214.95
396.82	214.64
397.19	215.74
397.57	215.67
397.95	216.07
398.32	215.12
398.70	215.33
399.07	215.74
399.45	215.79
399.82	215.76
400.20	215.43
400.58	215.43
400.95	214.62
401.33	215.17
401.70	216.79
402.08	216.93
402.45	216.93
402.83	217.26
403.20	217.62
403.58	217.19
403.95	217.64
404.33	218.21
404.71	218.48
405.08	219.69
405.46	220.05
405.83	220.10
406.21	220.57
406.58	221.00
406.96	221.17
407.33	222.05
407.70	222.69
408.08	225.07
408.45	225.95
408.83	227.07
409.20	227.24
409.58	226.62
409.95	227.69
410.33	228.48
410.70	228.83
411.08	230.07
411.45	231.29
411.82	232.10
412.20	233.55
412.57	236.17
412.95	235.69
413.32	237.50
413.69	238.95
414.07	240.69
414.44	242.50
414.82	244.52
415.19	246.55
415.56	248.79
415.94	249.95
416.31	252.95
416.68	255.81
417.06	259.26
417.43	262.88
417.81	266.50
418.18	270.26
418.55	273.81
418.93	277.88
419.30	281.88
419.67	286.43
420.04	290.81
420.42	294.95
420.79	302.36
421.16	308.12
421.54	315.33
421.91	321.48
422.28	327.57
422.66	334.26
423.03	342.26
423.40	349.48
423.77	356.90
424.15	363.67
424.52	371.12
424.89	379.74
425.26	387.43
425.64	395.07
426.01	403.21
426.38	412.71
426.75	422.45
427.13	431.67
427.50	441.62
427.87	451.57
428.24	461.31
428.61	469.52
428.99	480.40
429.36	490.69
429.73	502.17
430.10	514.00
430.47	525.98
430.85	536.17
431.22	548.36
431.59	562.90
431.96	575.57
432.33	589.40
432.70	602.86
433.08	619.12
433.45	634.40
433.82	650.07
434.19	666.71
434.56	683.57
434.93	699.10
435.30	714.90
435.68	732.40
436.05	750.33
436.42	767.86
436.79	783.76
437.16	801.60
437.53	819.71
437.90	837.67
438.27	855.45
438.64	873.81
439.01	891.14
439.38	905.86
439.75	921.38
440.13	938.14
440.50	954.21
440.87	966.71
441.24	980.14
441.61	994.60
441.98	1005.38
442.35	1017.52
442.72	1030.88
443.09	1044.48
443.46	1052.21
443.83	1057.48
444.20	1061.81
444.57	1067.90
444.94	1070.21
445.31	1073.67
445.68	1079.33
446.05	1080.62
446.42	1079.62
446.79	1078.52
447.16	1076.43
447.53	1075.12
447.90	1069.52
448.27	1063.21
448.64	1054.62
449.01	1048.21
449.37	1037.07
449.74	1026.48
450.11	1014.93
450.48	999.95
450.85	983.67
451.22	971.64
451.59	958.83
451.96	947.17
452.33	931.26
452.70	917.17
453.07	900.05
453.43	880.17
453.80	863.43
454.17	847.24
454.54	831.52
454.91	814.52
455.28	798.29
455.65	782.88
456.02	770.93
456.38	758.60
456.75	742.74
457.12	729.67
457.49	717.24
457.86	702.93
458.23	693.79
458.59	682.19
458.96	669.60
459.33	659.29
459.70	648.81
460.07	640.69
460.43	631.57
460.80	623.00
461.17	615.81
461.54	607.48
461.91	599.64
462.27	591.26
462.64	584.43
463.01	577.14
463.38	570.43
463.74	559.74
464.11	553.05
464.48	547.71
464.85	541.05
465.21	535.88
465.58	530.67
465.95	523.60
466.32	518.71
466.68	513.36
467.05	508.19
467.42	503.48
467.78	498.14
468.15	492.93
468.52	489.05
468.88	483.19
469.25	478.24
469.62	474.93
469.98	471.05
470.35	467.14
470.72	463.67
471.08	459.29
471.45	456.31
471.82	453.31
472.18	449.69
472.55	447.67
472.92	443.90
473.28	440.88
473.65	437.76
474.02	434.83
474.38	432.79
474.75	430.88
475.11	428.10
475.48	426.64
475.85	424.81
476.21	422.62
476.58	421.38
476.94	420.48
477.31	418.88
477.67	417.88
478.04	417.12
478.41	415.88
478.77	417.12
479.14	416.50
479.50	415.93
479.87	415.79
480.23	415.21
480.60	414.88
480.96	414.86
481.33	416.00
481.69	415.86
482.06	416.19
482.42	416.64
482.79	417.14
483.15	417.17
483.52	418.21
483.88	418.74
484.25	419.48
484.61	420.81
484.98	421.93
485.34	423.36
485.71	424.64
486.07	426.17
486.44	425.45
486.80	426.93
487.17	428.31
487.53	430.48
487.90	432.57
488.26	435.57
488.62	437.90
488.99	439.57
489.35	442.31
489.72	444.60
490.08	447.26
490.44	450.00
490.81	453.57
491.17	456.26
491.54	459.62
491.90	463.43
492.26	466.40
492.63	470.00
492.99	473.62
493.36	478.00
493.72	482.38
494.08	487.17
494.45	491.86
494.81	496.74
495.17	500.90
495.54	506.00
495.90	510.24
496.26	515.62
496.63	521.05
496.99	526.57
497.35	532.52
497.72	538.43
498.08	544.02
498.44	549.86
498.80	556.24
499.17	562.95
499.53	569.07
499.89	576.02
500.26	582.48
500.62	588.98
500.98	596.05
501.34	603.29
501.71	610.62
502.07	617.52
502.43	624.64
502.79	632.10
503.16	639.02
503.52	646.98
503.88	654.10
504.24	661.43
504.60	669.43
504.97	676.90
505.33	684.38
505.69	693.31
506.05	700.86
506.41	708.86
506.78	716.64
507.14	724.02
507.50	732.24
507.86	740.29
508.22	748.21
508.59	755.33
508.95	762.40
509.31	771.07
509.67	779.19
510.03	786.81
510.39	794.14
510.75	801.71
511.12	808.95
511.48	817.12
511.84	824.98
512.20	832.48
512.56	840.40
512.92	848.12
513.28	855.31
513.64	863.19
514.00	870.29
514.37	877.10
514.73	885.24
515.09	892.69
515.45	899.86
515.81	907.21
516.17	913.90
516.53	920.76
516.89	925.83
517.25	932.21
517.61	939.64
517.97	946.29
518.33	952.88
518.69	959.45
519.05	965.62
519.41	971.71
519.77	978.88
520.13	984.60
520.49	990.40
520.85	995.79
521.21	1002.33
521.57	1009.05
521.93	1014.43
522.29	1019.76
522.65	1024.31
523.01	1030.10
523.37	1035.00
523.73	1040.76
524.09	1046.60
524.45	1051.79
524.81	1056.83
525.17	1061.60
525.53	1067.21
525.89	1072.43
526.25	1077.93
526.61	1081.55
526.97	1085.67
527.33	1089.64
527.68	1095.69
528.04	1100.07
528.40	1104.26
528.76	1107.86
529.12	1112.02
529.48	1117.40
529.84	1120.79
530.20	1125.64
530.56	1129.93
530.91	1135.05
531.27	1139.43
531.63	1143.71
531.99	1148.21
532.35	1152.76
532.71	1156.90
533.07	1161.29
533.42	1167.40
533.78	1171.43
534.14	1176.33
534.50	1180.79
534.86	1185.26
535.21	1187.88
535.57	1192.83
535.93	1197.05
536.29	1201.95
536.65	1206.10
537.00	1209.26
537.36	1213.88
537.72	1217.17
538.08	1221.00
538.44	1223.36
538.79	1226.69
539.15	1229.69
539.51	1233.55
539.87	1236.81
540.22	1240.05
540.58	1243.24
540.94	1244.76
541.29	1247.21
541.65	1250.26
542.01	1253.79
542.37	1255.90
542.72	1258.12
543.08	1260.29
543.44	1263.29
543.79	1264.43
544.15	1266.90
544.51	1270.67
544.87	1273.69
545.22	1276.95
545.58	1278.98
545.94	1281.74
546.29	1285.21
546.65	1287.81
547.01	1289.98
547.36	1292.40
547.72	1294.26
548.07	1296.71
548.43	1298.69
548.79	1300.90
549.14	1303.19
549.50	1305.76
549.86	1308.24
550.21	1311.48
550.57	1314.69
550.92	1317.43
551.28	1321.52
551.64	1324.26
551.99	1326.57
552.35	1328.69
552.70	1330.95
553.06	1334.45
553.41	1337.93
553.77	1341.31
554.13	1344.90
554.48	1349.29
554.84	1353.76
555.19	1358.07
555.55	1363.17
555.90	1367.19
556.26	1370.60
556.61	1373.79
556.97	1377.36
557.32	1381.00
557.68	1384.95
558.03	1388.00
558.39	1391.71
558.74	1394.90
559.10	1399.07
559.45	1403.12
559.81	1407.83
560.16	1411.88
560.52	1416.07
560.87	1420.88
561.23	1423.95
561.58	1429.79
561.94	1433.62
562.29	1436.52
562.64	1441.45
563.00	1445.43
563.35	1450.02
563.71	1456.10
564.06	1462.19
564.42	1467.71
564.77	1474.12
565.12	1479.90
565.48	1487.76
565.83	1494.14
566.19	1500.55
566.54	1505.76
566.89	1511.17
567.25	1516.90
567.60	1524.86
567.96	1533.07
568.31	1540.26
568.66	1547.52
569.02	1552.67
569.37	1557.86
569.72	1563.76
570.08	1569.67
570.43	1574.50
570.78	1581.14
571.14	1586.29
571.49	1591.86
571.84	1597.88
572.20	1601.90
572.55	1607.00
572.90	1610.05
573.26	1614.36
573.61	1617.81
573.96	1623.45
574.31	1627.98
574.67	1632.79
575.02	1635.38
575.37	1636.86
575.72	1639.07
576.08	1642.74
576.43	1646.60
576.78	1650.29
577.13	1655.07
577.49	1657.74
577.84	1661.29
578.19	1664.33
578.54	1668.45
578.90	1672.74
579.25	1675.14
579.60	1679.00
579.95	1681.62
580.30	1685.14
580.66	1689.38
581.01	1692.93
581.36	1695.07
581.71	1698.64
582.06	1702.31
582.42	1706.74
582.77	1709.55
583.12	1712.64
583.47	1715.40
583.82	1717.64
584.17	1720.10
584.53	1723.05
584.88	1725.98
585.23	1729.74
585.58	1731.38
585.93	1732.81
586.28	1734.88
586.63	1737.45
586.98	1739.81
587.34	1743.31
587.69	1745.52
588.04	1746.67
588.39	1749.69
588.74	1750.52
589.09	1752.48
589.44	1752.88
589.79	1753.19
590.14	1755.64
590.49	1757.07
590.84	1758.38
591.19	1759.50
591.54	1762.45
591.89	1763.55
592.25	1766.36
592.60	1766.10
592.95	1769.26
593.30	1771.07
593.65	1771.07
594.00	1770.88
594.35	1778.02
594.70	1778.02
595.05	1779.24
595.40	1780.31
595.75	1780.33
596.10	1782.55
596.45	1783.29
596.80	1784.45
597.15	1785.48
597.50	1785.24
597.85	1786.79
598.19	1786.57
598.54	1786.93
598.89	1786.38
599.24	1787.17
599.59	1786.48
599.94	1787.24
600.29	1786.52
600.64	1786.69
600.99	1787.31
601.34	1789.40
601.69	1782.88
602.04	1782.95
602.39	1781.88
602.74	1782.98
603.08	1782.24
603.43	1782.00
603.78	1781.60
604.13	1781.02
604.48	1781.60
604.83	1781.45
605.18	1780.81
605.53	1780.83
605.87	1780.02
606.22	1779.17
606.57	1777.10
606.92	1775.31
607.27	1774.76
607.62	1773.83
607.96	1773.00
608.31	1771.98
608.66	1770.19
609.01	1768.17
609.36	1767.00
609.70	1765.60
610.05	1762.02
610.40	1760.00
610.75	1757.50
611.10	1755.36
611.44	1752.64
611.79	1749.14
612.14	1746.57
612.49	1742.88
612.83	1740.00
613.18	1737.07
613.53	1734.21
613.88	1731.64
614.22	1728.64
614.57	1724.07
614.92	1719.45
615.27	1715.81
615.61	1711.79
615.96	1708.31
616.31	1705.05
616.65	1701.90
617.00	1698.88
617.35	1695.98
617.70	1693.90
618.04	1690.40
618.39	1686.19
618.74	1682.26
619.08	1678.19
619.43	1674.83
619.78	1671.76
620.12	1668.02
620.47	1664.31
620.82	1660.74
621.16	1655.29
621.51	1652.19
621.85	1648.76
622.20	1645.00
622.55	1639.76
622.89	1635.95
623.24	1631.95
623.59	1628.40
623.93	1623.38
624.28	1618.95
624.62	1616.17
624.97	1612.50
625.32	1607.69
625.66	1603.83
626.01	1599.57
626.35	1596.07
626.70	1591.50
627.04	1587.74
627.39	1582.93
627.73	1579.10
628.08	1575.07
628.43	1571.74
628.77	1567.12
629.12	1562.40
629.46	1558.64
629.81	1555.48
630.15	1550.57
630.50	1545.00
630.84	1540.07
631.19	1535.24
631.53	1530.31
631.88	1522.26
632.22	1515.05
632.57	1510.79
632.91	1505.31
633.26	1500.81
633.60	1495.48
633.95	1490.64
634.29	1483.95
634.64	1479.33
634.98	1473.50
635.32	1468.93
635.67	1464.81
636.01	1459.79
636.36	1454.71
636.70	1449.81
637.05	1444.95
637.39	1440.48
637.73	1436.50
638.08	1432.43
638.42	1427.45
638.77	1422.93
639.11	1419.36
639.45	1414.50
639.80	1409.17
640.14	1404.02
640.49	1398.76
640.83	1393.10
641.17	1387.64
641.52	1383.21
641.86	1377.95
642.20	1374.50
642.55	1367.93
642.89	1361.52
643.23	1355.62
643.58	1351.17
643.92	1344.69
644.26	1338.00
644.61	1332.21
644.95	1325.57
645.29	1318.12
645.64	1312.33
645.98	1306.17
646.32	1300.26
646.66	1294.19
647.01	1287.33
647.35	1281.69
647.69	1275.00
648.04	1269.76
648.38	1263.57
648.72	1257.48
649.06	1251.57
649.41	1243.90
649.75	1237.60
650.09	1231.45
650.43	1225.12
650.78	1217.64
651.12	1211.17
651.46	1205.36
651.80	1198.29
652.14	1191.81
652.49	1186.29
652.83	1179.79
653.17	1172.02
653.51	1164.83
653.85	1159.29
654.20	1153.98
654.54	1146.67
654.88	1140.64
655.22	1134.88
655.56	1127.64
655.90	1120.69
656.25	1114.10
656.59	1108.10
656.93	1101.55
657.27	1095.50
657.61	1088.64
657.95	1082.76
658.29	1076.95
658.64	1071.19
658.98	1064.79
659.32	1058.17
659.66	1051.57
660.00	1045.55
660.34	1039.60
660.68	1034.48
661.02	1027.57
661.36	1020.21
661.70	1014.74
662.05	1008.33
662.39	1001.40
662.73	996.71
663.07	991.21
663.41	985.10
663.75	978.90
664.09	973.57
664.43	967.17
664.77	961.81
665.11	955.55
665.45	949.57
665.79	942.62
666.13	936.50
666.47	930.95
666.81	924.79
667.15	918.98
667.49	914.21
667.83	908.40
668.17	903.00
668.51	897.69
668.85	891.67
669.19	887.45
669.53	880.74
669.87	874.26
670.21	868.38
670.55	862.83
670.89	857.60
671.23	851.48
671.57	845.62
671.91	839.71
672.25	834.10
672.58	829.05
672.92	823.45
673.26	818.57
673.60	813.14
673.94	808.33
674.28	802.71
674.62	797.17
674.96	791.21
675.30	785.83
675.64	780.74
675.97	775.62
676.31	769.62
676.65	764.24
676.99	760.29
677.33	755.29
677.67	750.12
678.01	744.24
678.34	739.83
678.68	735.93
679.02	730.81
679.36	726.12
679.70	720.88
680.04	716.19
680.37	711.31
680.71	706.57
681.05	702.24
681.39	697.79
681.73	693.07
682.06	688.55
682.40	684.14
682.74	679.69
683.08	676.12
683.42	671.26
683.75	667.36
684.09	662.24
684.43	657.45
684.77	652.95
685.10	649.07
685.44	644.86
685.78	639.88
686.12	635.74
686.45	631.14
686.79	626.31
687.13	622.60
687.46	618.14
687.80	614.64
688.14	609.62
688.48	605.40
688.81	600.74
689.15	597.17
689.49	592.79
689.82	588.81
690.16	583.83
690.50	580.00
690.83	576.24
691.17	571.36
691.51	567.38
691.84	563.48
692.18	559.45
692.52	555.14
692.85	551.69
693.19	548.50
693.52	545.05
693.86	541.19
694.20	537.33
694.53	534.02
694.87	529.40
695.21	525.88
695.54	521.88
695.88	517.93
696.21	513.48
696.55	510.00
696.88	506.45
697.22	502.83
697.56	499.55
697.89	495.64
698.23	493.07
698.56	489.67
698.90	486.55
699.23	482.60
699.57	479.55
699.90	476.24
700.24	472.55
700.58	469.00
700.91	466.17
701.25	464.64
701.58	461.81
701.92	459.45
702.25	456.26
702.59	453.17
702.92	450.90
703.26	448.14
703.59	445.19
703.93	444.02
704.26	441.60
704.60	438.64
704.93	435.90
705.26	432.90
705.60	430.79
705.93	427.43
706.27	425.57
706.60	423.29
706.94	421.38
707.27	418.31
707.61	416.24
707.94	413.76
708.27	409.48
708.61	406.57
708.94	403.76
709.28	401.74
709.61	399.90
709.94	397.74
710.28	395.60
710.61	393.38
710.95	389.26
711.28	388.57
711.61	386.38
711.95	384.67
712.28	382.21
712.61	379.98
712.95	379.29
713.28	378.31
713.61	375.93
713.95	373.36
714.28	371.88
714.61	369.48
714.95	367.43
715.28	365.55
715.61	363.57
715.95	361.69
716.28	359.88
716.61	358.00
716.95	355.86
717.28	353.90
717.61	352.00
717.94	350.62
718.28	347.19
718.61	345.45
718.94	343.55
719.27	341.62
719.61	339.74
719.94	337.19
720.27	334.14
720.60	332.50
720.94	330.69
721.27	329.24
721.60	328.29
721.93	327.12
722.27	326.43
722.60	325.14
722.93	323.79
723.26	322.48
723.59	320.98
723.93	319.57
724.26	318.60
724.59	317.21
724.92	315.90
725.25	315.24
725.59	314.33
725.92	313.19
726.25	312.52
726.58	311.57
726.91	310.40
727.24	309.71
727.57	308.57
727.91	307.33
728.24	306.38
728.57	304.81
728.90	303.93
729.23	302.21
729.56	302.05
729.89	300.88
730.22	299.76
730.55	298.88
730.89	298.24
731.22	296.93
731.55	296.00
731.88	295.12
732.21	293.79
732.54	292.57
732.87	291.62
733.20	290.64
733.53	289.69
733.86	289.07
734.19	287.98
734.52	287.21
734.85	287.88
735.18	286.83
735.51	286.90
735.84	285.95
736.17	285.76
736.50	284.14
736.83	285.71
737.16	284.71
737.49	283.93
737.82	282.95
738.15	282.52
738.48	281.86
738.81	280.83
739.14	279.83
739.47	278.90
739.80	277.98
740.13	277.43
740.46	276.52
740.79	275.19
741.12	274.62
741.45	273.60
741.78	271.79
742.11	271.45
742.44	270.12
742.77	269.83
743.10	268.83
743.43	267.81
743.75	264.79
744.08	266.83
744.41	266.02
744.74	265.36
745.07	264.14
745.40	263.69
745.73	263.95
746.06	263.64
746.39	263.48
746.71	262.90
747.04	262.10
747.37	261.33
747.70	261.31
748.03	260.76
748.36	260.52
748.68	259.83
749.01	258.83
749.34	258.31
749.67	257.55
750.00	257.31
750.33	258.55
750.65	258.36
750.98	255.19
751.31	254.76
751.64	254.21
751.97	255.14
752.29	254.76
752.62	253.50
752.95	252.60
753.28	251.79
753.60	251.50
753.93	251.45
754.26	251.10
754.59	250.14
754.91	249.60
755.24	249.10
755.57	248.50
755.90	247.98
756.22	247.26
756.55	246.71
756.88	245.71
757.20	243.86
757.53	243.02
757.86	242.86
758.19	242.67
758.51	242.33
758.84	240.88
759.17	240.17
759.49	239.71
759.82	240.55
760.15	240.60
760.47	240.14
760.80	239.33
761.13	239.57
761.45	239.10
761.78	238.74
762.11	238.19
762.43	237.98
762.76	237.69
763.08	237.55
763.41	237.45
763.74	237.26
764.06	236.93
764.39	236.76
764.71	236.29
765.04	235.79
765.37	235.45
765.69	235.12
766.02	234.69
766.34	234.45
766.67	233.38
767.00	233.40
767.32	234.31
767.65	235.14
767.97	234.83
768.30	234.88
768.62	234.62
768.95	234.57
769.27	234.10
769.60	234.21
769.92	233.95
770.25	233.45
770.57	233.12
770.90	232.69
771.22	232.24
771.55	232.10
771.87	231.98
772.20	231.67
772.52	233.17
772.85	235.71
773.17	235.50
773.50	235.19
773.82	234.43
774.15	233.02
774.47	231.52
774.80	230.95
775.12	230.83
775.45	230.62
775.77	230.29
776.09	230.17
776.42	229.88
776.74	230.43
777.07	229.93
777.39	229.69
777.72	229.62
778.04	229.74
778.36	229.48
778.69	229.31
779.01	229.33
779.33	227.40
779.66	224.71
779.98	224.26
780.31	224.26
780.63	224.88
780.95	225.12
781.28	225.31
781.60	225.12
781.92	224.95
782.25	224.81
782.57	224.48
782.89	224.21
783.22	224.00
783.54	223.29
783.86	223.36
784.19	223.21
784.51	223.95
784.83	223.52
785.16	223.31
