SpectraSuite Data File
++++++++++++++++++++++++++++++++++++
Date: Tue Apr 02 18:45:53 EDT 2013
User: group
Dark Spectrum Present: No
Reference Spectrum Present: No
Number of Sampled Component Spectra: 1
Spectrometers: USB2E7196
Integration Time (usec): 580000 (USB2E7196)
Spectra Averaged: 2 (USB2E7196)
Boxcar Smoothing: 10 (USB2E7196)
Correct for Electrical Dark: No (USB2E7196)
Strobe/Lamp Enabled: No (USB2E7196)
Correct for Detector Non-linearity: No (USB2E7196)
Correct for Stray Light: No (USB2E7196)
Number of Pixels in Processed Spectrum: 2048
>>>>>Begin Processed Spectral Data<<<<<
339.09	0.00
339.48	187.00
339.86	193.50
340.24	194.00
340.63	199.50
341.01	225.50
341.39	201.50
341.78	207.50
342.16	207.00
342.54	204.00
342.93	196.64
343.31	206.50
343.69	207.29
344.07	207.79
344.46	208.83
344.84	209.57
345.22	208.67
345.60	209.05
345.99	209.14
346.37	209.26
346.75	209.38
347.13	209.33
347.52	209.36
347.90	210.31
348.28	210.38
348.66	210.83
349.05	210.12
349.43	210.43
349.81	210.67
350.19	210.62
350.57	210.79
350.96	210.83
351.34	211.00
351.72	211.29
352.10	211.67
352.48	211.40
352.87	211.36
353.25	211.40
353.63	211.43
354.01	211.52
354.39	211.74
354.77	211.90
355.15	212.64
355.54	212.64
355.92	211.88
356.30	212.24
356.68	213.76
357.06	213.93
357.44	213.83
357.82	213.64
358.20	214.69
358.58	214.60
358.97	214.90
359.35	215.45
359.73	215.88
360.11	215.76
360.49	215.79
360.87	215.62
361.25	216.07
361.63	216.93
362.01	217.05
362.39	216.71
362.77	216.81
363.15	216.62
363.53	216.79
363.91	217.00
364.29	216.86
364.67	214.95
365.05	215.05
365.43	215.29
365.81	215.64
366.19	215.83
366.57	216.98
366.95	216.83
367.33	216.14
367.71	216.00
368.09	216.31
368.47	216.50
368.85	216.55
369.23	216.95
369.61	216.24
369.99	217.00
370.37	217.38
370.75	218.69
371.13	218.40
371.51	218.14
371.89	218.36
372.27	218.43
372.65	218.60
373.03	218.62
373.41	218.19
373.78	218.05
374.16	217.10
374.54	216.50
374.92	216.24
375.30	216.48
375.68	216.38
376.06	216.62
376.44	216.52
376.82	216.52
377.19	216.24
377.57	215.93
377.95	215.14
378.33	215.45
378.71	213.90
379.09	214.26
379.47	214.57
379.84	214.48
380.22	214.26
380.60	214.07
380.98	214.12
381.36	214.26
381.73	213.83
382.11	213.98
382.49	213.86
382.87	213.69
383.25	213.74
383.62	215.81
384.00	215.24
384.38	215.29
384.76	215.71
385.13	216.48
385.51	216.52
385.89	216.26
386.27	216.02
386.64	216.45
387.02	216.05
387.40	215.90
387.78	215.86
388.15	215.76
388.53	215.43
388.91	215.31
389.29	215.17
389.66	215.40
390.04	215.33
390.42	215.43
390.79	215.52
391.17	215.40
391.55	213.12
391.92	213.21
392.30	213.36
392.68	213.07
393.05	213.00
393.43	213.12
393.81	213.26
394.18	212.71
394.56	212.60
394.94	213.26
395.31	212.98
395.69	213.55
396.06	214.07
396.44	214.40
396.82	214.21
397.19	215.29
397.57	215.33
397.95	215.55
398.32	215.02
398.70	215.33
399.07	215.67
399.45	215.69
399.82	215.71
400.20	215.57
400.58	215.36
400.95	214.45
401.33	215.05
401.70	216.52
402.08	216.71
402.45	216.74
402.83	217.00
403.20	217.36
403.58	217.17
403.95	217.50
404.33	217.86
404.71	218.17
405.08	219.50
405.46	219.67
405.83	220.10
406.21	220.62
406.58	221.07
406.96	221.62
407.33	222.62
407.70	223.50
408.08	225.76
408.45	226.69
408.83	227.79
409.20	228.12
409.58	227.71
409.95	228.98
410.33	230.14
410.70	230.29
411.08	231.52
411.45	232.71
411.82	233.62
412.20	235.29
412.57	237.71
412.95	237.05
413.32	238.86
413.69	240.17
414.07	241.93
414.44	243.50
414.82	245.12
415.19	247.33
415.56	249.24
415.94	250.24
416.31	253.21
416.68	256.10
417.06	259.17
417.43	262.67
417.81	265.98
418.18	269.62
418.55	273.33
418.93	277.45
419.30	281.38
419.67	285.57
420.04	289.76
420.42	293.98
420.79	301.38
421.16	306.88
421.54	313.90
421.91	319.90
422.28	326.02
422.66	332.81
423.03	340.48
423.40	347.36
423.77	354.57
424.15	361.36
424.52	369.00
424.89	377.86
425.26	385.48
425.64	393.02
426.01	400.90
426.38	409.81
426.75	419.05
427.13	427.83
427.50	437.29
427.87	446.98
428.24	456.88
428.61	465.00
428.99	476.19
429.36	486.55
429.73	497.83
430.10	509.12
430.47	520.62
430.85	531.40
431.22	544.05
431.59	558.67
431.96	571.50
432.33	585.26
432.70	598.50
433.08	614.52
433.45	629.50
433.82	644.67
434.19	661.67
434.56	677.83
434.93	693.29
435.30	709.43
435.68	726.88
436.05	743.79
436.42	760.48
436.79	776.05
437.16	793.10
437.53	811.19
437.90	829.00
438.27	846.67
438.64	864.26
439.01	881.43
439.38	894.57
439.75	908.93
440.13	925.81
440.50	941.33
440.87	954.12
441.24	967.79
441.61	982.52
441.98	993.14
442.35	1004.81
442.72	1017.95
443.09	1031.55
443.46	1038.88
443.83	1044.05
444.20	1049.12
444.57	1055.67
444.94	1058.64
445.31	1061.93
445.68	1068.02
446.05	1070.19
446.42	1068.93
446.79	1067.93
447.16	1066.69
447.53	1066.26
447.90	1060.05
448.27	1053.88
448.64	1045.29
449.01	1038.76
449.37	1028.07
449.74	1017.33
450.11	1007.10
450.48	992.62
450.85	976.76
451.22	964.86
451.59	953.29
451.96	941.88
452.33	925.93
452.70	911.81
453.07	894.79
453.43	874.95
453.80	857.83
454.17	842.55
454.54	827.10
454.91	810.95
455.28	794.62
455.65	779.60
456.02	767.76
456.38	755.19
456.75	740.31
457.12	726.93
457.49	714.26
457.86	699.52
458.23	690.12
458.59	678.33
458.96	666.33
459.33	655.64
459.70	645.52
460.07	637.52
460.43	628.14
460.80	619.62
461.17	612.40
461.54	604.14
461.91	595.93
462.27	587.17
462.64	580.55
463.01	573.21
463.38	566.36
463.74	556.17
464.11	549.60
464.48	543.81
464.85	537.48
465.21	532.88
465.58	528.07
465.95	521.14
466.32	516.14
466.68	510.62
467.05	505.98
467.42	500.52
467.78	494.86
468.15	489.95
468.52	486.02
468.88	480.48
469.25	476.07
469.62	472.98
469.98	469.24
470.35	465.69
470.72	462.36
471.08	458.10
471.45	455.45
471.82	452.83
472.18	448.95
472.55	446.93
472.92	443.31
473.28	440.17
473.65	437.29
474.02	434.45
474.38	432.81
474.75	430.90
475.11	428.48
475.48	426.95
475.85	425.19
476.21	423.24
476.58	422.00
476.94	420.76
477.31	419.17
477.67	418.48
478.04	417.07
478.41	416.00
478.77	417.29
479.14	415.88
479.50	415.00
479.87	415.19
480.23	414.40
480.60	413.93
480.96	413.79
481.33	414.95
481.69	414.95
482.06	414.71
482.42	414.88
482.79	415.45
483.15	415.74
483.52	416.60
483.88	417.21
484.25	418.19
484.61	418.81
484.98	419.43
485.34	420.90
485.71	422.02
486.07	423.48
486.44	423.05
486.80	424.69
487.17	426.24
487.53	428.43
487.90	430.38
488.26	433.40
488.62	436.40
488.99	438.48
489.35	441.31
489.72	444.26
490.08	446.62
490.44	449.31
490.81	452.45
491.17	455.62
491.54	459.19
491.90	462.40
492.26	466.10
492.63	470.29
492.99	473.67
493.36	477.81
493.72	482.14
494.08	486.62
494.45	491.62
494.81	496.81
495.17	501.38
495.54	506.69
495.90	511.24
496.26	516.33
496.63	521.64
496.99	526.98
497.35	532.62
497.72	538.60
498.08	544.64
498.44	551.19
498.80	557.57
499.17	563.69
499.53	570.10
499.89	577.50
500.26	583.79
500.62	590.48
500.98	597.69
501.34	604.36
501.71	611.79
502.07	618.55
502.43	624.88
502.79	631.95
503.16	638.93
503.52	646.48
503.88	653.36
504.24	660.88
504.60	668.43
504.97	676.24
505.33	683.74
505.69	692.26
506.05	699.83
506.41	707.00
506.78	714.74
507.14	722.55
507.50	729.88
507.86	738.12
508.22	746.21
508.59	754.00
508.95	762.00
509.31	770.74
509.67	779.05
510.03	786.83
510.39	794.48
510.75	802.74
511.12	810.71
511.48	818.88
511.84	826.19
512.20	833.81
512.56	841.52
512.92	850.05
513.28	857.19
513.64	863.71
514.00	871.10
514.37	878.74
514.73	885.95
515.09	893.48
515.45	899.81
515.81	906.24
516.17	912.95
516.53	919.43
516.89	924.43
517.25	930.40
517.61	937.79
517.97	944.00
518.33	950.10
518.69	955.83
519.05	962.24
519.41	968.29
519.77	975.40
520.13	980.90
520.49	985.45
520.85	990.98
521.21	998.40
521.57	1004.33
521.93	1009.38
522.29	1014.90
522.65	1019.57
523.01	1025.26
523.37	1030.19
523.73	1035.69
524.09	1040.79
524.45	1045.93
524.81	1050.81
525.17	1055.24
525.53	1059.45
525.89	1064.07
526.25	1069.17
526.61	1073.62
526.97	1078.02
527.33	1082.19
527.68	1088.48
528.04	1092.50
528.40	1095.98
528.76	1099.29
529.12	1103.83
529.48	1108.19
529.84	1111.71
530.20	1115.62
530.56	1120.10
530.91	1125.29
531.27	1129.40
531.63	1134.02
531.99	1137.26
532.35	1141.29
532.71	1145.19
533.07	1149.83
533.42	1156.07
533.78	1160.05
534.14	1164.33
534.50	1168.38
534.86	1172.43
535.21	1174.98
535.57	1179.81
535.93	1184.45
536.29	1189.60
536.65	1193.40
537.00	1196.98
537.36	1201.48
537.72	1205.48
538.08	1209.40
538.44	1211.67
538.79	1214.93
539.15	1217.24
539.51	1221.93
539.87	1225.26
540.22	1228.57
540.58	1232.14
540.94	1233.55
541.29	1237.14
541.65	1239.38
542.01	1242.67
542.37	1245.19
542.72	1246.45
543.08	1248.50
543.44	1251.05
543.79	1252.50
544.15	1254.98
544.51	1258.50
544.87	1260.86
545.22	1263.83
545.58	1265.93
545.94	1269.38
546.29	1271.60
546.65	1274.90
547.01	1276.21
547.36	1278.67
547.72	1281.12
548.07	1283.43
548.43	1285.90
548.79	1287.33
549.14	1289.55
549.50	1291.81
549.86	1293.62
550.21	1296.98
550.57	1300.14
550.92	1302.88
551.28	1305.98
551.64	1308.48
551.99	1311.07
552.35	1313.38
552.70	1315.69
553.06	1318.10
553.41	1321.14
553.77	1325.69
554.13	1328.83
554.48	1333.12
554.84	1337.57
555.19	1341.00
555.55	1345.93
555.90	1348.71
556.26	1352.19
556.61	1355.02
556.97	1358.57
557.32	1362.17
557.68	1366.12
558.03	1370.17
558.39	1374.05
558.74	1377.21
559.10	1381.12
559.45	1384.48
559.81	1389.12
560.16	1392.29
560.52	1397.07
560.87	1401.02
561.23	1403.79
561.58	1410.10
561.94	1414.57
562.29	1417.79
562.64	1423.36
563.00	1426.60
563.35	1431.76
563.71	1437.19
564.06	1442.95
564.42	1448.60
564.77	1455.19
565.12	1461.55
565.48	1468.48
565.83	1473.74
566.19	1479.52
566.54	1485.40
566.89	1490.38
567.25	1496.81
567.60	1505.10
567.96	1512.26
568.31	1518.83
568.66	1524.93
569.02	1528.43
569.37	1533.79
569.72	1540.62
570.08	1544.17
570.43	1548.88
570.78	1553.64
571.14	1559.36
571.49	1563.93
571.84	1569.10
572.20	1572.98
572.55	1577.05
572.90	1579.62
573.26	1585.00
573.61	1589.67
573.96	1594.40
574.31	1598.69
574.67	1601.98
575.02	1604.64
575.37	1606.98
575.72	1610.07
576.08	1614.40
576.43	1618.83
576.78	1622.10
577.13	1625.31
577.49	1630.57
577.84	1635.05
578.19	1639.64
578.54	1643.62
578.90	1648.31
579.25	1650.83
579.60	1654.45
579.95	1657.24
580.30	1661.36
580.66	1664.10
581.01	1667.67
581.36	1670.52
581.71	1674.64
582.06	1679.71
582.42	1684.19
582.77	1687.29
583.12	1690.67
583.47	1693.81
583.82	1697.31
584.17	1701.67
584.53	1704.88
584.88	1708.21
585.23	1711.33
585.58	1713.86
585.93	1716.14
586.28	1719.17
586.63	1723.24
586.98	1726.36
587.34	1730.67
587.69	1733.12
588.04	1736.29
588.39	1738.48
588.74	1739.95
589.09	1742.76
589.44	1743.98
589.79	1746.10
590.14	1747.98
590.49	1750.05
590.84	1751.05
591.19	1752.29
591.54	1753.33
591.89	1754.31
592.25	1757.26
592.60	1758.48
592.95	1760.14
593.30	1762.10
593.65	1762.86
594.00	1762.57
594.35	1770.17
594.70	1770.00
595.05	1771.48
595.40	1772.67
595.75	1773.74
596.10	1776.12
596.45	1777.50
596.80	1778.45
597.15	1779.12
597.50	1780.26
597.85	1781.12
598.19	1781.95
598.54	1782.71
598.89	1783.10
599.24	1784.64
599.59	1783.83
599.94	1784.26
600.29	1784.29
600.64	1783.79
600.99	1784.21
601.34	1785.43
601.69	1778.69
602.04	1778.67
602.39	1777.43
602.74	1776.55
603.08	1776.07
603.43	1777.24
603.78	1776.33
604.13	1775.38
604.48	1774.00
604.83	1774.45
605.18	1774.71
605.53	1774.14
605.87	1773.24
606.22	1772.90
606.57	1771.43
606.92	1769.71
607.27	1769.90
607.62	1769.38
607.96	1769.07
608.31	1768.62
608.66	1767.21
609.01	1766.29
609.36	1765.83
609.70	1765.67
610.05	1764.52
610.40	1762.83
610.75	1759.00
611.10	1757.79
611.44	1755.76
611.79	1753.50
612.14	1751.19
612.49	1746.76
612.83	1744.67
613.18	1742.64
613.53	1740.17
613.88	1737.00
614.22	1734.26
614.57	1729.76
614.92	1726.52
615.27	1723.29
615.61	1719.79
615.96	1717.02
616.31	1713.86
616.65	1712.02
617.00	1708.45
617.35	1705.31
617.70	1703.19
618.04	1700.38
618.39	1696.02
618.74	1692.48
619.08	1689.88
619.43	1686.48
619.78	1684.07
620.12	1681.17
620.47	1677.40
620.82	1672.90
621.16	1669.12
621.51	1666.00
621.85	1662.60
622.20	1659.17
622.55	1654.88
622.89	1651.64
623.24	1648.62
623.59	1645.00
623.93	1639.60
624.28	1636.52
624.62	1634.60
624.97	1630.55
625.32	1626.45
625.66	1622.90
626.01	1619.24
626.35	1616.00
626.70	1612.00
627.04	1608.60
627.39	1604.21
627.73	1601.05
628.08	1597.88
628.43	1594.10
628.77	1589.93
629.12	1586.95
629.46	1582.98
629.81	1579.10
630.15	1574.29
630.50	1568.36
630.84	1563.14
631.19	1557.86
631.53	1552.60
631.88	1545.52
632.22	1539.90
632.57	1535.48
632.91	1530.86
633.26	1526.81
633.60	1519.86
633.95	1514.26
634.29	1509.43
634.64	1504.62
634.98	1499.02
635.32	1494.90
635.67	1490.90
636.01	1486.38
636.36	1480.83
636.70	1477.26
637.05	1472.74
637.39	1468.21
637.73	1464.19
638.08	1460.88
638.42	1456.57
638.77	1451.83
639.11	1447.48
639.45	1443.62
639.80	1438.50
640.14	1433.33
640.49	1427.83
640.83	1423.60
641.17	1418.60
641.52	1412.79
641.86	1408.19
642.20	1404.12
642.55	1398.52
642.89	1393.05
643.23	1387.69
643.58	1383.45
643.92	1376.17
644.26	1370.93
644.61	1366.17
644.95	1361.07
645.29	1355.02
645.64	1350.57
645.98	1345.31
646.32	1340.05
646.66	1333.29
647.01	1327.60
647.35	1323.05
647.69	1317.50
648.04	1312.14
648.38	1307.19
648.72	1302.19
649.06	1296.24
649.41	1289.60
649.75	1283.33
650.09	1277.43
650.43	1270.62
650.78	1263.57
651.12	1257.50
651.46	1250.88
651.80	1244.62
652.14	1238.90
652.49	1232.67
652.83	1226.12
653.17	1219.24
653.51	1213.19
653.85	1207.50
654.20	1201.02
654.54	1193.62
654.88	1187.14
655.22	1181.81
655.56	1175.33
655.90	1169.10
656.25	1162.50
656.59	1156.57
656.93	1150.26
657.27	1145.17
657.61	1139.33
657.95	1133.95
658.29	1128.19
658.64	1123.07
658.98	1116.07
659.32	1109.10
659.66	1102.43
660.00	1095.71
660.34	1089.95
660.68	1083.76
661.02	1077.38
661.36	1071.86
661.70	1066.21
662.05	1060.36
662.39	1054.24
662.73	1048.48
663.07	1043.64
663.41	1038.38
663.75	1031.88
664.09	1026.71
664.43	1019.62
664.77	1014.07
665.11	1007.48
665.45	1001.67
665.79	995.33
666.13	989.62
666.47	984.21
666.81	979.86
667.15	975.19
667.49	970.26
667.83	965.00
668.17	960.05
668.51	954.52
668.85	949.69
669.19	945.05
669.53	939.02
669.87	933.64
670.21	926.83
670.55	920.90
670.89	916.90
671.23	911.83
671.57	906.45
671.91	901.00
672.25	896.57
672.58	892.24
672.92	886.67
673.26	881.52
673.60	876.31
673.94	870.67
674.28	865.38
674.62	860.38
674.96	855.12
675.30	849.55
675.64	844.26
675.97	838.05
676.31	832.64
676.65	827.69
676.99	823.60
677.33	818.55
677.67	813.90
678.01	807.88
678.34	802.62
678.68	798.60
679.02	793.43
679.36	787.98
679.70	782.40
680.04	777.45
680.37	772.50
680.71	767.38
681.05	762.43
681.39	757.48
681.73	752.26
682.06	747.38
682.40	742.69
682.74	738.64
683.08	735.17
683.42	729.98
683.75	725.45
684.09	719.36
684.43	714.76
684.77	709.40
685.10	704.67
685.44	699.64
685.78	694.48
686.12	690.17
686.45	685.64
686.79	680.88
687.13	677.24
687.46	672.45
687.80	668.76
688.14	664.07
688.48	660.05
688.81	655.17
689.15	651.19
689.49	647.00
689.82	641.95
690.16	636.86
690.50	632.60
690.83	627.93
691.17	623.00
691.51	618.83
691.84	614.71
692.18	610.57
692.52	606.40
692.85	602.69
693.19	599.26
693.52	594.83
693.86	590.55
694.20	585.93
694.53	582.24
694.87	577.14
695.21	572.76
695.54	568.38
695.88	564.31
696.21	559.24
696.55	555.07
696.88	551.31
697.22	547.29
697.56	544.17
697.89	540.38
698.23	537.45
698.56	533.60
698.90	529.93
699.23	526.21
699.57	522.57
699.90	518.52
700.24	514.02
700.58	510.52
700.91	507.24
701.25	505.48
701.58	503.07
701.92	500.38
702.25	497.07
702.59	493.45
702.92	490.64
703.26	487.57
703.59	484.64
703.93	483.21
704.26	480.31
704.60	476.95
704.93	474.07
705.26	470.81
705.60	468.05
705.93	464.95
706.27	462.55
706.60	460.21
706.94	457.98
707.27	455.14
707.61	452.12
707.94	449.12
708.27	444.57
708.61	440.52
708.94	437.62
709.28	435.40
709.61	432.74
709.94	430.55
710.28	428.10
710.61	425.60
710.95	420.98
711.28	419.71
711.61	416.95
711.95	414.79
712.28	412.40
712.61	409.95
712.95	408.69
713.28	407.33
713.61	404.60
713.95	401.74
714.28	399.86
714.61	397.95
714.95	396.02
715.28	393.40
715.61	391.36
715.95	389.21
716.28	386.90
716.61	384.67
716.95	381.95
717.28	379.74
717.61	377.29
717.94	375.62
718.28	372.17
718.61	370.21
718.94	367.57
719.27	365.62
719.61	363.79
719.94	361.17
720.27	357.98
720.60	355.57
720.94	353.57
721.27	351.50
721.60	350.02
721.93	348.19
722.27	347.45
722.60	346.21
722.93	344.60
723.26	343.26
723.59	341.36
723.93	340.02
724.26	338.64
724.59	337.26
724.92	335.71
725.25	335.00
725.59	333.45
725.92	332.45
726.25	331.38
726.58	330.00
726.91	328.95
727.24	327.95
727.57	327.10
727.91	325.93
728.24	324.71
728.57	323.02
728.90	321.86
729.23	320.05
729.56	319.81
729.89	318.55
730.22	316.74
730.55	315.76
730.89	314.74
731.22	313.57
731.55	312.21
731.88	311.36
732.21	309.74
732.54	308.38
732.87	307.29
733.20	305.83
733.53	304.81
733.86	303.60
734.19	302.29
734.52	301.67
734.85	302.07
735.18	300.95
735.51	300.86
735.84	300.29
736.17	299.67
736.50	297.62
736.83	298.79
737.16	298.50
737.49	297.79
737.82	296.38
738.15	295.79
738.48	295.19
738.81	294.26
739.14	293.12
739.47	292.38
739.80	291.64
740.13	291.05
740.46	289.86
740.79	288.67
741.12	287.60
741.45	286.24
741.78	284.19
742.11	283.83
742.44	282.17
742.77	281.45
743.10	280.29
743.43	279.40
743.75	276.71
744.08	278.26
744.41	277.14
744.74	276.33
745.07	275.24
745.40	274.95
745.73	275.05
746.06	274.33
746.39	273.81
746.71	272.45
747.04	271.69
747.37	270.95
747.70	270.79
748.03	270.48
748.36	270.07
748.68	269.43
749.01	268.19
749.34	267.76
749.67	267.02
750.00	266.90
750.33	268.02
750.65	267.57
750.98	264.62
751.31	264.12
751.64	263.81
751.97	264.50
752.29	263.48
752.62	261.98
752.95	261.33
753.28	260.38
753.60	260.02
753.93	259.93
754.26	259.57
754.59	258.48
754.91	257.52
755.24	257.07
755.57	256.50
755.90	256.10
756.22	255.17
756.55	254.31
756.88	253.12
757.20	250.93
757.53	249.93
757.86	249.14
758.19	248.90
758.51	248.29
758.84	246.62
759.17	245.98
759.49	245.71
759.82	246.33
760.15	246.29
760.47	246.07
760.80	244.95
761.13	244.98
761.45	244.57
761.78	244.33
762.11	243.90
762.43	243.31
762.76	243.02
763.08	243.12
763.41	243.02
763.74	242.93
764.06	242.64
764.39	242.33
764.71	242.10
765.04	241.40
765.37	240.81
765.69	240.36
766.02	240.24
766.34	239.40
766.67	238.21
767.00	238.05
767.32	238.33
767.65	239.43
767.97	238.79
768.30	238.81
768.62	238.31
768.95	237.69
769.27	237.45
769.60	237.38
769.92	236.90
770.25	235.98
770.57	235.29
770.90	234.98
771.22	234.33
771.55	234.10
771.87	234.14
772.20	234.05
772.52	235.76
772.85	237.57
773.17	237.71
773.50	237.36
773.82	236.76
774.15	235.74
774.47	233.90
774.80	233.67
775.12	233.17
775.45	233.07
775.77	232.98
776.09	233.02
776.42	232.64
776.74	232.98
777.07	232.81
777.39	232.76
777.72	232.43
778.04	232.81
778.36	232.29
778.69	232.21
779.01	232.10
779.33	229.98
779.66	227.74
779.98	227.31
780.31	227.38
780.63	228.10
780.95	228.36
781.28	228.50
781.60	228.05
781.92	228.00
782.25	227.29
782.57	227.29
782.89	226.83
783.22	226.38
783.54	225.81
783.86	225.90
784.19	225.60
784.51	226.12
784.83	225.40
