SpectraSuite Data File
++++++++++++++++++++++++++++++++++++
Date: Tue Apr 02 18:40:37 EDT 2013
User: group
Dark Spectrum Present: No
Reference Spectrum Present: No
Number of Sampled Component Spectra: 1
Spectrometers: USB2E7196
Integration Time (usec): 580000 (USB2E7196)
Spectra Averaged: 2 (USB2E7196)
Boxcar Smoothing: 10 (USB2E7196)
Correct for Electrical Dark: No (USB2E7196)
Strobe/Lamp Enabled: No (USB2E7196)
Correct for Detector Non-linearity: No (USB2E7196)
Correct for Stray Light: No (USB2E7196)
Number of Pixels in Processed Spectrum: 2048
>>>>>Begin Processed Spectral Data<<<<<
339.09	0.00
339.48	188.50
339.86	193.50
340.24	196.50
340.63	195.00
341.01	230.50
341.39	201.50
341.78	205.00
342.16	213.50
342.54	206.50
342.93	197.36
343.31	207.21
343.69	207.90
344.07	208.69
344.46	209.43
344.84	210.12
345.22	209.02
345.60	209.45
345.99	209.74
346.37	209.60
346.75	209.43
347.13	209.45
347.52	209.52
347.90	210.33
348.28	210.31
348.66	210.69
349.05	210.05
349.43	210.31
349.81	210.29
350.19	210.76
350.57	210.83
350.96	211.12
351.34	211.29
351.72	211.71
352.10	211.71
352.48	211.64
352.87	211.71
353.25	211.86
353.63	211.67
354.01	211.67
354.39	211.90
354.77	212.40
355.15	212.90
355.54	212.98
355.92	212.52
356.30	212.57
356.68	214.10
357.06	214.60
357.44	214.38
357.82	214.36
358.20	215.45
358.58	215.29
358.97	215.40
359.35	215.93
359.73	216.21
360.11	216.19
360.49	216.43
360.87	216.31
361.25	216.57
361.63	217.48
362.01	217.71
362.39	217.74
362.77	217.83
363.15	217.76
363.53	217.64
363.91	217.57
364.29	217.45
364.67	215.52
365.05	215.40
365.43	215.74
365.81	216.02
366.19	216.14
366.57	217.29
366.95	217.07
367.33	216.50
367.71	216.48
368.09	216.95
368.47	216.90
368.85	217.00
369.23	217.33
369.61	216.52
369.99	216.93
370.37	217.00
370.75	217.88
371.13	217.21
371.51	216.98
371.89	217.36
372.27	217.60
372.65	217.81
373.03	217.81
373.41	217.76
373.78	217.71
374.16	216.55
374.54	215.71
374.92	215.74
375.30	215.90
375.68	215.43
376.06	215.36
376.44	215.17
376.82	215.33
377.19	215.21
377.57	215.29
377.95	214.69
378.33	214.48
378.71	213.12
379.09	213.64
379.47	213.98
379.84	213.62
380.22	213.31
380.60	212.93
380.98	212.64
381.36	212.43
381.73	212.07
382.11	212.62
382.49	212.69
382.87	212.19
383.25	212.19
383.62	214.67
384.00	214.21
384.38	214.33
384.76	214.76
385.13	215.79
385.51	215.60
385.89	215.31
386.27	215.33
386.64	215.88
387.02	215.76
387.40	215.60
387.78	215.69
388.15	215.79
388.53	215.48
388.91	215.48
389.29	215.33
389.66	215.62
390.04	215.21
390.42	215.79
390.79	216.17
391.17	216.12
391.55	214.07
391.92	214.14
392.30	214.33
392.68	213.69
393.05	213.12
393.43	213.43
393.81	213.62
394.18	213.52
394.56	213.60
394.94	214.17
395.31	213.83
395.69	214.67
396.06	215.05
396.44	215.36
396.82	215.40
397.19	216.57
397.57	216.55
397.95	216.69
398.32	215.93
398.70	216.02
399.07	216.52
399.45	216.43
399.82	216.24
400.20	216.07
400.58	216.21
400.95	215.55
401.33	215.76
401.70	217.38
402.08	217.40
402.45	217.31
402.83	217.48
403.20	218.02
403.58	217.60
403.95	218.07
404.33	218.76
404.71	219.19
405.08	220.29
405.46	220.64
405.83	221.40
406.21	221.74
406.58	222.26
406.96	222.33
407.33	222.69
407.70	223.81
408.08	226.10
408.45	227.02
408.83	228.07
409.20	228.76
409.58	228.26
409.95	229.43
410.33	230.38
410.70	230.86
411.08	232.14
411.45	233.31
411.82	234.07
412.20	235.48
412.57	237.93
412.95	237.60
413.32	239.50
413.69	240.76
414.07	242.50
414.44	244.10
414.82	246.17
415.19	248.93
415.56	251.19
415.94	252.43
416.31	255.57
416.68	258.64
417.06	262.02
417.43	265.83
417.81	269.36
418.18	273.10
418.55	276.95
418.93	281.14
419.30	285.52
419.67	290.17
420.04	294.93
420.42	299.48
420.79	306.98
421.16	312.55
421.54	319.45
421.91	325.74
422.28	332.48
422.66	339.79
423.03	348.21
423.40	355.74
423.77	363.50
424.15	370.98
424.52	379.02
424.89	387.83
425.26	396.00
425.64	404.33
426.01	413.36
426.38	422.67
426.75	432.26
427.13	442.14
427.50	452.19
427.87	462.38
428.24	472.33
428.61	481.19
428.99	493.21
429.36	504.52
429.73	516.50
430.10	528.64
430.47	540.62
430.85	551.43
431.22	564.43
431.59	579.60
431.96	592.64
432.33	606.93
432.70	621.69
433.08	638.93
433.45	654.69
433.82	670.79
434.19	689.17
434.56	707.17
434.93	723.81
435.30	740.69
435.68	759.36
436.05	778.45
436.42	796.38
436.79	813.17
437.16	831.24
437.53	850.55
437.90	869.52
438.27	888.43
438.64	907.55
439.01	925.71
439.38	940.67
439.75	956.69
440.13	974.52
440.50	990.95
440.87	1003.90
441.24	1018.31
441.61	1033.52
441.98	1044.69
442.35	1057.05
442.72	1071.02
443.09	1084.74
443.46	1092.69
443.83	1098.12
444.20	1103.83
444.57	1109.86
444.94	1112.98
445.31	1116.64
445.68	1121.93
446.05	1123.05
446.42	1122.07
446.79	1120.69
447.16	1118.02
447.53	1116.48
447.90	1110.12
448.27	1103.86
448.64	1095.07
449.01	1088.33
449.37	1076.95
449.74	1065.38
450.11	1053.57
450.48	1037.76
450.85	1021.45
451.22	1008.45
451.59	995.10
451.96	982.45
452.33	965.90
452.70	950.90
453.07	932.50
453.43	912.19
453.80	895.52
454.17	878.19
454.54	861.90
454.91	845.43
455.28	829.19
455.65	813.55
456.02	800.43
456.38	786.93
456.75	770.17
457.12	756.00
457.49	742.31
457.86	727.40
458.23	716.71
458.59	704.26
458.96	691.26
459.33	680.21
459.70	668.43
460.07	660.05
460.43	650.21
460.80	641.00
461.17	633.40
461.54	624.10
461.91	615.98
462.27	606.95
462.64	599.26
463.01	590.55
463.38	583.50
463.74	572.57
464.11	565.43
464.48	559.38
464.85	552.81
465.21	548.05
465.58	542.83
465.95	535.81
466.32	530.86
466.68	525.74
467.05	520.76
467.42	515.67
467.78	509.69
468.15	504.57
468.52	500.71
468.88	495.02
469.25	490.43
469.62	486.90
469.98	483.00
470.35	478.93
470.72	475.48
471.08	470.88
471.45	467.95
471.82	464.93
472.18	461.64
472.55	458.90
472.92	455.00
473.28	451.67
473.65	448.60
474.02	445.83
474.38	443.74
474.75	441.74
475.11	439.57
475.48	438.10
475.85	436.31
476.21	434.38
476.58	432.98
476.94	431.79
477.31	430.33
477.67	428.64
478.04	428.12
478.41	427.52
478.77	428.64
479.14	427.43
479.50	426.83
479.87	426.48
480.23	426.14
480.60	425.79
480.96	425.50
481.33	426.71
481.69	426.52
482.06	426.60
482.42	426.88
482.79	427.26
483.15	427.31
483.52	428.36
483.88	429.05
484.25	429.62
484.61	430.50
484.98	431.26
485.34	433.60
485.71	435.00
486.07	436.33
486.44	435.98
486.80	437.50
487.17	439.19
487.53	441.74
487.90	443.86
488.26	447.10
488.62	450.21
488.99	451.57
489.35	454.43
489.72	457.12
490.08	459.64
490.44	462.69
490.81	466.48
491.17	469.50
491.54	473.33
491.90	477.38
492.26	481.12
492.63	485.52
492.99	488.95
493.36	493.24
493.72	498.05
494.08	502.57
494.45	507.52
494.81	512.67
495.17	517.17
495.54	522.57
495.90	527.26
496.26	532.52
496.63	538.71
496.99	544.26
497.35	549.98
497.72	556.36
498.08	562.81
498.44	569.14
498.80	576.38
499.17	582.74
499.53	588.93
499.89	595.60
500.26	602.64
500.62	610.19
500.98	617.69
501.34	625.00
501.71	632.57
502.07	640.05
502.43	647.29
502.79	654.79
503.16	662.43
503.52	670.02
503.88	677.50
504.24	685.17
504.60	693.67
504.97	701.86
505.33	709.43
505.69	718.33
506.05	726.24
506.41	733.76
506.78	741.76
507.14	750.05
507.50	758.83
507.86	766.52
508.22	774.31
508.59	781.93
508.95	790.14
509.31	799.38
509.67	807.83
510.03	816.10
510.39	824.71
510.75	833.36
511.12	842.17
511.48	850.26
511.84	858.24
512.20	866.48
512.56	874.79
512.92	883.38
513.28	890.60
513.64	899.07
514.00	907.17
514.37	915.19
514.73	923.43
515.09	931.26
515.45	938.86
515.81	946.33
516.17	953.48
516.53	960.52
516.89	967.17
517.25	975.00
517.61	983.17
517.97	989.95
518.33	996.90
518.69	1003.81
519.05	1011.50
519.41	1018.86
519.77	1026.48
520.13	1033.00
520.49	1039.02
520.85	1045.52
521.21	1052.17
521.57	1058.83
521.93	1064.67
522.29	1071.00
522.65	1077.21
523.01	1083.83
523.37	1090.33
523.73	1096.50
524.09	1102.60
524.45	1107.36
524.81	1112.62
525.17	1117.95
525.53	1123.26
525.89	1128.43
526.25	1134.07
526.61	1138.67
526.97	1143.38
527.33	1147.50
527.68	1154.74
528.04	1160.12
528.40	1165.07
528.76	1169.26
529.12	1174.14
529.48	1179.69
529.84	1184.29
530.20	1189.67
530.56	1194.79
530.91	1199.62
531.27	1205.76
531.63	1211.40
531.99	1216.45
532.35	1221.26
532.71	1225.57
533.07	1231.29
533.42	1238.12
533.78	1242.38
534.14	1247.71
534.50	1253.05
534.86	1258.57
535.21	1261.26
535.57	1266.31
535.93	1270.45
536.29	1276.31
536.65	1281.24
537.00	1285.19
537.36	1289.19
537.72	1292.00
538.08	1296.21
538.44	1299.81
538.79	1303.90
539.15	1306.45
539.51	1311.60
539.87	1315.88
540.22	1320.10
540.58	1323.98
540.94	1326.21
541.29	1330.62
541.65	1334.05
542.01	1338.52
542.37	1341.12
542.72	1344.36
543.08	1346.88
543.44	1351.93
543.79	1353.45
544.15	1357.31
544.51	1362.21
544.87	1365.86
545.22	1370.55
545.58	1373.57
545.94	1377.10
546.29	1379.81
546.65	1383.57
547.01	1386.48
547.36	1390.17
547.72	1393.64
548.07	1397.17
548.43	1400.36
548.79	1402.86
549.14	1405.69
549.50	1408.17
549.86	1411.12
550.21	1414.55
550.57	1418.83
550.92	1420.79
551.28	1425.79
551.64	1428.60
551.99	1432.12
552.35	1436.21
552.70	1439.02
553.06	1443.02
553.41	1446.93
553.77	1452.76
554.13	1457.55
554.48	1462.88
554.84	1467.05
555.19	1471.33
555.55	1476.60
555.90	1480.83
556.26	1485.07
556.61	1489.69
556.97	1493.33
557.32	1498.38
557.68	1503.12
558.03	1507.33
558.39	1512.36
558.74	1516.64
559.10	1521.02
559.45	1524.83
559.81	1529.71
560.16	1534.21
560.52	1538.76
560.87	1544.64
561.23	1547.38
561.58	1552.50
561.94	1555.69
562.29	1560.12
562.64	1565.57
563.00	1569.76
563.35	1575.10
563.71	1581.17
564.06	1586.60
564.42	1592.55
564.77	1598.90
565.12	1605.02
565.48	1613.14
565.83	1618.60
566.19	1624.67
566.54	1629.86
566.89	1635.79
567.25	1643.07
567.60	1651.24
567.96	1659.31
568.31	1664.43
568.66	1670.55
569.02	1674.79
569.37	1679.74
569.72	1684.76
570.08	1689.17
570.43	1692.98
570.78	1697.93
571.14	1702.05
571.49	1706.81
571.84	1711.76
572.20	1715.36
572.55	1719.19
572.90	1720.83
573.26	1725.07
573.61	1729.00
573.96	1734.07
574.31	1738.21
574.67	1739.86
575.02	1741.31
575.37	1741.95
575.72	1744.17
576.08	1746.90
576.43	1749.83
576.78	1753.12
577.13	1755.60
577.49	1757.88
577.84	1760.90
578.19	1763.00
578.54	1766.02
578.90	1768.90
579.25	1771.14
579.60	1773.79
579.95	1775.48
580.30	1778.29
580.66	1781.21
581.01	1782.69
581.36	1783.52
581.71	1784.43
582.06	1786.93
582.42	1789.50
582.77	1790.95
583.12	1793.57
583.47	1795.19
583.82	1797.29
584.17	1799.36
584.53	1802.33
584.88	1803.45
585.23	1805.48
585.58	1807.36
585.93	1808.10
586.28	1808.29
586.63	1809.31
586.98	1810.62
587.34	1812.50
587.69	1812.40
588.04	1812.57
588.39	1812.90
588.74	1813.07
589.09	1813.52
589.44	1813.14
589.79	1813.52
590.14	1814.40
590.49	1813.67
590.84	1814.10
591.19	1815.10
591.54	1815.21
591.89	1813.64
592.25	1815.79
592.60	1814.55
592.95	1813.88
593.30	1813.57
593.65	1813.24
594.00	1812.00
594.35	1816.33
594.70	1815.57
595.05	1815.52
595.40	1814.60
595.75	1813.62
596.10	1814.48
596.45	1814.33
596.80	1813.74
597.15	1811.83
597.50	1810.07
597.85	1809.57
598.19	1807.24
598.54	1805.07
598.89	1804.12
599.24	1803.86
599.59	1801.64
599.94	1799.76
600.29	1798.26
600.64	1797.24
600.99	1796.19
601.34	1795.81
601.69	1789.26
602.04	1786.60
602.39	1784.76
602.74	1783.33
603.08	1781.95
603.43	1781.02
603.78	1778.79
604.13	1777.02
604.48	1775.19
604.83	1774.45
605.18	1772.62
605.53	1771.45
605.87	1768.98
606.22	1766.24
606.57	1763.10
606.92	1759.74
607.27	1757.57
607.62	1755.10
607.96	1752.40
608.31	1750.21
608.66	1746.76
609.01	1742.76
609.36	1740.71
609.70	1737.93
610.05	1733.45
610.40	1730.55
610.75	1724.95
611.10	1721.76
611.44	1716.62
611.79	1712.50
612.14	1707.93
612.49	1703.76
612.83	1699.48
613.18	1695.19
613.53	1690.36
613.88	1686.17
614.22	1681.60
614.57	1677.19
614.92	1671.62
615.27	1666.10
615.61	1660.24
615.96	1654.93
616.31	1650.55
616.65	1646.38
617.00	1641.43
617.35	1637.40
617.70	1632.31
618.04	1627.31
618.39	1621.55
618.74	1617.43
619.08	1611.90
619.43	1607.10
619.78	1601.60
620.12	1597.02
620.47	1592.52
620.82	1586.88
621.16	1580.69
621.51	1576.33
621.85	1570.76
622.20	1566.24
622.55	1561.05
622.89	1556.05
623.24	1551.12
623.59	1545.05
623.93	1538.86
624.28	1533.55
624.62	1530.33
624.97	1525.60
625.32	1520.45
625.66	1516.62
626.01	1511.19
626.35	1507.52
626.70	1501.79
627.04	1497.71
627.39	1492.02
627.73	1487.79
628.08	1483.90
628.43	1479.48
628.77	1474.05
629.12	1469.95
629.46	1464.88
629.81	1460.10
630.15	1454.69
630.50	1449.55
630.84	1444.05
631.19	1437.98
631.53	1431.93
631.88	1424.62
632.22	1418.33
632.57	1412.71
632.91	1406.31
633.26	1401.19
633.60	1394.45
633.95	1388.40
634.29	1381.98
634.64	1376.14
634.98	1368.76
635.32	1363.10
635.67	1358.26
636.01	1352.00
636.36	1345.55
636.70	1340.21
637.05	1334.88
637.39	1329.38
637.73	1324.43
638.08	1319.86
638.42	1314.21
638.77	1308.98
639.11	1303.02
639.45	1296.88
639.80	1291.07
640.14	1284.74
640.49	1278.33
640.83	1272.05
641.17	1266.38
641.52	1260.14
641.86	1253.64
642.20	1248.81
642.55	1242.02
642.89	1234.71
643.23	1228.90
643.58	1223.62
643.92	1216.19
644.26	1209.10
644.61	1203.31
644.95	1195.90
645.29	1188.45
645.64	1182.81
645.98	1175.74
646.32	1169.38
646.66	1162.57
647.01	1155.79
647.35	1149.40
647.69	1143.29
648.04	1137.98
648.38	1131.90
648.72	1125.76
649.06	1119.38
649.41	1111.69
649.75	1104.52
650.09	1098.17
650.43	1091.14
650.78	1083.07
651.12	1076.31
651.46	1069.64
651.80	1062.29
652.14	1055.67
652.49	1050.07
652.83	1042.88
653.17	1037.07
653.51	1030.10
653.85	1023.83
654.20	1017.40
654.54	1010.14
654.88	1003.10
655.22	997.05
655.56	989.76
655.90	982.50
656.25	976.45
656.59	970.19
656.93	964.45
657.27	958.81
657.61	952.69
657.95	947.52
658.29	941.86
658.64	936.29
658.98	930.17
659.32	923.57
659.66	917.05
660.00	911.40
660.34	904.71
660.68	898.86
661.02	892.83
661.36	886.79
661.70	881.10
662.05	875.67
662.39	869.02
662.73	864.43
663.07	860.40
663.41	854.45
663.75	848.40
664.09	842.69
664.43	836.19
664.77	829.98
665.11	823.79
665.45	818.17
665.79	813.21
666.13	807.24
666.47	801.29
666.81	795.83
667.15	790.05
667.49	785.55
667.83	781.19
668.17	775.95
668.51	770.81
668.85	766.21
669.19	761.55
669.53	755.95
669.87	749.76
670.21	743.36
670.55	737.76
670.89	733.81
671.23	728.31
671.57	723.24
671.91	718.90
672.25	714.36
672.58	710.38
672.92	704.21
673.26	700.26
673.60	696.64
673.94	692.14
674.28	687.83
674.62	683.29
674.96	678.19
675.30	673.69
675.64	669.31
675.97	664.38
676.31	659.12
676.65	654.43
676.99	651.00
677.33	646.55
677.67	642.86
678.01	637.64
678.34	634.21
678.68	630.69
679.02	626.14
679.36	621.52
679.70	616.48
680.04	612.45
680.37	607.95
680.71	603.36
681.05	599.24
681.39	594.83
681.73	590.05
682.06	585.74
682.40	581.98
682.74	578.12
683.08	575.00
683.42	570.93
683.75	567.21
684.09	562.98
684.43	559.02
684.77	554.88
685.10	551.07
685.44	546.55
685.78	542.05
686.12	538.43
686.45	534.81
686.79	530.98
687.13	528.12
687.46	524.10
687.80	521.10
688.14	517.33
688.48	513.81
688.81	510.40
689.15	507.33
689.49	503.62
689.82	500.48
690.16	495.83
690.50	492.64
690.83	489.02
691.17	485.38
691.51	481.60
691.84	478.64
692.18	475.69
692.52	473.12
692.85	470.69
693.19	467.57
693.52	464.43
693.86	461.17
694.20	457.31
694.53	454.24
694.87	451.02
695.21	447.79
695.54	444.98
695.88	441.50
696.21	437.57
696.55	434.21
696.88	430.90
697.22	428.21
697.56	425.76
697.89	423.07
698.23	420.64
698.56	418.33
698.90	415.40
699.23	412.55
699.57	409.69
699.90	406.60
700.24	404.02
700.58	401.71
700.91	399.71
701.25	399.21
701.58	397.69
701.92	395.52
702.25	392.98
702.59	390.50
702.92	388.40
703.26	386.60
703.59	384.74
703.93	384.50
704.26	382.76
704.60	380.40
704.93	378.52
705.26	376.02
705.60	374.14
705.93	371.60
706.27	370.12
706.60	368.52
706.94	367.50
707.27	365.31
707.61	363.36
707.94	361.17
708.27	357.69
708.61	355.33
708.94	353.50
709.28	351.88
709.61	350.17
709.94	348.81
710.28	347.21
710.61	345.60
710.95	341.67
711.28	341.57
711.61	339.69
711.95	338.40
712.28	336.88
712.61	335.43
712.95	335.48
713.28	334.67
713.61	332.86
713.95	330.50
714.28	329.24
714.61	327.50
714.95	326.14
715.28	324.45
715.61	322.81
715.95	321.26
716.28	319.95
716.61	319.00
716.95	317.21
717.28	315.36
717.61	314.00
717.94	312.98
718.28	309.79
718.61	308.38
718.94	306.62
719.27	305.26
719.61	304.19
719.94	302.33
720.27	300.26
720.60	298.79
720.94	297.76
721.27	296.64
721.60	296.05
721.93	295.12
722.27	294.69
722.60	294.10
722.93	292.93
723.26	292.14
723.59	290.69
723.93	290.21
724.26	289.83
724.59	288.64
724.92	287.57
725.25	287.40
725.59	286.29
725.92	285.67
726.25	285.00
726.58	283.90
726.91	282.86
727.24	282.07
727.57	281.40
727.91	280.24
728.24	279.64
728.57	278.48
728.90	277.83
729.23	276.52
729.56	276.52
729.89	275.93
730.22	275.07
730.55	274.24
730.89	273.52
731.22	272.19
731.55	271.74
731.88	271.36
732.21	270.33
732.54	269.90
732.87	269.24
733.20	268.64
733.53	268.10
733.86	267.76
734.19	266.71
734.52	266.21
734.85	267.10
735.18	266.07
735.51	266.62
735.84	266.05
736.17	266.31
736.50	264.76
736.83	266.48
737.16	265.71
737.49	265.24
737.82	264.48
738.15	264.31
738.48	263.55
738.81	262.86
739.14	262.02
739.47	261.55
739.80	261.07
740.13	260.79
740.46	260.00
740.79	259.07
741.12	258.62
741.45	257.79
741.78	256.19
742.11	256.40
742.44	255.24
742.77	255.10
743.10	254.17
743.43	253.62
743.75	250.83
744.08	253.40
744.41	252.86
744.74	252.19
745.07	251.52
745.40	251.55
745.73	251.60
746.06	251.17
746.39	250.81
746.71	250.05
747.04	249.10
747.37	248.83
747.70	248.90
748.03	248.76
748.36	248.83
748.68	248.48
749.01	247.52
749.34	247.00
749.67	246.43
750.00	246.43
750.33	247.60
750.65	247.67
750.98	244.74
751.31	244.45
751.64	244.38
751.97	245.33
752.29	244.64
752.62	243.76
752.95	243.69
753.28	243.12
753.60	242.98
753.93	243.33
754.26	243.07
754.59	241.98
754.91	241.26
755.24	240.83
755.57	240.62
755.90	240.33
756.22	239.64
756.55	239.05
756.88	238.00
757.20	236.38
757.53	235.24
757.86	235.00
758.19	234.76
758.51	234.26
758.84	232.93
759.17	232.69
759.49	232.67
759.82	233.36
760.15	233.40
760.47	232.90
760.80	232.10
761.13	232.31
761.45	232.17
761.78	232.07
762.11	231.79
762.43	231.19
762.76	230.69
763.08	231.05
763.41	230.88
763.74	230.83
764.06	230.52
764.39	230.64
764.71	229.95
765.04	229.50
765.37	229.14
765.69	228.90
766.02	228.60
766.34	228.21
766.67	227.02
767.00	227.19
767.32	228.12
767.65	229.19
767.97	228.55
768.30	228.55
768.62	228.40
768.95	228.05
769.27	228.02
769.60	228.38
769.92	227.93
770.25	227.48
770.57	227.00
770.90	227.05
771.22	226.67
771.55	226.69
771.87	226.69
772.20	226.57
772.52	228.05
772.85	230.48
773.17	230.26
773.50	230.29
773.82	229.83
774.15	228.71
774.47	227.00
774.80	226.79
775.12	226.40
775.45	226.05
775.77	226.00
776.09	226.02
776.42	225.86
776.74	226.31
777.07	225.93
777.39	225.93
777.72	225.62
778.04	225.90
778.36	225.74
778.69	225.86
779.01	225.88
779.33	224.24
779.66	221.71
779.98	221.52
780.31	221.24
780.63	221.90
780.95	222.36
781.28	222.57
781.60	222.36
781.92	222.50
782.25	222.43
782.57	222.19
782.89	221.98
783.22	221.81
783.54	221.12
783.86	221.50
784.19	221.52
784.51	222.07
784.83	221.71
785.16	221.64
