SpectraSuite Data File
++++++++++++++++++++++++++++++++++++
Date: Tue Apr 02 18:43:57 EDT 2013
User: group
Dark Spectrum Present: No
Reference Spectrum Present: No
Number of Sampled Component Spectra: 1
Spectrometers: USB2E7196
Integration Time (usec): 580000 (USB2E7196)
Spectra Averaged: 2 (USB2E7196)
Boxcar Smoothing: 10 (USB2E7196)
Correct for Electrical Dark: No (USB2E7196)
Strobe/Lamp Enabled: No (USB2E7196)
Correct for Detector Non-linearity: No (USB2E7196)
Correct for Stray Light: No (USB2E7196)
Number of Pixels in Processed Spectrum: 2048
>>>>>Begin Processed Spectral Data<<<<<
339.09	0.00
339.48	193.50
339.86	201.50
340.24	196.50
340.63	196.00
341.01	237.00
341.39	199.50
341.78	206.50
342.16	212.00
342.54	203.50
342.93	198.02
343.31	207.83
343.69	208.36
344.07	208.74
344.46	209.74
344.84	210.33
345.22	209.05
345.60	209.31
345.99	209.52
346.37	209.60
346.75	209.81
347.13	210.12
347.52	210.36
347.90	210.98
348.28	211.10
348.66	211.52
349.05	211.02
349.43	211.52
349.81	211.48
350.19	211.62
350.57	211.62
350.96	211.83
351.34	212.17
351.72	212.26
352.10	212.19
352.48	211.81
352.87	211.64
353.25	211.62
353.63	211.64
354.01	211.45
354.39	211.43
354.77	211.62
355.15	211.95
355.54	211.69
355.92	211.02
356.30	210.90
356.68	211.88
357.06	211.98
357.44	211.52
357.82	211.50
358.20	212.43
358.58	212.31
358.97	212.74
359.35	213.10
359.73	213.76
360.11	213.79
360.49	213.90
360.87	214.29
361.25	214.50
361.63	215.24
362.01	215.52
362.39	215.24
362.77	215.38
363.15	215.43
363.53	215.55
363.91	215.90
364.29	215.93
364.67	214.17
365.05	214.43
365.43	214.64
365.81	214.98
366.19	215.17
366.57	215.95
366.95	215.60
367.33	215.12
367.71	214.86
368.09	215.19
368.47	215.19
368.85	215.10
369.23	215.57
369.61	214.98
369.99	215.69
370.37	216.00
370.75	216.71
371.13	216.29
371.51	216.07
371.89	216.07
372.27	216.29
372.65	216.64
373.03	216.50
373.41	216.33
373.78	216.40
374.16	215.10
374.54	214.57
374.92	214.50
375.30	214.67
375.68	214.33
376.06	214.55
376.44	214.57
376.82	214.62
377.19	214.38
377.57	214.45
377.95	213.60
378.33	213.64
378.71	212.52
379.09	212.74
379.47	213.31
379.84	213.12
380.22	212.83
380.60	212.43
380.98	212.17
381.36	212.36
381.73	211.86
382.11	212.45
382.49	212.60
382.87	212.26
383.25	212.10
383.62	214.52
384.00	214.02
384.38	213.95
384.76	214.33
385.13	215.17
385.51	215.02
385.89	214.93
386.27	214.90
386.64	215.24
387.02	215.05
387.40	214.71
387.78	214.81
388.15	215.19
388.53	214.95
388.91	215.17
389.29	215.10
389.66	215.43
390.04	214.98
390.42	215.17
390.79	215.40
391.17	215.45
391.55	213.19
391.92	213.33
392.30	213.60
392.68	213.07
393.05	212.79
393.43	212.79
393.81	212.93
394.18	212.74
394.56	212.93
394.94	213.48
395.31	213.26
395.69	214.10
396.06	214.10
396.44	214.67
396.82	214.52
397.19	215.48
397.57	215.36
397.95	215.93
398.32	215.38
398.70	215.38
399.07	215.90
399.45	215.76
399.82	215.86
400.20	215.74
400.58	215.71
400.95	215.07
401.33	215.43
401.70	216.98
402.08	217.21
402.45	217.21
402.83	217.67
403.20	218.02
403.58	217.50
403.95	218.29
404.33	218.62
404.71	219.02
405.08	220.07
405.46	220.17
405.83	220.40
406.21	220.93
406.58	221.69
406.96	221.90
407.33	222.74
407.70	223.33
408.08	225.19
408.45	226.29
408.83	227.33
409.20	228.10
409.58	227.55
409.95	228.45
410.33	229.48
410.70	229.83
411.08	231.02
411.45	232.05
411.82	232.71
412.20	234.31
412.57	236.76
412.95	236.40
413.32	238.26
413.69	239.43
414.07	241.14
414.44	242.90
414.82	244.71
415.19	246.86
415.56	249.00
415.94	250.38
416.31	252.90
416.68	255.52
417.06	258.83
417.43	262.24
417.81	265.31
418.18	268.81
418.55	272.57
418.93	276.40
419.30	280.76
419.67	284.81
420.04	289.07
420.42	293.50
420.79	300.74
421.16	306.24
421.54	313.40
421.91	319.60
422.28	325.69
422.66	332.21
423.03	339.98
423.40	346.95
423.77	354.21
424.15	361.43
424.52	369.14
424.89	377.90
425.26	385.64
425.64	393.74
426.01	402.05
426.38	411.07
426.75	420.76
427.13	430.07
427.50	440.07
427.87	450.14
428.24	459.71
428.61	468.00
428.99	479.07
429.36	489.29
429.73	500.45
430.10	512.17
430.47	523.83
430.85	534.31
431.22	547.24
431.59	561.98
431.96	574.74
432.33	588.67
432.70	601.83
433.08	618.29
433.45	633.55
433.82	648.64
434.19	664.98
434.56	681.38
434.93	696.60
435.30	712.19
435.68	730.12
436.05	747.57
436.42	764.74
436.79	780.33
437.16	797.57
437.53	815.71
437.90	833.07
438.27	851.07
438.64	869.98
439.01	886.31
439.38	899.69
439.75	914.40
440.13	931.21
440.50	946.57
440.87	958.52
441.24	971.95
441.61	986.90
441.98	998.43
442.35	1011.07
442.72	1025.12
443.09	1038.83
443.46	1046.67
443.83	1051.05
444.20	1055.33
444.57	1061.83
444.94	1065.38
445.31	1068.14
445.68	1074.36
446.05	1075.55
446.42	1073.62
446.79	1072.52
447.16	1070.90
447.53	1070.38
447.90	1063.64
448.27	1057.83
448.64	1049.74
449.01	1043.38
449.37	1032.14
449.74	1021.24
450.11	1009.45
450.48	994.29
450.85	977.98
451.22	964.43
451.59	953.14
451.96	942.31
452.33	926.52
452.70	912.45
453.07	895.76
453.43	875.86
453.80	859.52
454.17	843.90
454.54	829.02
454.91	813.10
455.28	796.50
455.65	781.76
456.02	770.33
456.38	758.05
456.75	742.81
457.12	729.55
457.49	716.29
457.86	701.98
458.23	692.07
458.59	680.48
458.96	668.64
459.33	658.36
459.70	647.67
460.07	639.45
460.43	629.45
460.80	621.26
461.17	614.05
461.54	605.95
461.91	597.86
462.27	589.07
462.64	581.83
463.01	574.71
463.38	568.88
463.74	557.95
464.11	550.86
464.48	544.98
464.85	538.93
465.21	534.40
465.58	529.50
465.95	522.62
466.32	517.79
466.68	512.74
467.05	507.26
467.42	501.90
467.78	496.45
468.15	491.36
468.52	487.29
468.88	481.55
469.25	476.48
469.62	473.40
469.98	469.48
470.35	466.24
470.72	462.93
471.08	458.10
471.45	455.64
471.82	452.74
472.18	449.10
472.55	446.55
472.92	443.10
473.28	439.93
473.65	437.02
474.02	434.69
474.38	432.79
474.75	431.12
475.11	429.02
475.48	427.64
475.85	426.26
476.21	424.76
476.58	423.67
476.94	422.83
477.31	421.02
477.67	420.19
478.04	418.57
478.41	417.52
478.77	418.69
479.14	417.10
479.50	416.67
479.87	416.55
480.23	416.43
480.60	416.40
480.96	416.26
481.33	417.24
481.69	416.74
482.06	416.76
482.42	416.88
482.79	417.45
483.15	417.64
483.52	418.48
483.88	418.67
484.25	419.05
484.61	420.02
484.98	420.86
485.34	422.67
485.71	424.79
486.07	426.43
486.44	425.90
486.80	427.69
487.17	429.21
487.53	431.12
487.90	432.88
488.26	435.40
488.62	438.26
488.99	439.93
489.35	442.83
489.72	445.48
490.08	448.17
490.44	450.67
490.81	454.33
491.17	457.02
491.54	460.45
491.90	464.26
492.26	467.71
492.63	471.98
492.99	474.86
493.36	478.62
493.72	482.52
494.08	487.19
494.45	492.12
494.81	496.62
495.17	501.17
495.54	506.50
495.90	510.90
496.26	516.26
496.63	521.62
496.99	526.83
497.35	532.19
497.72	538.33
498.08	544.17
498.44	550.05
498.80	556.79
499.17	562.98
499.53	568.88
499.89	576.12
500.26	582.45
500.62	589.64
500.98	596.45
501.34	603.64
501.71	611.14
502.07	618.14
502.43	625.26
502.79	632.76
503.16	639.76
503.52	647.43
503.88	653.93
504.24	661.62
504.60	668.95
504.97	676.93
505.33	684.26
505.69	692.90
506.05	700.31
506.41	708.05
506.78	715.60
507.14	723.50
507.50	730.79
507.86	738.79
508.22	746.83
508.59	754.05
508.95	761.83
509.31	770.67
509.67	778.52
510.03	786.57
510.39	794.36
510.75	801.50
511.12	809.05
511.48	817.00
511.84	824.48
512.20	832.76
512.56	840.62
512.92	848.26
513.28	855.67
513.64	862.86
514.00	870.12
514.37	877.38
514.73	885.10
515.09	892.88
515.45	900.12
515.81	906.60
516.17	914.07
516.53	919.83
516.89	924.74
517.25	931.14
517.61	937.90
517.97	944.26
518.33	951.19
518.69	957.64
519.05	963.79
519.41	970.02
519.77	976.60
520.13	982.05
520.49	987.02
520.85	992.38
521.21	999.24
521.57	1004.71
521.93	1009.74
522.29	1014.95
522.65	1020.02
523.01	1025.02
523.37	1029.69
523.73	1034.79
524.09	1040.88
524.45	1045.93
524.81	1049.69
525.17	1054.00
525.53	1058.40
525.89	1063.14
526.25	1068.12
526.61	1072.93
526.97	1077.26
527.33	1081.00
527.68	1087.43
528.04	1092.40
528.40	1096.38
528.76	1099.57
529.12	1103.93
529.48	1109.45
529.84	1113.24
530.20	1117.05
530.56	1121.69
530.91	1127.21
531.27	1131.60
531.63	1135.83
531.99	1139.86
532.35	1144.31
532.71	1148.40
533.07	1152.50
533.42	1158.67
533.78	1162.52
534.14	1167.48
534.50	1171.38
534.86	1176.12
535.21	1178.52
535.57	1182.81
535.93	1186.64
536.29	1191.79
536.65	1196.05
537.00	1199.02
537.36	1203.02
537.72	1206.36
538.08	1209.69
538.44	1212.24
538.79	1216.07
539.15	1219.29
539.51	1222.52
539.87	1227.14
540.22	1230.62
540.58	1234.14
540.94	1235.74
541.29	1238.60
541.65	1240.40
542.01	1243.40
542.37	1245.38
542.72	1247.07
543.08	1249.60
543.44	1252.36
543.79	1253.40
544.15	1256.36
544.51	1259.76
544.87	1262.88
545.22	1266.67
545.58	1269.43
545.94	1272.64
546.29	1274.50
546.65	1276.86
547.01	1279.43
547.36	1281.40
547.72	1283.55
548.07	1286.38
548.43	1288.48
548.79	1290.74
549.14	1292.93
549.50	1295.67
549.86	1298.02
550.21	1301.05
550.57	1303.36
550.92	1305.90
551.28	1309.86
551.64	1311.88
551.99	1314.05
552.35	1316.88
552.70	1319.10
553.06	1322.05
553.41	1325.14
553.77	1330.12
554.13	1333.67
554.48	1338.07
554.84	1341.79
555.19	1345.81
555.55	1350.67
555.90	1354.26
556.26	1357.90
556.61	1361.95
556.97	1365.55
557.32	1369.52
557.68	1373.86
558.03	1378.12
558.39	1382.50
558.74	1385.00
559.10	1388.67
559.45	1393.24
559.81	1397.38
560.16	1400.62
560.52	1405.12
560.87	1409.67
561.23	1412.14
561.58	1418.00
561.94	1421.50
562.29	1425.67
562.64	1430.76
563.00	1434.40
563.35	1438.64
563.71	1444.38
564.06	1449.45
564.42	1454.52
564.77	1460.62
565.12	1466.67
565.48	1473.62
565.83	1479.19
566.19	1485.60
566.54	1492.00
566.89	1497.60
567.25	1503.52
567.60	1511.21
567.96	1518.86
568.31	1525.52
568.66	1532.33
569.02	1536.26
569.37	1542.02
569.72	1548.74
570.08	1553.52
570.43	1558.48
570.78	1564.26
571.14	1569.83
571.49	1575.55
571.84	1580.76
572.20	1585.26
572.55	1589.81
572.90	1593.62
573.26	1597.88
573.61	1603.00
573.96	1607.10
574.31	1611.00
574.67	1615.26
575.02	1618.88
575.37	1620.83
575.72	1622.83
576.08	1626.71
576.43	1630.24
576.78	1633.57
577.13	1635.98
577.49	1640.38
577.84	1645.02
578.19	1648.50
578.54	1651.90
578.90	1655.50
579.25	1659.52
579.60	1662.95
579.95	1665.93
580.30	1669.00
580.66	1673.71
581.01	1677.55
581.36	1681.62
581.71	1685.43
582.06	1690.02
582.42	1694.10
582.77	1697.62
583.12	1702.00
583.47	1704.67
583.82	1709.26
584.17	1712.86
584.53	1717.38
584.88	1720.86
585.23	1723.12
585.58	1726.50
585.93	1728.62
586.28	1731.90
586.63	1735.19
586.98	1738.90
587.34	1742.07
587.69	1744.45
588.04	1746.95
588.39	1748.76
588.74	1750.17
589.09	1752.90
589.44	1753.02
589.79	1754.14
590.14	1756.14
590.49	1757.55
590.84	1758.83
591.19	1759.81
591.54	1761.81
591.89	1762.64
592.25	1765.33
592.60	1766.19
592.95	1767.64
593.30	1770.36
593.65	1770.05
594.00	1769.45
594.35	1775.83
594.70	1776.60
595.05	1778.12
595.40	1777.67
595.75	1777.76
596.10	1779.48
596.45	1780.71
596.80	1781.88
597.15	1782.40
597.50	1782.12
597.85	1783.12
598.19	1783.76
598.54	1783.79
598.89	1784.07
599.24	1783.95
599.59	1782.52
599.94	1783.60
600.29	1783.64
600.64	1782.88
600.99	1783.81
601.34	1785.14
601.69	1778.10
602.04	1776.19
602.39	1775.62
602.74	1775.43
603.08	1775.55
603.43	1775.05
603.78	1773.05
604.13	1772.26
604.48	1771.83
604.83	1772.14
605.18	1771.60
605.53	1770.79
605.87	1769.98
606.22	1768.48
606.57	1768.24
606.92	1766.76
607.27	1765.43
607.62	1765.02
607.96	1764.86
608.31	1763.86
608.66	1762.31
609.01	1761.29
609.36	1762.24
609.70	1760.40
610.05	1758.33
610.40	1756.60
610.75	1754.48
611.10	1754.00
611.44	1751.98
611.79	1750.19
612.14	1747.31
612.49	1743.74
612.83	1741.74
613.18	1739.07
613.53	1736.83
613.88	1733.81
614.22	1730.52
614.57	1726.12
614.92	1721.90
615.27	1717.12
615.61	1713.07
615.96	1709.57
616.31	1706.93
616.65	1704.60
617.00	1701.45
617.35	1698.62
617.70	1695.52
618.04	1692.24
618.39	1687.55
618.74	1683.90
619.08	1679.29
619.43	1675.81
619.78	1673.26
620.12	1669.69
620.47	1666.38
620.82	1661.74
621.16	1656.71
621.51	1654.60
621.85	1651.48
622.20	1647.48
622.55	1643.29
622.89	1640.19
623.24	1637.07
623.59	1632.29
623.93	1626.93
624.28	1623.33
624.62	1621.17
624.97	1617.83
625.32	1613.48
625.66	1609.74
626.01	1606.02
626.35	1602.43
626.70	1598.52
627.04	1594.29
627.39	1589.90
627.73	1587.31
628.08	1584.83
628.43	1581.79
628.77	1577.60
629.12	1574.17
629.46	1571.07
629.81	1567.57
630.15	1562.50
630.50	1557.50
630.84	1553.24
631.19	1548.07
631.53	1542.95
631.88	1535.83
632.22	1529.67
632.57	1525.48
632.91	1520.36
633.26	1516.00
633.60	1510.52
633.95	1505.14
634.29	1500.07
634.64	1495.98
634.98	1489.71
635.32	1485.67
635.67	1481.67
636.01	1476.52
636.36	1471.31
636.70	1466.24
637.05	1461.64
637.39	1457.52
637.73	1452.67
638.08	1449.02
638.42	1445.36
638.77	1441.48
639.11	1437.76
639.45	1433.71
639.80	1428.14
640.14	1423.38
640.49	1417.52
640.83	1413.02
641.17	1408.38
641.52	1403.07
641.86	1397.05
642.20	1392.33
642.55	1385.69
642.89	1379.24
643.23	1373.45
643.58	1369.05
643.92	1362.40
644.26	1356.88
644.61	1352.14
644.95	1346.74
645.29	1340.05
645.64	1334.10
645.98	1328.24
646.32	1322.62
646.66	1316.12
647.01	1309.36
647.35	1303.79
647.69	1298.55
648.04	1293.07
648.38	1287.57
648.72	1282.02
649.06	1276.14
649.41	1270.17
649.75	1263.79
650.09	1257.38
650.43	1250.86
650.78	1243.74
651.12	1238.52
651.46	1232.00
651.80	1225.26
652.14	1218.79
652.49	1214.02
652.83	1207.57
653.17	1200.12
653.51	1193.14
653.85	1187.86
654.20	1182.19
654.54	1175.93
654.88	1169.05
655.22	1162.57
655.56	1155.48
655.90	1148.24
656.25	1141.50
656.59	1134.76
656.93	1128.83
657.27	1123.71
657.61	1117.02
657.95	1111.26
658.29	1104.69
658.64	1099.17
658.98	1091.62
659.32	1085.00
659.66	1077.57
660.00	1070.50
660.34	1064.48
660.68	1058.10
661.02	1050.57
661.36	1043.67
661.70	1037.31
662.05	1031.05
662.39	1025.10
662.73	1019.88
663.07	1015.62
663.41	1009.57
663.75	1003.12
664.09	996.52
664.43	989.62
664.77	983.88
665.11	977.17
665.45	971.43
665.79	964.95
666.13	959.52
666.47	954.55
666.81	948.57
667.15	942.79
667.49	937.38
667.83	932.76
668.17	927.45
668.51	923.07
668.85	917.38
669.19	912.64
669.53	906.31
669.87	899.88
670.21	893.10
670.55	887.26
670.89	882.90
671.23	877.86
671.57	873.02
671.91	868.02
672.25	862.60
672.58	857.60
672.92	851.95
673.26	846.71
673.60	840.29
673.94	835.29
674.28	830.50
674.62	825.48
674.96	819.38
675.30	814.02
675.64	808.38
675.97	803.45
676.31	797.40
676.65	792.19
676.99	788.05
677.33	782.83
677.67	778.40
678.01	772.21
678.34	767.60
678.68	762.64
679.02	757.29
679.36	752.55
679.70	746.79
680.04	741.79
680.37	736.83
680.71	732.64
681.05	727.95
681.39	723.36
681.73	718.38
682.06	713.62
682.40	709.33
682.74	705.19
683.08	700.88
683.42	696.40
683.75	692.02
684.09	686.60
684.43	682.14
684.77	677.60
685.10	673.10
685.44	668.24
685.78	663.26
686.12	658.43
686.45	653.55
686.79	649.31
687.13	645.26
687.46	640.57
687.80	636.45
688.14	632.10
688.48	627.90
688.81	623.29
689.15	619.67
689.49	615.31
689.82	610.48
690.16	605.29
690.50	600.95
690.83	596.79
691.17	592.24
691.51	587.83
691.84	583.69
692.18	579.52
692.52	575.31
692.85	571.60
693.19	568.55
693.52	565.55
693.86	561.43
694.20	557.14
694.53	553.36
694.87	548.81
695.21	544.33
695.54	539.98
695.88	535.86
696.21	531.60
696.55	527.69
696.88	524.24
697.22	520.57
697.56	517.26
697.89	513.33
698.23	510.50
698.56	506.93
698.90	503.33
699.23	499.76
699.57	496.90
699.90	493.17
700.24	489.43
700.58	485.48
700.91	482.57
701.25	481.05
701.58	478.67
701.92	476.05
702.25	473.21
702.59	470.26
702.92	467.60
703.26	464.88
703.59	461.95
703.93	460.67
704.26	458.10
704.60	455.24
704.93	452.45
705.26	449.38
705.60	447.07
705.93	443.98
706.27	442.31
706.60	439.21
706.94	437.55
707.27	434.50
707.61	432.07
707.94	429.17
708.27	425.21
708.61	422.02
708.94	419.62
709.28	417.48
709.61	414.90
709.94	412.57
710.28	410.05
710.61	407.79
710.95	403.40
711.28	402.55
711.61	400.21
711.95	398.29
712.28	395.55
712.61	393.02
712.95	392.12
713.28	390.17
713.61	388.21
713.95	385.33
714.28	383.64
714.61	381.52
714.95	379.40
715.28	376.98
715.61	375.00
715.95	372.69
716.28	370.19
716.61	368.45
716.95	366.17
717.28	363.86
717.61	361.64
717.94	359.79
718.28	356.31
718.61	354.48
718.94	352.26
719.27	350.40
719.61	348.62
719.94	346.02
720.27	343.52
720.60	341.40
720.94	339.69
721.27	337.71
721.60	336.21
721.93	334.52
722.27	333.76
722.60	332.36
722.93	330.83
723.26	329.40
723.59	327.48
723.93	326.64
724.26	325.71
724.59	324.57
724.92	323.64
725.25	322.86
725.59	321.50
725.92	320.93
726.25	320.17
726.58	319.31
726.91	318.38
727.24	317.19
727.57	315.93
727.91	314.76
728.24	314.07
728.57	312.98
728.90	312.14
729.23	310.38
729.56	310.24
729.89	308.95
730.22	307.98
730.55	306.90
730.89	305.76
731.22	304.19
731.55	302.93
731.88	301.69
732.21	300.10
732.54	298.98
732.87	297.45
733.20	296.29
733.53	294.93
733.86	294.02
734.19	292.93
734.52	292.48
734.85	292.74
735.18	291.48
735.51	291.07
735.84	290.10
736.17	289.74
736.50	287.69
736.83	289.24
737.16	288.52
737.49	287.90
737.82	286.98
738.15	286.55
738.48	285.79
738.81	284.95
739.14	284.24
739.47	283.50
739.80	282.86
740.13	282.40
740.46	281.50
740.79	280.29
741.12	279.43
741.45	278.38
741.78	276.38
742.11	276.45
742.44	275.26
742.77	274.95
743.10	273.79
743.43	273.12
743.75	270.48
744.08	272.10
744.41	271.10
744.74	270.26
745.07	269.26
745.40	269.05
745.73	269.33
746.06	268.52
746.39	267.88
746.71	266.83
747.04	265.86
747.37	265.33
747.70	265.07
748.03	264.60
748.36	264.40
748.68	263.90
749.01	262.43
749.34	261.69
749.67	261.17
750.00	261.21
750.33	262.10
750.65	261.55
750.98	258.40
751.31	258.12
751.64	257.74
751.97	258.69
752.29	257.90
752.62	256.38
752.95	255.74
753.28	255.24
753.60	254.90
753.93	254.86
754.26	254.24
754.59	253.43
754.91	252.83
755.24	251.93
755.57	251.64
755.90	251.36
756.22	250.74
756.55	249.64
756.88	248.60
757.20	246.67
757.53	245.62
757.86	245.55
758.19	245.24
758.51	244.86
758.84	243.02
759.17	242.36
759.49	242.12
759.82	242.93
760.15	242.67
760.47	242.36
760.80	241.62
761.13	241.86
761.45	241.24
761.78	240.90
762.11	240.57
762.43	239.79
762.76	239.00
763.08	238.88
763.41	238.71
763.74	238.60
764.06	238.19
764.39	237.93
764.71	237.26
765.04	236.71
765.37	236.43
765.69	236.05
766.02	235.76
766.34	235.24
766.67	234.29
767.00	234.29
767.32	235.05
767.65	235.88
767.97	235.24
768.30	235.14
768.62	234.74
768.95	234.67
769.27	234.57
769.60	234.98
769.92	234.69
770.25	234.24
770.57	233.45
770.90	233.38
771.22	232.93
771.55	233.07
771.87	233.10
772.20	232.67
772.52	234.19
772.85	236.43
773.17	236.38
773.50	236.14
773.82	235.57
774.15	234.43
774.47	233.07
774.80	232.74
775.12	232.55
775.45	232.52
775.77	232.38
776.09	231.93
776.42	231.62
776.74	231.88
777.07	231.52
777.39	231.36
777.72	231.02
778.04	231.40
778.36	230.57
778.69	230.40
779.01	230.21
779.33	228.57
779.66	226.24
779.98	225.86
780.31	225.52
780.63	225.83
780.95	226.12
781.28	225.98
781.60	225.71
781.92	225.57
782.25	225.38
782.57	224.98
782.89	225.00
783.22	224.83
783.54	224.12
783.86	224.31
784.19	224.33
784.51	224.98
784.83	224.60
785.16	224.93
