SpectraSuite Data File
++++++++++++++++++++++++++++++++++++
Date: Tue Apr 02 18:40:36 EDT 2013
User: group
Dark Spectrum Present: No
Reference Spectrum Present: No
Number of Sampled Component Spectra: 1
Spectrometers: USB2E7196
Integration Time (usec): 580000 (USB2E7196)
Spectra Averaged: 2 (USB2E7196)
Boxcar Smoothing: 10 (USB2E7196)
Correct for Electrical Dark: No (USB2E7196)
Strobe/Lamp Enabled: No (USB2E7196)
Correct for Detector Non-linearity: No (USB2E7196)
Correct for Stray Light: No (USB2E7196)
Number of Pixels in Processed Spectrum: 2048
>>>>>Begin Processed Spectral Data<<<<<
339.09	0.00
339.48	194.50
339.86	197.50
340.24	193.50
340.63	198.50
341.01	234.50
341.39	201.50
341.78	207.00
342.16	212.00
342.54	202.50
342.93	198.12
343.31	207.90
343.69	208.38
344.07	208.83
344.46	209.74
344.84	210.33
345.22	208.83
345.60	209.14
345.99	209.36
346.37	209.10
346.75	209.26
347.13	209.31
347.52	209.31
347.90	209.79
348.28	209.64
348.66	209.95
349.05	209.31
349.43	209.55
349.81	209.60
350.19	209.57
350.57	209.52
350.96	209.76
351.34	210.05
351.72	210.10
352.10	210.07
352.48	209.76
352.87	209.64
353.25	209.79
353.63	210.00
354.01	209.95
354.39	210.17
354.77	210.31
355.15	210.69
355.54	210.40
355.92	209.98
356.30	210.21
356.68	211.52
357.06	211.69
357.44	211.38
357.82	211.26
358.20	212.36
358.58	212.50
358.97	212.43
359.35	212.69
359.73	213.21
360.11	213.33
360.49	213.43
360.87	213.50
361.25	213.81
361.63	214.36
362.01	214.43
362.39	214.48
362.77	214.81
363.15	215.07
363.53	215.50
363.91	215.55
364.29	215.57
364.67	213.86
365.05	213.86
365.43	214.24
365.81	214.76
366.19	214.90
366.57	215.67
366.95	215.79
367.33	215.45
367.71	215.86
368.09	216.33
368.47	216.64
368.85	216.62
369.23	217.29
369.61	216.69
369.99	217.57
370.37	217.79
370.75	218.88
371.13	218.52
371.51	218.10
371.89	218.55
372.27	218.86
372.65	219.02
373.03	219.12
373.41	218.98
373.78	218.79
374.16	217.76
374.54	217.21
374.92	216.93
375.30	217.10
375.68	216.12
376.06	216.24
376.44	216.02
376.82	216.33
377.19	216.10
377.57	216.19
377.95	215.36
378.33	215.29
378.71	213.93
379.09	214.29
379.47	214.79
379.84	214.52
380.22	214.26
380.60	214.12
380.98	213.90
381.36	214.00
381.73	213.81
382.11	214.17
382.49	214.21
382.87	214.10
383.25	214.12
383.62	216.67
384.00	216.19
384.38	216.43
384.76	216.74
385.13	217.40
385.51	217.24
385.89	216.98
386.27	217.00
386.64	217.36
387.02	217.10
387.40	216.88
387.78	216.98
388.15	217.19
388.53	217.00
388.91	217.38
389.29	217.12
389.66	217.48
390.04	217.33
390.42	217.55
390.79	217.76
391.17	217.67
391.55	215.64
391.92	215.76
392.30	215.90
392.68	215.36
393.05	215.21
393.43	215.24
393.81	215.33
394.18	215.00
394.56	214.95
394.94	215.29
395.31	215.00
395.69	215.76
396.06	215.74
396.44	215.86
396.82	215.50
397.19	216.90
397.57	216.64
397.95	217.17
398.32	216.81
398.70	217.10
399.07	217.67
399.45	217.24
399.82	217.21
400.20	216.95
400.58	216.93
400.95	216.21
401.33	216.71
401.70	218.29
402.08	218.38
402.45	218.45
402.83	218.95
403.20	219.17
403.58	218.62
403.95	219.19
404.33	219.86
404.71	220.17
405.08	220.83
405.46	221.17
405.83	221.55
406.21	221.90
406.58	222.19
406.96	222.36
407.33	223.45
407.70	224.12
408.08	226.55
408.45	227.52
408.83	228.76
409.20	229.36
409.58	228.90
409.95	230.36
410.33	231.45
410.70	231.69
411.08	232.98
411.45	234.40
411.82	235.07
412.20	236.55
412.57	239.10
412.95	238.90
413.32	240.81
413.69	241.79
414.07	243.52
414.44	245.45
414.82	247.55
415.19	249.83
415.56	252.31
415.94	253.33
416.31	256.40
416.68	259.29
417.06	262.40
417.43	265.90
417.81	269.38
418.18	273.12
418.55	277.21
418.93	281.40
419.30	285.64
419.67	290.55
420.04	294.88
420.42	299.57
420.79	307.60
421.16	313.26
421.54	321.10
421.91	327.52
422.28	334.02
422.66	341.00
423.03	349.60
423.40	356.45
423.77	364.43
424.15	371.83
424.52	379.95
424.89	389.14
425.26	397.52
425.64	405.81
426.01	414.33
426.38	423.67
426.75	433.57
427.13	443.40
427.50	453.48
427.87	464.31
428.24	474.17
428.61	482.76
428.99	494.86
429.36	505.10
429.73	517.38
430.10	529.48
430.47	541.90
430.85	552.45
431.22	566.10
431.59	581.48
431.96	594.76
432.33	609.12
432.70	623.86
433.08	640.48
433.45	656.26
433.82	672.60
434.19	690.71
434.56	708.57
434.93	725.05
435.30	741.98
435.68	760.64
436.05	779.31
436.42	797.36
436.79	813.52
437.16	832.36
437.53	850.55
437.90	869.55
438.27	888.69
438.64	907.62
439.01	926.05
439.38	940.31
439.75	956.17
440.13	973.95
440.50	990.29
440.87	1004.43
441.24	1018.95
441.61	1034.19
441.98	1045.57
442.35	1057.69
442.72	1071.57
443.09	1085.76
443.46	1093.64
443.83	1098.83
444.20	1103.79
444.57	1110.76
444.94	1114.10
445.31	1118.40
445.68	1124.21
446.05	1125.36
446.42	1124.40
446.79	1122.79
447.16	1121.14
447.53	1120.21
447.90	1114.00
448.27	1107.74
448.64	1098.24
449.01	1091.29
449.37	1079.67
449.74	1067.69
450.11	1055.83
450.48	1039.38
450.85	1022.71
451.22	1009.21
451.59	997.17
451.96	984.64
452.33	968.00
452.70	952.93
453.07	934.43
453.43	913.38
453.80	895.83
454.17	879.10
454.54	862.48
454.91	845.21
455.28	828.12
455.65	811.74
456.02	798.79
456.38	785.29
456.75	768.76
457.12	754.64
457.49	741.24
457.86	726.29
458.23	716.74
458.59	704.02
458.96	691.38
459.33	679.62
459.70	668.50
460.07	659.95
460.43	649.74
460.80	640.83
461.17	633.19
461.54	624.07
461.91	616.00
462.27	607.26
462.64	599.57
463.01	591.62
463.38	585.19
463.74	573.71
464.11	566.93
464.48	560.88
464.85	554.31
465.21	549.88
465.58	545.00
465.95	537.71
466.32	532.36
466.68	526.74
467.05	521.60
467.42	516.52
467.78	510.48
468.15	505.36
468.52	501.07
468.88	495.36
469.25	491.00
469.62	487.60
469.98	483.24
470.35	479.62
470.72	475.98
471.08	471.07
471.45	468.43
471.82	465.52
472.18	461.95
472.55	459.31
472.92	455.38
473.28	452.26
473.65	449.40
474.02	446.90
474.38	445.31
474.75	443.45
475.11	440.88
475.48	438.93
475.85	437.12
476.21	435.21
476.58	433.81
476.94	432.55
477.31	430.81
477.67	430.00
478.04	428.81
478.41	428.07
478.77	429.21
479.14	427.81
479.50	427.38
479.87	427.07
480.23	426.52
480.60	425.60
480.96	425.43
481.33	426.26
481.69	426.21
482.06	426.38
482.42	426.83
482.79	427.55
483.15	428.00
483.52	428.76
483.88	429.43
484.25	430.24
484.61	430.90
484.98	431.69
485.34	433.36
485.71	435.05
486.07	436.40
486.44	436.24
486.80	438.07
487.17	439.48
487.53	442.14
487.90	444.81
488.26	448.38
488.62	451.02
488.99	452.67
489.35	455.36
489.72	457.98
490.08	460.52
490.44	463.36
490.81	466.81
491.17	469.93
491.54	473.90
491.90	477.90
492.26	481.36
492.63	485.21
492.99	488.60
493.36	492.40
493.72	497.00
494.08	501.45
494.45	506.33
494.81	511.79
495.17	516.12
495.54	521.71
495.90	526.81
496.26	532.24
496.63	538.29
496.99	543.36
497.35	549.02
497.72	555.29
498.08	561.21
498.44	567.76
498.80	574.38
499.17	580.98
499.53	587.29
499.89	594.71
500.26	602.24
500.62	609.62
500.98	618.14
501.34	624.95
501.71	632.64
502.07	640.05
502.43	647.38
502.79	654.62
503.16	661.90
503.52	669.29
503.88	676.71
504.24	684.29
504.60	693.26
504.97	701.93
505.33	709.83
505.69	718.86
506.05	727.43
506.41	735.88
506.78	744.21
507.14	751.95
507.50	760.26
507.86	768.05
508.22	776.26
508.59	783.07
508.95	792.10
509.31	801.76
509.67	810.38
510.03	818.79
510.39	827.48
510.75	835.90
511.12	844.26
511.48	852.36
511.84	860.74
512.20	868.95
512.56	877.05
512.92	885.48
513.28	893.95
513.64	901.24
514.00	908.98
514.37	916.45
514.73	924.52
515.09	932.90
515.45	940.43
515.81	948.43
516.17	956.36
516.53	963.33
516.89	969.43
517.25	976.71
517.61	983.55
517.97	990.38
518.33	996.69
518.69	1003.90
519.05	1011.50
519.41	1018.64
519.77	1025.90
520.13	1032.02
520.49	1038.31
520.85	1044.05
521.21	1052.17
521.57	1059.07
521.93	1065.10
522.29	1072.07
522.65	1077.71
523.01	1084.29
523.37	1089.76
523.73	1096.07
524.09	1102.29
524.45	1108.29
524.81	1113.29
525.17	1119.62
525.53	1124.98
525.89	1131.17
526.25	1136.69
526.61	1141.52
526.97	1145.76
527.33	1150.83
527.68	1158.00
528.04	1163.19
528.40	1168.12
528.76	1172.02
529.12	1176.31
529.48	1182.40
529.84	1186.76
530.20	1191.69
530.56	1197.36
530.91	1202.76
531.27	1207.50
531.63	1211.90
531.99	1215.98
532.35	1220.88
532.71	1224.29
533.07	1230.57
533.42	1237.74
533.78	1242.26
534.14	1247.55
534.50	1252.48
534.86	1258.26
535.21	1260.29
535.57	1265.10
535.93	1269.24
536.29	1274.79
536.65	1280.43
537.00	1284.26
537.36	1288.83
537.72	1293.26
538.08	1297.29
538.44	1301.05
538.79	1305.21
539.15	1309.17
539.51	1314.00
539.87	1318.88
540.22	1323.60
540.58	1327.79
540.94	1329.62
541.29	1333.55
541.65	1336.62
542.01	1341.64
542.37	1343.88
542.72	1348.19
543.08	1351.19
543.44	1355.81
543.79	1357.71
544.15	1361.38
544.51	1365.17
544.87	1368.60
545.22	1372.69
545.58	1375.52
545.94	1379.26
546.29	1383.00
546.65	1386.55
547.01	1389.19
547.36	1392.45
547.72	1395.74
548.07	1398.36
548.43	1401.60
548.79	1404.64
549.14	1408.21
549.50	1411.48
549.86	1414.10
550.21	1417.14
550.57	1421.69
550.92	1424.12
551.28	1428.64
551.64	1430.86
551.99	1433.76
552.35	1438.07
552.70	1440.55
553.06	1444.38
553.41	1447.76
553.77	1452.93
554.13	1457.33
554.48	1463.29
554.84	1467.76
555.19	1472.64
555.55	1477.81
555.90	1481.45
556.26	1486.19
556.61	1490.26
556.97	1493.45
557.32	1497.64
557.68	1502.45
558.03	1506.93
558.39	1511.21
558.74	1515.31
559.10	1520.38
559.45	1524.86
559.81	1528.57
560.16	1533.57
560.52	1538.60
560.87	1544.40
561.23	1547.93
561.58	1554.33
561.94	1557.98
562.29	1562.07
562.64	1567.07
563.00	1571.07
563.35	1576.74
563.71	1581.98
564.06	1588.14
564.42	1593.52
564.77	1600.64
565.12	1606.88
565.48	1613.62
565.83	1620.05
566.19	1625.31
566.54	1631.07
566.89	1636.95
567.25	1643.55
567.60	1650.67
567.96	1657.64
568.31	1662.90
568.66	1669.31
569.02	1671.83
569.37	1676.40
569.72	1681.86
570.08	1686.43
570.43	1690.62
570.78	1695.21
571.14	1700.36
571.49	1704.36
571.84	1709.62
572.20	1713.02
572.55	1717.67
572.90	1719.36
573.26	1723.05
573.61	1726.36
573.96	1729.76
574.31	1733.50
574.67	1736.95
575.02	1739.67
575.37	1740.64
575.72	1743.12
576.08	1745.02
576.43	1748.76
576.78	1751.69
577.13	1753.57
577.49	1756.33
577.84	1759.64
578.19	1762.88
578.54	1765.14
578.90	1768.40
579.25	1770.17
579.60	1772.90
579.95	1773.83
580.30	1777.12
580.66	1779.64
581.01	1782.74
581.36	1784.05
581.71	1786.69
582.06	1788.62
582.42	1789.88
582.77	1792.62
583.12	1794.88
583.47	1796.90
583.82	1799.14
584.17	1800.60
584.53	1803.43
584.88	1804.86
585.23	1806.81
585.58	1806.81
585.93	1807.52
586.28	1808.00
586.63	1810.64
586.98	1811.79
587.34	1813.29
587.69	1813.14
588.04	1814.21
588.39	1814.76
588.74	1815.50
589.09	1814.88
589.44	1814.33
589.79	1814.62
590.14	1814.55
590.49	1814.50
590.84	1813.98
591.19	1813.71
591.54	1813.45
591.89	1813.05
592.25	1814.50
592.60	1812.60
592.95	1812.57
593.30	1812.95
593.65	1812.07
594.00	1809.90
594.35	1814.45
594.70	1813.31
595.05	1814.02
595.40	1812.62
595.75	1811.95
596.10	1811.69
596.45	1811.74
596.80	1812.24
597.15	1811.81
597.50	1810.21
597.85	1809.60
598.19	1809.43
598.54	1808.50
598.89	1808.55
599.24	1807.83
599.59	1804.10
599.94	1804.10
600.29	1802.64
600.64	1799.83
600.99	1798.52
601.34	1798.36
601.69	1791.57
602.04	1789.19
602.39	1786.38
602.74	1785.55
603.08	1783.21
603.43	1782.00
603.78	1779.40
604.13	1776.57
604.48	1774.05
604.83	1772.67
605.18	1770.69
605.53	1768.57
605.87	1765.24
606.22	1762.74
606.57	1758.67
606.92	1757.10
607.27	1754.83
607.62	1752.64
607.96	1751.43
608.31	1749.40
608.66	1746.05
609.01	1742.31
609.36	1739.81
609.70	1737.10
610.05	1732.31
610.40	1729.26
610.75	1725.36
611.10	1722.45
611.44	1718.12
611.79	1713.48
612.14	1710.00
612.49	1704.55
612.83	1699.98
613.18	1696.17
613.53	1690.95
613.88	1686.64
614.22	1681.67
614.57	1675.07
614.92	1670.12
615.27	1664.74
615.61	1659.29
615.96	1653.52
616.31	1649.31
616.65	1645.10
617.00	1639.24
617.35	1634.60
617.70	1629.26
618.04	1623.33
618.39	1617.14
618.74	1612.60
619.08	1606.76
619.43	1601.67
619.78	1597.40
620.12	1592.88
620.47	1588.33
620.82	1582.45
621.16	1577.05
621.51	1572.31
621.85	1567.26
622.20	1561.95
622.55	1555.50
622.89	1549.74
623.24	1545.00
623.59	1538.29
623.93	1532.90
624.28	1528.52
624.62	1525.45
624.97	1522.14
625.32	1517.14
625.66	1513.00
626.01	1507.57
626.35	1505.36
626.70	1499.36
627.04	1495.12
627.39	1488.86
627.73	1483.50
628.08	1480.10
628.43	1475.90
628.77	1470.90
629.12	1467.21
629.46	1462.55
629.81	1458.31
630.15	1453.43
630.50	1448.05
630.84	1443.14
631.19	1437.05
631.53	1431.07
631.88	1422.24
632.22	1414.38
632.57	1408.79
632.91	1402.26
633.26	1396.60
633.60	1389.55
633.95	1383.31
634.29	1375.81
634.64	1369.86
634.98	1363.33
635.32	1357.38
635.67	1352.29
636.01	1346.88
636.36	1340.38
636.70	1335.71
637.05	1329.64
637.39	1324.26
637.73	1318.62
638.08	1314.07
638.42	1309.71
638.77	1304.55
639.11	1300.29
639.45	1294.95
639.80	1289.74
640.14	1284.29
640.49	1278.05
640.83	1271.36
641.17	1265.83
641.52	1260.57
641.86	1254.90
642.20	1250.57
642.55	1243.60
642.89	1236.45
643.23	1229.38
643.58	1223.48
643.92	1214.88
644.26	1208.69
644.61	1202.05
644.95	1195.48
645.29	1188.12
645.64	1181.67
645.98	1174.60
646.32	1168.19
646.66	1160.93
647.01	1153.40
647.35	1147.12
647.69	1140.69
648.04	1135.19
648.38	1128.98
648.72	1121.71
649.06	1115.10
649.41	1106.98
649.75	1100.00
650.09	1094.40
650.43	1087.69
650.78	1080.79
651.12	1074.83
651.46	1068.26
651.80	1061.52
652.14	1054.76
652.49	1049.55
652.83	1042.81
653.17	1036.45
653.51	1029.81
653.85	1023.74
654.20	1016.93
654.54	1009.29
654.88	1002.76
655.22	996.48
655.56	990.07
655.90	984.14
656.25	977.48
656.59	971.43
656.93	965.69
657.27	959.88
657.61	953.05
657.95	947.45
658.29	941.02
658.64	935.33
658.98	929.14
659.32	923.21
659.66	916.07
660.00	909.74
660.34	903.64
660.68	897.60
661.02	891.88
661.36	886.57
661.70	881.62
662.05	875.67
662.39	869.71
662.73	864.19
663.07	859.60
663.41	854.31
663.75	848.74
664.09	843.07
664.43	836.05
664.77	830.86
665.11	824.48
665.45	819.14
665.79	813.71
666.13	808.43
666.47	802.50
666.81	797.12
667.15	791.17
667.49	786.07
667.83	781.71
668.17	776.62
668.51	771.86
668.85	766.10
669.19	762.31
669.53	755.81
669.87	749.76
670.21	743.83
670.55	738.12
670.89	733.88
671.23	729.02
671.57	724.52
671.91	719.74
672.25	715.52
672.58	711.55
672.92	706.31
673.26	701.31
673.60	696.95
673.94	692.64
674.28	688.00
674.62	684.10
674.96	678.64
675.30	673.88
675.64	668.90
675.97	664.98
676.31	660.24
676.65	656.36
676.99	653.48
677.33	649.12
677.67	645.31
678.01	640.21
678.34	635.83
678.68	631.90
679.02	627.50
679.36	622.71
679.70	617.83
680.04	613.52
680.37	609.24
680.71	604.90
681.05	600.38
681.39	596.17
681.73	591.64
682.06	587.26
682.40	583.33
682.74	579.31
683.08	575.98
683.42	571.43
683.75	567.74
684.09	562.98
684.43	559.14
684.77	555.17
685.10	551.19
685.44	547.45
685.78	542.93
686.12	539.29
686.45	535.57
686.79	531.24
687.13	527.95
687.46	524.24
687.80	521.62
688.14	518.19
688.48	515.21
688.81	511.02
689.15	508.19
689.49	503.88
689.82	501.12
690.16	496.69
690.50	493.19
690.83	489.52
691.17	485.43
691.51	481.90
691.84	477.98
692.18	475.19
692.52	471.79
692.85	469.19
693.19	466.81
693.52	463.79
693.86	460.98
694.20	457.57
694.53	454.86
694.87	451.02
695.21	447.76
695.54	444.48
695.88	441.07
696.21	437.10
696.55	434.67
696.88	431.02
697.22	428.19
697.56	425.17
697.89	421.98
698.23	419.74
698.56	416.74
698.90	414.88
699.23	411.55
699.57	409.24
699.90	406.12
700.24	402.76
700.58	400.24
700.91	398.26
701.25	397.24
701.58	395.38
701.92	393.64
702.25	391.48
702.59	389.02
702.92	387.31
703.26	385.62
703.59	383.36
703.93	383.64
704.26	382.02
704.60	380.29
704.93	378.38
705.26	375.98
705.60	374.38
705.93	371.67
706.27	370.60
706.60	368.86
706.94	367.98
707.27	365.76
707.61	363.90
707.94	361.69
708.27	358.21
708.61	355.52
708.94	353.36
709.28	351.64
709.61	349.74
709.94	348.26
710.28	346.21
710.61	344.45
710.95	340.52
711.28	339.88
711.61	337.86
711.95	336.81
712.28	335.33
712.61	333.71
712.95	333.48
713.28	332.50
713.61	330.60
713.95	328.31
714.28	327.52
714.61	326.17
714.95	324.76
715.28	323.31
715.61	322.05
715.95	321.02
716.28	319.24
716.61	318.26
716.95	316.43
717.28	315.33
717.61	314.31
717.94	313.19
718.28	310.50
718.61	309.55
718.94	307.76
719.27	306.40
719.61	304.95
719.94	303.07
720.27	301.10
720.60	299.71
720.94	298.60
721.27	297.26
721.60	296.36
721.93	295.29
722.27	294.93
722.60	294.10
722.93	292.50
723.26	291.83
723.59	290.43
723.93	289.52
724.26	288.81
724.59	287.95
724.92	287.10
725.25	286.79
725.59	285.64
725.92	285.07
726.25	284.19
726.58	283.43
726.91	282.62
727.24	281.95
727.57	281.31
727.91	280.29
728.24	279.79
728.57	278.60
728.90	277.95
729.23	276.67
729.56	276.93
729.89	276.43
730.22	275.45
730.55	274.86
730.89	274.36
731.22	273.36
731.55	272.43
731.88	271.64
732.21	270.40
732.54	269.83
732.87	269.31
733.20	268.93
733.53	268.36
733.86	267.81
734.19	266.71
734.52	266.36
734.85	267.12
735.18	266.19
735.51	266.38
735.84	266.00
736.17	265.79
736.50	264.00
736.83	265.79
737.16	265.24
737.49	264.74
737.82	263.83
738.15	263.55
738.48	262.90
738.81	262.45
739.14	261.83
739.47	261.14
739.80	260.48
740.13	260.10
740.46	259.14
740.79	258.45
741.12	258.26
741.45	257.43
741.78	255.86
742.11	255.86
742.44	255.10
742.77	254.93
743.10	254.36
743.43	253.81
743.75	251.10
744.08	253.24
744.41	252.52
744.74	252.21
745.07	251.36
745.40	251.19
745.73	251.79
746.06	251.45
746.39	251.45
746.71	250.86
747.04	250.05
747.37	249.88
747.70	249.69
748.03	249.14
748.36	249.10
748.68	248.69
749.01	247.55
749.34	246.90
749.67	246.45
750.00	246.38
750.33	247.67
750.65	247.40
750.98	244.40
751.31	244.26
751.64	244.21
751.97	244.93
752.29	244.69
752.62	243.31
752.95	242.98
753.28	242.33
753.60	241.95
753.93	242.14
754.26	241.93
754.59	241.02
754.91	240.36
755.24	239.93
755.57	239.60
755.90	239.43
756.22	238.83
756.55	238.12
756.88	237.40
757.20	235.67
757.53	234.83
757.86	234.55
758.19	234.29
758.51	233.88
758.84	232.71
759.17	232.26
759.49	232.21
759.82	233.05
760.15	232.83
760.47	232.55
760.80	231.86
761.13	232.10
761.45	231.98
761.78	231.88
762.11	231.52
762.43	231.24
762.76	231.07
763.08	231.10
763.41	231.10
763.74	231.07
764.06	230.71
764.39	230.48
764.71	230.24
765.04	229.93
765.37	229.71
765.69	229.26
766.02	229.05
766.34	228.69
766.67	227.64
767.00	228.02
767.32	229.00
767.65	230.31
767.97	229.67
768.30	229.50
768.62	229.38
768.95	229.00
769.27	228.88
769.60	228.83
769.92	228.52
770.25	227.90
770.57	227.19
770.90	227.17
771.22	227.10
771.55	227.38
771.87	227.26
772.20	226.95
772.52	228.74
772.85	230.88
773.17	230.43
773.50	230.07
773.82	229.36
774.15	228.33
774.47	226.86
774.80	226.43
775.12	226.19
775.45	226.00
775.77	226.07
776.09	225.93
776.42	225.79
776.74	226.38
777.07	226.31
777.39	226.38
777.72	225.95
778.04	226.26
778.36	225.90
778.69	225.95
779.01	226.05
779.33	224.36
779.66	222.17
779.98	222.33
780.31	222.19
780.63	222.88
780.95	223.07
781.28	222.93
781.60	222.81
781.92	222.86
782.25	222.69
782.57	222.67
782.89	222.43
783.22	222.29
783.54	221.74
783.86	221.79
784.19	221.55
784.51	222.21
784.83	221.55
785.16	221.45
