SpectraSuite Data File
++++++++++++++++++++++++++++++++++++
Date: Tue Apr 02 18:42:24 EDT 2013
User: group
Dark Spectrum Present: No
Reference Spectrum Present: No
Number of Sampled Component Spectra: 1
Spectrometers: USB2E7196
Integration Time (usec): 580000 (USB2E7196)
Spectra Averaged: 2 (USB2E7196)
Boxcar Smoothing: 10 (USB2E7196)
Correct for Electrical Dark: No (USB2E7196)
Strobe/Lamp Enabled: No (USB2E7196)
Correct for Detector Non-linearity: No (USB2E7196)
Correct for Stray Light: No (USB2E7196)
Number of Pixels in Processed Spectrum: 2048
>>>>>Begin Processed Spectral Data<<<<<
339.09	0.00
339.48	192.50
339.86	199.00
340.24	195.50
340.63	202.00
341.01	231.00
341.39	205.00
341.78	208.00
342.16	209.00
342.54	206.50
342.93	198.24
343.31	208.14
343.69	208.64
344.07	209.12
344.46	209.86
344.84	210.24
345.22	209.14
345.60	209.52
345.99	209.57
346.37	209.71
346.75	209.81
347.13	209.60
347.52	209.69
347.90	210.31
348.28	210.21
348.66	210.64
349.05	209.95
349.43	210.19
349.81	210.31
350.19	210.52
350.57	210.29
350.96	210.62
351.34	210.81
351.72	210.88
352.10	210.69
352.48	210.52
352.87	210.26
353.25	210.29
353.63	210.10
354.01	210.26
354.39	210.29
354.77	210.24
355.15	211.24
355.54	211.05
355.92	210.43
356.30	210.40
356.68	211.57
357.06	211.83
357.44	211.43
357.82	211.36
358.20	212.33
358.58	212.57
358.97	212.50
359.35	212.74
359.73	213.38
360.11	213.55
360.49	213.79
360.87	214.14
361.25	214.43
361.63	215.17
362.01	215.31
362.39	215.19
362.77	215.52
363.15	215.24
363.53	215.24
363.91	215.45
364.29	215.24
364.67	213.57
365.05	213.48
365.43	213.98
365.81	214.33
366.19	214.52
366.57	215.02
366.95	214.98
367.33	214.67
367.71	214.62
368.09	214.98
368.47	214.60
368.85	214.62
369.23	214.93
369.61	214.19
369.99	214.81
370.37	215.12
370.75	216.00
371.13	215.55
371.51	215.43
371.89	215.81
372.27	216.14
372.65	216.26
373.03	216.50
373.41	216.33
373.78	216.24
374.16	215.17
374.54	214.79
374.92	214.64
375.30	214.67
375.68	214.36
376.06	214.55
376.44	214.74
376.82	214.60
377.19	214.38
377.57	214.29
377.95	213.38
378.33	213.14
378.71	212.02
379.09	212.40
379.47	212.71
379.84	212.38
380.22	212.31
380.60	212.10
380.98	211.98
381.36	211.93
381.73	211.69
382.11	212.21
382.49	212.38
382.87	211.98
383.25	212.05
383.62	214.21
384.00	213.62
384.38	213.64
384.76	214.05
385.13	214.90
385.51	215.07
385.89	214.98
386.27	215.12
386.64	215.50
387.02	215.17
387.40	214.90
387.78	215.02
388.15	215.26
388.53	215.05
388.91	215.05
389.29	214.71
389.66	214.98
390.04	214.48
390.42	214.67
390.79	215.00
391.17	214.71
391.55	212.64
391.92	213.05
392.30	213.21
392.68	212.90
393.05	212.50
393.43	212.38
393.81	212.62
394.18	212.45
394.56	212.26
394.94	212.81
395.31	212.57
395.69	213.21
396.06	213.52
396.44	213.67
396.82	213.57
397.19	214.81
397.57	214.55
397.95	215.00
398.32	214.43
398.70	214.60
399.07	215.24
399.45	215.33
399.82	215.29
400.20	215.26
400.58	215.29
400.95	214.69
401.33	215.07
401.70	216.45
402.08	216.50
402.45	216.79
402.83	217.38
403.20	217.88
403.58	217.60
403.95	217.95
404.33	218.45
404.71	218.86
405.08	219.95
405.46	220.40
405.83	220.93
406.21	221.40
406.58	221.88
406.96	222.02
407.33	222.43
407.70	223.02
408.08	225.29
408.45	226.43
408.83	227.48
409.20	227.98
409.58	227.55
409.95	228.95
410.33	229.86
410.70	230.12
411.08	231.31
411.45	232.40
411.82	233.26
412.20	234.71
412.57	237.21
412.95	236.93
413.32	238.64
413.69	239.76
414.07	241.38
414.44	243.24
414.82	245.40
415.19	247.81
415.56	250.05
415.94	251.17
416.31	253.67
416.68	256.60
417.06	259.81
417.43	263.48
417.81	266.93
418.18	270.52
418.55	274.14
418.93	278.02
419.30	282.45
419.67	286.98
420.04	291.40
420.42	295.55
420.79	302.79
421.16	308.40
421.54	315.62
421.91	322.02
422.28	328.45
422.66	335.19
423.03	343.33
423.40	350.52
423.77	357.69
424.15	364.98
424.52	372.71
424.89	381.26
425.26	389.00
425.64	396.17
426.01	404.43
426.38	413.36
426.75	422.95
427.13	432.31
427.50	442.21
427.87	452.29
428.24	461.98
428.61	470.52
428.99	481.95
429.36	492.36
429.73	503.40
430.10	515.00
430.47	526.76
430.85	537.24
431.22	549.62
431.59	564.83
431.96	577.93
432.33	592.24
432.70	606.71
433.08	622.88
433.45	638.40
433.82	653.79
434.19	671.64
434.56	688.43
434.93	704.05
435.30	719.81
435.68	738.19
436.05	755.76
436.42	772.95
436.79	789.19
437.16	806.90
437.53	825.33
437.90	843.00
438.27	861.26
438.64	879.88
439.01	897.02
439.38	910.62
439.75	925.14
440.13	942.29
440.50	957.64
440.87	970.50
441.24	984.43
441.61	999.93
441.98	1010.52
442.35	1023.10
442.72	1035.98
443.09	1049.48
443.46	1056.69
443.83	1062.17
444.20	1066.57
444.57	1071.88
444.94	1074.74
445.31	1078.07
445.68	1084.33
446.05	1085.21
446.42	1083.79
446.79	1082.48
447.16	1080.67
447.53	1080.12
447.90	1073.36
448.27	1066.79
448.64	1058.38
449.01	1052.26
449.37	1040.83
449.74	1029.48
450.11	1018.10
450.48	1003.19
450.85	986.95
451.22	973.90
451.59	961.95
451.96	950.90
452.33	935.71
452.70	921.98
453.07	904.76
453.43	884.55
453.80	868.07
454.17	852.07
454.54	837.02
454.91	820.62
455.28	804.00
455.65	788.76
456.02	777.71
456.38	764.43
456.75	748.55
457.12	734.86
457.49	722.07
457.86	707.71
458.23	697.98
458.59	686.40
458.96	674.31
459.33	663.52
459.70	652.45
460.07	643.90
460.43	633.64
460.80	625.10
461.17	617.48
461.54	609.14
461.91	601.26
462.27	592.64
462.64	585.38
463.01	577.88
463.38	571.21
463.74	559.52
464.11	553.05
464.48	547.40
464.85	540.93
465.21	536.26
465.58	530.90
465.95	524.14
466.32	519.31
466.68	514.64
467.05	509.36
467.42	504.64
467.78	498.98
468.15	494.07
468.52	490.38
468.88	484.55
469.25	480.24
469.62	476.86
469.98	473.07
470.35	469.86
470.72	466.36
471.08	461.98
471.45	459.69
471.82	456.95
472.18	453.07
472.55	450.81
472.92	447.26
473.28	444.26
473.65	441.69
474.02	438.90
474.38	436.52
474.75	434.88
475.11	432.36
475.48	430.90
475.85	429.05
476.21	426.90
476.58	426.12
476.94	424.67
477.31	422.69
477.67	421.55
478.04	420.60
478.41	420.02
478.77	420.98
479.14	419.69
479.50	418.86
479.87	418.33
480.23	418.02
480.60	417.81
480.96	417.33
481.33	417.88
481.69	417.64
482.06	418.00
482.42	418.17
482.79	418.38
483.15	418.76
483.52	419.60
483.88	420.05
484.25	420.67
484.61	421.40
484.98	422.55
485.34	424.31
485.71	425.81
486.07	426.83
486.44	426.93
486.80	428.93
487.17	430.52
487.53	432.88
487.90	434.81
488.26	437.60
488.62	440.81
488.99	442.74
489.35	445.50
489.72	447.88
490.08	450.67
490.44	453.48
490.81	456.76
491.17	459.88
491.54	463.26
491.90	466.71
492.26	470.29
492.63	474.02
492.99	476.69
493.36	480.21
493.72	484.69
494.08	488.55
494.45	493.24
494.81	498.45
495.17	503.02
495.54	508.14
495.90	512.98
496.26	518.31
496.63	524.17
496.99	530.05
497.35	535.90
497.72	541.45
498.08	547.48
498.44	553.45
498.80	559.62
499.17	566.55
499.53	573.07
499.89	580.24
500.26	586.76
500.62	594.00
500.98	601.43
501.34	608.21
501.71	615.74
502.07	622.71
502.43	629.55
502.79	636.57
503.16	643.71
503.52	650.88
503.88	657.21
504.24	664.38
504.60	671.62
504.97	679.29
505.33	686.81
505.69	695.74
506.05	703.50
506.41	711.83
506.78	719.33
507.14	726.83
507.50	734.90
507.86	742.86
508.22	750.60
508.59	757.57
508.95	765.62
509.31	774.62
509.67	782.29
510.03	789.64
510.39	797.90
510.75	805.36
511.12	812.90
511.48	821.21
511.84	829.05
512.20	836.81
512.56	844.29
512.92	851.95
513.28	859.02
513.64	866.38
514.00	873.38
514.37	880.38
514.73	888.10
515.09	895.17
515.45	902.40
515.81	909.69
516.17	917.02
516.53	924.36
516.89	930.07
517.25	936.69
517.61	944.50
517.97	950.43
518.33	957.45
518.69	963.45
519.05	969.88
519.41	975.95
519.77	983.76
520.13	989.62
520.49	995.57
520.85	1000.76
521.21	1007.29
521.57	1013.69
521.93	1018.50
522.29	1023.69
522.65	1028.64
523.01	1034.57
523.37	1039.31
523.73	1044.95
524.09	1049.93
524.45	1055.05
524.81	1059.74
525.17	1064.24
525.53	1069.55
525.89	1074.43
526.25	1079.83
526.61	1084.60
526.97	1089.48
527.33	1092.74
527.68	1099.43
528.04	1104.07
528.40	1108.10
528.76	1112.74
529.12	1117.07
529.48	1122.40
529.84	1127.21
530.20	1131.50
530.56	1134.88
530.91	1140.29
531.27	1144.86
531.63	1149.05
531.99	1152.57
532.35	1157.60
532.71	1161.10
533.07	1165.57
533.42	1172.48
533.78	1176.64
534.14	1180.74
534.50	1184.62
534.86	1189.26
535.21	1191.36
535.57	1196.55
535.93	1201.38
536.29	1205.88
536.65	1209.36
537.00	1212.93
537.36	1217.10
537.72	1220.69
538.08	1225.43
538.44	1228.10
538.79	1231.76
539.15	1235.21
539.51	1239.07
539.87	1242.57
540.22	1246.24
540.58	1249.36
540.94	1250.19
541.29	1253.38
541.65	1256.31
542.01	1259.93
542.37	1262.12
542.72	1264.33
543.08	1266.07
543.44	1269.10
543.79	1270.05
544.15	1273.33
544.51	1276.83
544.87	1279.12
545.22	1282.38
545.58	1284.71
545.94	1288.31
546.29	1290.81
546.65	1293.21
547.01	1296.10
547.36	1298.31
547.72	1301.24
548.07	1303.76
548.43	1305.83
548.79	1308.05
549.14	1310.29
549.50	1313.02
549.86	1315.52
550.21	1319.19
550.57	1322.48
550.92	1325.31
551.28	1329.26
551.64	1332.05
551.99	1334.86
552.35	1338.02
552.70	1340.00
553.06	1343.74
553.41	1346.74
553.77	1350.88
554.13	1354.62
554.48	1360.00
554.84	1364.48
555.19	1368.81
555.55	1373.86
555.90	1378.05
556.26	1382.02
556.61	1386.33
556.97	1389.02
557.32	1393.14
557.68	1396.05
558.03	1399.50
558.39	1403.48
558.74	1407.69
559.10	1411.62
559.45	1415.76
559.81	1420.36
560.16	1425.07
560.52	1428.17
560.87	1432.50
561.23	1436.19
561.58	1441.62
561.94	1444.69
562.29	1448.79
562.64	1453.17
563.00	1456.79
563.35	1460.98
563.71	1466.10
564.06	1471.21
564.42	1477.38
564.77	1483.29
565.12	1490.48
565.48	1498.64
565.83	1504.24
566.19	1508.93
566.54	1513.81
566.89	1519.12
567.25	1524.98
567.60	1532.83
567.96	1541.26
568.31	1548.02
568.66	1555.17
569.02	1559.29
569.37	1564.71
569.72	1571.07
570.08	1576.07
570.43	1581.48
570.78	1587.62
571.14	1593.69
571.49	1598.88
571.84	1603.64
572.20	1608.14
572.55	1612.14
572.90	1614.50
573.26	1618.95
573.61	1623.88
573.96	1628.95
574.31	1633.74
574.67	1637.24
575.02	1639.95
575.37	1641.33
575.72	1643.45
576.08	1645.90
576.43	1649.76
576.78	1652.83
577.13	1655.36
577.49	1658.74
577.84	1662.50
578.19	1665.40
578.54	1668.48
578.90	1671.69
579.25	1675.67
579.60	1678.62
579.95	1682.26
580.30	1684.69
580.66	1688.21
581.01	1692.05
581.36	1695.21
581.71	1698.57
582.06	1703.38
582.42	1706.86
582.77	1710.21
583.12	1713.26
583.47	1716.57
583.82	1719.57
584.17	1722.17
584.53	1725.98
584.88	1729.17
585.23	1733.00
585.58	1735.50
585.93	1736.45
586.28	1739.29
586.63	1742.17
586.98	1745.33
587.34	1748.24
587.69	1751.14
588.04	1752.60
588.39	1754.00
588.74	1755.76
589.09	1757.31
589.44	1756.69
589.79	1758.33
590.14	1759.67
590.49	1762.02
590.84	1762.19
591.19	1763.74
591.54	1764.90
591.89	1764.57
592.25	1767.19
592.60	1767.12
592.95	1768.19
593.30	1771.02
593.65	1771.48
594.00	1770.02
594.35	1776.14
594.70	1775.40
595.05	1776.60
595.40	1777.07
595.75	1776.95
596.10	1777.29
596.45	1777.40
596.80	1779.29
597.15	1779.19
597.50	1779.76
597.85	1780.10
598.19	1779.86
598.54	1779.71
598.89	1781.07
599.24	1781.83
599.59	1780.67
599.94	1780.69
600.29	1780.69
600.64	1779.90
600.99	1779.81
601.34	1781.62
601.69	1774.90
602.04	1774.76
602.39	1773.90
602.74	1774.31
603.08	1773.62
603.43	1773.93
603.78	1774.33
604.13	1773.55
604.48	1773.07
604.83	1773.33
605.18	1772.71
605.53	1773.00
605.87	1772.52
606.22	1770.74
606.57	1769.81
606.92	1767.79
607.27	1766.55
607.62	1766.57
607.96	1766.52
608.31	1766.19
608.66	1764.33
609.01	1763.52
609.36	1762.17
609.70	1761.00
610.05	1758.64
610.40	1757.31
610.75	1753.98
611.10	1751.45
611.44	1748.62
611.79	1746.12
612.14	1742.64
612.49	1739.07
612.83	1735.38
613.18	1732.19
613.53	1729.69
613.88	1726.24
614.22	1722.64
614.57	1718.71
614.92	1714.29
615.27	1709.62
615.61	1704.57
615.96	1700.07
616.31	1696.40
616.65	1693.40
617.00	1689.31
617.35	1686.02
617.70	1682.36
618.04	1678.98
618.39	1674.29
618.74	1669.93
619.08	1665.07
619.43	1661.29
619.78	1658.45
620.12	1655.17
620.47	1651.40
620.82	1646.57
621.16	1641.64
621.51	1638.74
621.85	1634.45
622.20	1629.93
622.55	1625.36
622.89	1622.05
623.24	1618.45
623.59	1613.95
623.93	1609.67
624.28	1605.24
624.62	1602.64
624.97	1600.33
625.32	1596.21
625.66	1592.50
626.01	1588.55
626.35	1585.19
626.70	1581.24
627.04	1577.19
627.39	1573.10
627.73	1569.48
628.08	1565.64
628.43	1562.29
628.77	1558.10
629.12	1554.69
629.46	1550.95
629.81	1546.90
630.15	1541.24
630.50	1536.14
630.84	1531.36
631.19	1525.38
631.53	1520.55
631.88	1512.10
632.22	1504.45
632.57	1499.69
632.91	1493.98
633.26	1489.10
633.60	1483.07
633.95	1477.40
634.29	1471.29
634.64	1466.60
634.98	1460.62
635.32	1455.69
635.67	1450.93
636.01	1445.57
636.36	1439.88
636.70	1435.33
637.05	1429.93
637.39	1424.90
637.73	1420.62
638.08	1416.17
638.42	1411.38
638.77	1406.21
639.11	1402.00
639.45	1397.45
639.80	1391.86
640.14	1387.36
640.49	1381.38
640.83	1375.52
641.17	1370.29
641.52	1364.57
641.86	1358.40
642.20	1354.02
642.55	1348.10
642.89	1341.17
643.23	1335.00
643.58	1330.55
643.92	1323.36
644.26	1317.86
644.61	1312.38
644.95	1305.45
645.29	1298.17
645.64	1292.21
645.98	1285.38
646.32	1279.88
646.66	1273.05
647.01	1266.33
647.35	1259.90
647.69	1254.19
648.04	1249.21
648.38	1243.31
648.72	1237.21
649.06	1230.88
649.41	1223.36
649.75	1216.60
650.09	1211.02
650.43	1204.05
650.78	1196.38
651.12	1190.05
651.46	1182.79
651.80	1175.88
652.14	1169.95
652.49	1164.76
652.83	1158.57
653.17	1152.12
653.51	1144.62
653.85	1138.36
654.20	1131.98
654.54	1125.07
654.88	1117.45
655.22	1111.33
655.56	1103.62
655.90	1097.05
656.25	1090.52
656.59	1084.21
656.93	1077.90
657.27	1071.71
657.61	1065.36
657.95	1059.14
658.29	1052.64
658.64	1046.67
658.98	1040.33
659.32	1033.45
659.66	1026.38
660.00	1019.57
660.34	1013.43
660.68	1007.55
661.02	1001.07
661.36	994.67
661.70	988.14
662.05	982.64
662.39	975.69
662.73	970.57
663.07	965.33
663.41	959.17
663.75	952.71
664.09	947.45
664.43	941.36
664.77	935.50
665.11	928.79
665.45	922.69
665.79	916.48
666.13	910.24
666.47	904.67
666.81	898.83
667.15	892.38
667.49	887.10
667.83	882.48
668.17	877.31
668.51	871.79
668.85	866.86
669.19	862.33
669.53	856.43
669.87	850.33
670.21	844.21
670.55	838.52
670.89	833.88
671.23	828.02
671.57	822.79
671.91	817.45
672.25	812.86
672.58	808.62
672.92	803.38
673.26	798.69
673.60	793.38
673.94	788.31
674.28	784.07
674.62	778.98
674.96	772.86
675.30	767.52
675.64	762.55
675.97	757.29
676.31	751.50
676.65	746.93
676.99	743.02
677.33	738.02
677.67	733.14
678.01	727.64
678.34	722.86
678.68	718.17
679.02	713.57
679.36	708.55
679.70	703.17
680.04	698.69
680.37	693.83
680.71	688.93
681.05	684.14
681.39	679.36
681.73	674.26
682.06	670.26
682.40	665.86
682.74	661.93
683.08	657.95
683.42	653.02
683.75	648.38
684.09	642.90
684.43	638.55
684.77	634.24
685.10	630.05
685.44	625.76
685.78	620.79
686.12	616.76
686.45	612.33
686.79	607.62
687.13	603.33
687.46	599.19
687.80	595.62
688.14	591.48
688.48	587.81
688.81	584.31
689.15	580.29
689.49	576.36
689.82	572.19
690.16	567.21
690.50	563.31
690.83	559.29
691.17	555.21
691.51	550.69
691.84	546.69
692.18	542.86
692.52	539.26
692.85	535.98
693.19	532.98
693.52	529.21
693.86	525.71
694.20	522.38
694.53	519.21
694.87	514.95
695.21	511.26
695.54	507.24
695.88	503.33
696.21	499.24
696.55	495.67
696.88	492.00
697.22	488.76
697.56	485.81
697.89	482.90
698.23	480.33
698.56	477.36
698.90	474.17
699.23	470.60
699.57	466.98
699.90	463.43
700.24	459.45
700.58	456.02
700.91	452.98
701.25	451.21
701.58	448.60
701.92	446.38
702.25	443.67
702.59	441.00
702.92	438.48
703.26	435.88
703.59	433.12
703.93	432.29
704.26	429.90
704.60	427.31
704.93	424.36
705.26	421.33
705.60	418.95
705.93	416.10
706.27	414.19
706.60	412.67
706.94	410.95
707.27	408.12
707.61	406.31
707.94	404.12
708.27	400.14
708.61	396.93
708.94	394.17
709.28	392.26
709.61	389.76
709.94	387.50
710.28	385.17
710.61	383.02
710.95	378.98
711.28	378.62
711.61	376.05
711.95	374.40
712.28	372.19
712.61	369.93
712.95	369.29
713.28	368.14
713.61	365.43
713.95	363.24
714.28	361.67
714.61	359.36
714.95	357.71
715.28	355.95
715.61	354.14
715.95	352.67
716.28	350.26
716.61	349.17
716.95	347.29
717.28	345.62
717.61	343.95
717.94	342.05
718.28	338.67
718.61	337.40
718.94	335.19
719.27	333.52
719.61	332.12
719.94	330.14
720.27	327.24
720.60	325.55
720.94	323.76
721.27	322.64
721.60	321.62
721.93	320.02
722.27	319.07
722.60	318.05
722.93	316.40
723.26	315.79
723.59	313.67
723.93	312.52
724.26	311.40
724.59	310.19
724.92	309.29
725.25	308.40
725.59	307.21
725.92	306.64
726.25	306.02
726.58	305.14
726.91	303.81
727.24	303.38
727.57	302.36
727.91	301.00
728.24	300.10
728.57	298.90
728.90	298.05
729.23	296.74
729.56	296.88
729.89	295.93
730.22	294.67
730.55	294.10
730.89	293.19
731.22	292.02
731.55	290.90
731.88	290.40
732.21	289.50
732.54	288.33
732.87	287.24
733.20	286.50
733.53	285.67
733.86	285.00
734.19	283.86
734.52	283.17
734.85	283.98
735.18	282.81
735.51	282.83
735.84	282.36
736.17	282.05
736.50	280.12
736.83	281.76
737.16	280.64
737.49	279.90
737.82	279.02
738.15	278.93
738.48	278.33
738.81	277.48
739.14	276.29
739.47	275.71
739.80	275.19
740.13	274.36
740.46	273.14
740.79	272.10
741.12	271.33
741.45	270.43
741.78	268.52
742.11	268.40
742.44	266.98
742.77	266.40
743.10	265.79
743.43	265.07
743.75	262.29
744.08	264.45
744.41	263.88
744.74	263.24
745.07	261.93
745.40	261.50
745.73	261.67
746.06	261.57
746.39	261.40
746.71	260.48
747.04	259.64
747.37	259.10
747.70	259.02
748.03	258.45
748.36	258.36
748.68	257.95
749.01	256.76
749.34	256.40
749.67	255.90
750.00	255.60
750.33	256.50
750.65	256.38
750.98	253.48
751.31	252.83
751.64	252.55
751.97	253.50
752.29	253.14
752.62	251.90
752.95	251.31
753.28	250.55
753.60	250.24
753.93	250.02
754.26	249.83
754.59	248.93
754.91	248.31
755.24	247.81
755.57	247.21
755.90	246.83
756.22	246.43
756.55	245.50
756.88	244.45
757.20	242.95
757.53	241.86
757.86	241.38
758.19	241.17
758.51	240.60
758.84	239.24
759.17	238.40
759.49	238.21
759.82	238.90
760.15	238.88
760.47	238.38
760.80	237.76
761.13	237.86
761.45	237.33
761.78	237.21
762.11	236.93
762.43	236.67
762.76	236.43
763.08	236.36
763.41	236.40
763.74	236.38
764.06	236.05
764.39	235.81
764.71	235.76
765.04	235.52
765.37	235.05
765.69	234.60
766.02	234.24
766.34	233.52
766.67	232.36
767.00	232.19
767.32	232.98
767.65	233.95
767.97	233.48
768.30	233.55
768.62	233.40
768.95	233.07
769.27	232.86
769.60	232.50
769.92	231.79
770.25	231.05
770.57	230.50
770.90	230.26
771.22	229.95
771.55	229.52
771.87	229.24
772.20	229.48
772.52	231.14
772.85	233.50
773.17	233.48
773.50	233.21
773.82	232.40
774.15	231.38
774.47	230.02
774.80	229.60
775.12	229.36
775.45	229.14
775.77	229.00
776.09	228.71
776.42	229.02
776.74	229.29
777.07	229.05
777.39	229.12
777.72	228.79
778.04	229.00
778.36	228.83
778.69	228.79
779.01	228.60
779.33	226.88
779.66	224.55
779.98	224.31
780.31	224.14
780.63	225.17
780.95	225.40
781.28	225.17
781.60	224.95
781.92	224.83
782.25	224.50
782.57	224.36
782.89	224.17
783.22	223.67
783.54	223.40
783.86	223.62
784.19	223.19
784.51	223.74
784.83	223.31
785.16	222.95
