SpectraSuite Data File
++++++++++++++++++++++++++++++++++++
Date: Tue Apr 02 18:45:20 EDT 2013
User: group
Dark Spectrum Present: No
Reference Spectrum Present: No
Number of Sampled Component Spectra: 1
Spectrometers: USB2E7196
Integration Time (usec): 580000 (USB2E7196)
Spectra Averaged: 2 (USB2E7196)
Boxcar Smoothing: 10 (USB2E7196)
Correct for Electrical Dark: No (USB2E7196)
Strobe/Lamp Enabled: No (USB2E7196)
Correct for Detector Non-linearity: No (USB2E7196)
Correct for Stray Light: No (USB2E7196)
Number of Pixels in Processed Spectrum: 2048
>>>>>Begin Processed Spectral Data<<<<<
339.09	0.00
339.48	193.00
339.86	195.00
340.24	194.00
340.63	199.00
341.01	229.50
341.39	199.00
341.78	210.00
342.16	215.50
342.54	203.00
342.93	197.48
343.31	207.19
343.69	207.69
344.07	208.05
344.46	209.00
344.84	209.71
345.22	208.50
345.60	209.05
345.99	209.19
346.37	208.83
346.75	208.95
347.13	209.05
347.52	209.19
347.90	209.86
348.28	210.17
348.66	210.60
349.05	210.02
349.43	210.14
349.81	210.33
350.19	210.48
350.57	210.57
350.96	210.79
351.34	211.21
351.72	211.52
352.10	211.95
352.48	211.67
352.87	211.31
353.25	211.45
353.63	211.48
354.01	211.29
354.39	211.55
354.77	211.60
355.15	212.24
355.54	212.21
355.92	211.57
356.30	211.71
356.68	213.07
357.06	213.50
357.44	213.38
357.82	213.38
358.20	214.24
358.58	214.21
358.97	214.60
359.35	214.95
359.73	215.31
360.11	215.29
360.49	215.45
360.87	215.57
361.25	216.19
361.63	216.98
362.01	217.10
362.39	216.86
362.77	217.21
363.15	216.86
363.53	216.71
363.91	216.95
364.29	216.93
364.67	214.93
365.05	214.69
365.43	214.69
365.81	215.07
366.19	215.38
366.57	216.14
366.95	216.07
367.33	215.45
367.71	215.45
368.09	215.76
368.47	215.79
368.85	215.95
369.23	216.29
369.61	215.29
369.99	216.00
370.37	216.43
370.75	217.45
371.13	217.24
371.51	216.95
371.89	217.10
372.27	217.12
372.65	217.48
373.03	217.55
373.41	217.52
373.78	217.33
374.16	216.10
374.54	215.60
374.92	215.38
375.30	215.60
375.68	215.33
376.06	215.21
376.44	215.10
376.82	215.00
377.19	214.60
377.57	214.86
377.95	214.07
378.33	213.71
378.71	212.36
379.09	212.79
379.47	212.95
379.84	212.69
380.22	212.52
380.60	212.19
380.98	212.21
381.36	212.21
381.73	211.81
382.11	212.21
382.49	212.29
382.87	211.76
383.25	211.83
383.62	214.17
384.00	213.98
384.38	214.21
384.76	214.93
385.13	215.81
385.51	215.74
385.89	215.62
386.27	215.69
386.64	216.10
387.02	215.50
387.40	215.50
387.78	215.60
388.15	215.71
388.53	215.67
388.91	215.81
389.29	215.83
389.66	216.31
390.04	216.00
390.42	216.17
390.79	216.64
391.17	216.43
391.55	214.05
391.92	214.26
392.30	214.36
392.68	213.69
393.05	213.19
393.43	213.31
393.81	213.52
394.18	213.40
394.56	213.33
394.94	213.83
395.31	213.67
395.69	214.29
396.06	214.86
396.44	214.81
396.82	214.60
397.19	215.50
397.57	215.14
397.95	215.38
398.32	215.14
398.70	215.19
399.07	215.83
399.45	215.86
399.82	215.60
400.20	215.21
400.58	215.21
400.95	214.64
401.33	215.00
401.70	216.55
402.08	216.43
402.45	216.43
402.83	217.19
403.20	217.60
403.58	217.57
403.95	217.74
404.33	218.24
404.71	218.62
405.08	219.98
405.46	220.43
405.83	221.05
406.21	221.31
406.58	221.93
406.96	222.07
407.33	222.67
407.70	223.21
408.08	225.60
408.45	226.43
408.83	227.33
409.20	227.57
409.58	226.95
409.95	228.55
410.33	229.67
410.70	229.67
411.08	230.83
411.45	231.76
411.82	232.74
412.20	234.43
412.57	236.62
412.95	236.10
413.32	237.86
413.69	239.14
414.07	240.64
414.44	242.26
414.82	244.33
415.19	246.69
415.56	249.05
415.94	250.17
416.31	253.21
416.68	256.10
417.06	259.45
417.43	263.21
417.81	266.69
418.18	270.38
418.55	274.19
418.93	278.31
419.30	282.26
419.67	286.40
420.04	290.62
420.42	294.67
420.79	301.74
421.16	307.19
421.54	314.10
421.91	320.14
422.28	326.19
422.66	332.43
423.03	340.31
423.40	347.24
423.77	354.48
424.15	361.38
424.52	369.14
424.89	377.55
425.26	385.19
425.64	392.50
426.01	400.86
426.38	409.98
426.75	419.14
427.13	428.48
427.50	438.43
427.87	448.31
428.24	458.17
428.61	466.95
428.99	478.12
429.36	488.71
429.73	500.05
430.10	511.52
430.47	523.19
430.85	533.52
431.22	546.36
431.59	560.93
431.96	573.93
432.33	587.74
432.70	601.88
433.08	617.43
433.45	632.69
433.82	647.26
434.19	663.71
434.56	680.38
434.93	696.05
435.30	711.12
435.68	728.52
436.05	745.67
436.42	761.93
436.79	778.17
437.16	795.24
437.53	812.76
437.90	830.52
438.27	848.29
438.64	866.60
439.01	883.40
439.38	896.88
439.75	911.43
440.13	928.00
440.50	942.79
440.87	955.62
441.24	968.76
441.61	983.93
441.98	994.93
442.35	1006.52
442.72	1019.26
443.09	1032.90
443.46	1040.12
443.83	1045.81
444.20	1050.60
444.57	1055.98
444.94	1059.00
445.31	1062.50
445.68	1068.81
446.05	1070.31
446.42	1068.81
446.79	1067.50
447.16	1066.07
447.53	1064.93
447.90	1058.43
448.27	1052.57
448.64	1044.02
449.01	1038.36
449.37	1026.83
449.74	1016.19
450.11	1005.48
450.48	990.60
450.85	975.12
451.22	963.24
451.59	950.83
451.96	939.52
452.33	924.40
452.70	910.69
453.07	893.90
453.43	873.62
453.80	856.76
454.17	841.12
454.54	825.83
454.91	809.48
455.28	793.38
455.65	778.64
456.02	766.90
456.38	754.26
456.75	738.69
457.12	726.00
457.49	713.02
457.86	698.52
458.23	689.33
458.59	677.45
458.96	665.45
459.33	655.29
459.70	645.00
460.07	636.64
460.43	626.45
460.80	617.86
461.17	610.67
461.54	602.83
461.91	594.74
462.27	586.57
462.64	579.67
463.01	572.69
463.38	566.74
463.74	556.00
464.11	549.48
464.48	543.67
464.85	537.02
465.21	532.74
465.58	528.19
465.95	521.26
466.32	516.52
466.68	511.69
467.05	506.52
467.42	501.36
467.78	496.19
468.15	491.50
468.52	487.81
468.88	482.31
469.25	477.64
469.62	474.45
469.98	470.55
470.35	466.88
470.72	462.95
471.08	458.12
471.45	455.57
471.82	453.12
472.18	449.64
472.55	447.26
472.92	443.52
473.28	440.29
473.65	437.76
474.02	435.14
474.38	432.93
474.75	431.07
475.11	428.95
475.48	426.76
475.85	425.24
476.21	423.50
476.58	422.55
476.94	421.88
477.31	420.29
477.67	419.26
478.04	418.50
478.41	417.90
478.77	419.33
479.14	418.29
479.50	417.45
479.87	417.00
480.23	417.00
480.60	416.67
480.96	416.52
481.33	417.12
481.69	416.93
482.06	417.05
482.42	417.29
482.79	417.38
483.15	417.98
483.52	418.79
483.88	419.33
484.25	419.26
484.61	419.71
484.98	420.83
485.34	422.31
485.71	423.98
486.07	425.10
486.44	425.05
486.80	426.95
487.17	428.81
487.53	431.38
487.90	433.48
488.26	436.55
488.62	439.10
488.99	440.93
489.35	443.83
489.72	446.14
490.08	448.88
490.44	451.81
490.81	455.10
491.17	457.60
491.54	461.00
491.90	465.17
492.26	468.81
492.63	472.31
492.99	475.74
493.36	479.50
493.72	484.14
494.08	488.45
494.45	492.83
494.81	497.07
495.17	501.05
495.54	505.98
495.90	510.36
496.26	515.38
496.63	520.60
496.99	525.48
497.35	531.38
497.72	537.43
498.08	543.17
498.44	549.45
498.80	555.90
499.17	562.31
499.53	568.79
499.89	575.19
500.26	582.05
500.62	588.83
500.98	596.05
501.34	602.83
501.71	610.74
502.07	617.52
502.43	625.02
502.79	632.52
503.16	639.24
503.52	646.43
503.88	653.57
504.24	661.57
504.60	669.95
504.97	677.62
505.33	684.88
505.69	693.48
506.05	700.83
506.41	708.76
506.78	716.31
507.14	724.17
507.50	732.40
507.86	740.24
508.22	747.95
508.59	754.81
508.95	762.90
509.31	770.79
509.67	778.62
510.03	786.21
510.39	794.12
510.75	802.19
511.12	809.95
511.48	817.95
511.84	825.62
512.20	832.43
512.56	840.36
512.92	848.14
513.28	854.69
513.64	861.79
514.00	868.95
514.37	875.86
514.73	882.69
515.09	889.55
515.45	895.40
515.81	902.55
516.17	909.95
516.53	915.88
516.89	921.52
517.25	928.12
517.61	935.05
517.97	941.17
518.33	947.55
518.69	954.29
519.05	960.83
519.41	966.43
519.77	974.12
520.13	979.45
520.49	984.71
520.85	990.98
521.21	997.93
521.57	1003.88
521.93	1009.07
522.29	1014.67
522.65	1019.93
523.01	1026.36
523.37	1031.33
523.73	1036.64
524.09	1041.52
524.45	1046.24
524.81	1051.29
525.17	1055.88
525.53	1060.19
525.89	1064.43
526.25	1069.07
526.61	1073.02
526.97	1077.29
527.33	1080.98
527.68	1087.50
528.04	1092.50
528.40	1096.48
528.76	1100.14
529.12	1103.88
529.48	1109.36
529.84	1113.29
530.20	1118.40
530.56	1122.55
530.91	1126.98
531.27	1130.40
531.63	1135.64
531.99	1138.93
532.35	1141.98
532.71	1145.48
533.07	1150.43
533.42	1156.98
533.78	1161.00
534.14	1165.33
534.50	1169.00
534.86	1173.33
535.21	1174.90
535.57	1178.93
535.93	1182.74
536.29	1187.60
536.65	1191.67
537.00	1194.74
537.36	1198.52
537.72	1200.79
538.08	1205.43
538.44	1208.48
538.79	1211.98
539.15	1214.17
539.51	1218.71
539.87	1222.48
540.22	1225.90
540.58	1228.67
540.94	1229.79
541.29	1232.21
541.65	1234.36
542.01	1237.45
542.37	1239.60
542.72	1242.14
543.08	1244.38
543.44	1247.67
543.79	1247.64
544.15	1250.62
544.51	1253.29
544.87	1255.62
545.22	1258.95
545.58	1261.14
545.94	1263.19
546.29	1266.38
546.65	1269.62
547.01	1272.05
547.36	1275.07
547.72	1277.00
548.07	1279.86
548.43	1281.64
548.79	1283.76
549.14	1286.36
549.50	1290.02
549.86	1291.48
550.21	1294.38
550.57	1297.71
550.92	1299.31
551.28	1303.86
551.64	1305.86
551.99	1308.83
552.35	1312.10
552.70	1314.21
553.06	1317.02
553.41	1321.40
553.77	1325.60
554.13	1329.67
554.48	1333.86
554.84	1338.19
555.19	1342.86
555.55	1347.48
555.90	1351.64
556.26	1355.19
556.61	1358.71
556.97	1361.38
557.32	1365.86
557.68	1369.90
558.03	1373.14
558.39	1377.40
558.74	1381.10
559.10	1385.14
559.45	1389.45
559.81	1393.07
560.16	1397.26
560.52	1400.19
560.87	1404.24
561.23	1407.07
561.58	1411.67
561.94	1414.67
562.29	1418.33
562.64	1422.74
563.00	1426.10
563.35	1430.62
563.71	1436.40
564.06	1441.64
564.42	1446.67
564.77	1453.05
565.12	1459.31
565.48	1466.55
565.83	1473.43
566.19	1478.71
566.54	1484.48
566.89	1489.50
567.25	1495.83
567.60	1502.55
567.96	1511.48
568.31	1518.50
568.66	1525.31
569.02	1529.52
569.37	1534.83
569.72	1540.12
570.08	1544.88
570.43	1550.05
570.78	1555.74
571.14	1560.38
571.49	1566.45
571.84	1572.24
572.20	1575.88
572.55	1580.57
572.90	1583.83
573.26	1587.36
573.61	1591.90
573.96	1596.81
574.31	1602.10
574.67	1606.45
575.02	1610.50
575.37	1611.81
575.72	1614.40
576.08	1617.95
576.43	1622.05
576.78	1626.45
577.13	1630.88
577.49	1635.33
577.84	1640.14
578.19	1644.14
578.54	1648.69
578.90	1652.26
579.25	1655.88
579.60	1659.98
579.95	1662.76
580.30	1666.60
580.66	1671.26
581.01	1674.71
581.36	1677.31
581.71	1679.71
582.06	1684.55
582.42	1688.02
582.77	1690.95
583.12	1694.24
583.47	1698.07
583.82	1700.95
584.17	1704.71
584.53	1708.57
584.88	1711.74
585.23	1714.79
585.58	1717.43
585.93	1720.17
586.28	1723.29
586.63	1725.52
586.98	1728.50
587.34	1732.50
587.69	1734.29
588.04	1736.43
588.39	1738.81
588.74	1741.36
589.09	1744.38
589.44	1744.12
589.79	1746.02
590.14	1749.10
590.49	1750.52
590.84	1751.38
591.19	1754.21
591.54	1755.71
591.89	1756.21
592.25	1759.69
592.60	1760.83
592.95	1762.98
593.30	1765.02
593.65	1765.86
594.00	1767.29
594.35	1774.17
594.70	1774.02
595.05	1775.64
595.40	1776.36
595.75	1777.50
596.10	1778.86
596.45	1780.10
596.80	1781.95
597.15	1782.90
597.50	1783.76
597.85	1785.64
598.19	1786.00
598.54	1785.69
598.89	1785.83
599.24	1787.38
599.59	1786.79
599.94	1786.60
600.29	1786.43
600.64	1785.93
600.99	1786.05
601.34	1786.71
601.69	1779.45
602.04	1779.05
602.39	1778.38
602.74	1778.38
603.08	1777.81
603.43	1778.45
603.78	1778.48
604.13	1778.14
604.48	1777.02
604.83	1776.38
605.18	1776.12
605.53	1776.00
605.87	1775.38
606.22	1774.67
606.57	1772.50
606.92	1769.79
607.27	1768.57
607.62	1767.95
607.96	1767.40
608.31	1766.83
608.66	1766.12
609.01	1765.88
609.36	1765.45
609.70	1764.14
610.05	1761.40
610.40	1760.57
610.75	1757.57
611.10	1755.60
611.44	1753.33
611.79	1752.00
612.14	1749.26
612.49	1745.05
612.83	1742.88
613.18	1740.67
613.53	1738.24
613.88	1735.36
614.22	1733.14
614.57	1729.67
614.92	1725.45
615.27	1721.71
615.61	1716.95
615.96	1712.55
616.31	1709.19
616.65	1706.02
617.00	1703.36
617.35	1701.40
617.70	1697.79
618.04	1694.88
618.39	1690.33
618.74	1686.21
619.08	1683.19
619.43	1680.45
619.78	1677.81
620.12	1674.31
620.47	1670.40
620.82	1665.79
621.16	1661.86
621.51	1659.10
621.85	1655.81
622.20	1652.79
622.55	1648.67
622.89	1646.52
623.24	1644.48
623.59	1641.69
623.93	1636.67
624.28	1632.29
624.62	1628.93
624.97	1625.95
625.32	1621.67
625.66	1617.69
626.01	1614.62
626.35	1611.14
626.70	1607.48
627.04	1604.02
627.39	1599.90
627.73	1597.21
628.08	1594.50
628.43	1591.40
628.77	1586.71
629.12	1583.07
629.46	1579.50
629.81	1575.98
630.15	1570.64
630.50	1564.38
630.84	1559.52
631.19	1555.90
631.53	1551.40
631.88	1545.50
632.22	1539.26
632.57	1535.21
632.91	1530.24
633.26	1525.43
633.60	1519.31
633.95	1513.83
634.29	1509.24
634.64	1504.74
634.98	1498.74
635.32	1494.76
635.67	1490.33
636.01	1486.19
636.36	1482.19
636.70	1477.48
637.05	1472.90
637.39	1470.14
637.73	1467.00
638.08	1463.26
638.42	1459.17
638.77	1455.05
639.11	1450.90
639.45	1446.74
639.80	1441.31
640.14	1437.10
640.49	1432.33
640.83	1427.07
641.17	1422.48
641.52	1416.14
641.86	1410.69
642.20	1407.33
642.55	1401.29
642.89	1395.98
643.23	1389.88
643.58	1384.60
643.92	1378.31
644.26	1372.69
644.61	1366.24
644.95	1360.19
645.29	1353.67
645.64	1347.98
645.98	1342.86
646.32	1336.95
646.66	1330.14
647.01	1324.36
647.35	1318.81
647.69	1313.07
648.04	1308.31
648.38	1302.60
648.72	1297.81
649.06	1292.55
649.41	1285.50
649.75	1278.95
650.09	1272.48
650.43	1266.19
650.78	1259.31
651.12	1252.79
651.46	1246.69
651.80	1239.95
652.14	1234.31
652.49	1229.24
652.83	1222.62
653.17	1215.24
653.51	1208.69
653.85	1204.50
654.20	1198.90
654.54	1192.07
654.88	1185.45
655.22	1178.76
655.56	1172.10
655.90	1165.31
656.25	1158.24
656.59	1152.21
656.93	1146.45
657.27	1141.60
657.61	1135.45
657.95	1129.95
658.29	1125.05
658.64	1119.74
658.98	1113.31
659.32	1106.10
659.66	1098.76
660.00	1092.64
660.34	1086.36
660.68	1080.69
661.02	1074.14
661.36	1067.90
661.70	1062.07
662.05	1056.40
662.39	1050.86
662.73	1046.12
663.07	1041.31
663.41	1035.81
663.75	1029.48
664.09	1024.21
664.43	1017.83
664.77	1012.43
665.11	1005.57
665.45	999.79
665.79	993.38
666.13	988.00
666.47	982.14
666.81	976.26
667.15	970.29
667.49	965.67
667.83	960.24
668.17	954.07
668.51	948.45
668.85	943.55
669.19	938.57
669.53	932.62
669.87	926.02
670.21	919.57
670.55	913.64
670.89	909.05
671.23	903.29
671.57	897.60
671.91	892.86
672.25	888.33
672.58	883.33
672.92	877.57
673.26	871.83
673.60	866.60
673.94	861.45
674.28	856.48
674.62	851.50
674.96	846.55
675.30	841.60
675.64	836.45
675.97	831.24
676.31	825.74
676.65	820.12
676.99	816.07
677.33	811.19
677.67	806.02
678.01	800.19
678.34	795.40
678.68	790.98
679.02	784.79
679.36	779.45
679.70	773.88
680.04	769.19
680.37	764.67
680.71	759.88
681.05	755.48
681.39	750.40
681.73	745.00
682.06	739.79
682.40	734.71
682.74	730.76
683.08	726.14
683.42	721.02
683.75	716.93
684.09	711.67
684.43	706.95
684.77	702.48
685.10	697.60
685.44	691.95
685.78	686.45
686.12	682.21
686.45	677.38
686.79	672.83
687.13	668.40
687.46	664.19
687.80	660.67
688.14	656.12
688.48	652.45
688.81	648.79
689.15	645.17
689.49	640.76
689.82	636.12
690.16	630.93
690.50	626.31
690.83	621.60
691.17	617.00
691.51	612.67
691.84	608.67
692.18	604.81
692.52	600.76
692.85	597.48
693.19	594.12
693.52	590.55
693.86	586.31
694.20	582.00
694.53	577.69
694.87	572.79
695.21	568.43
695.54	564.12
695.88	558.93
696.21	553.67
696.55	550.00
696.88	545.79
697.22	542.43
697.56	539.07
697.89	535.38
698.23	531.67
698.56	527.64
698.90	523.93
699.23	520.19
699.57	517.00
699.90	512.74
700.24	508.52
700.58	504.38
700.91	500.88
701.25	499.07
701.58	496.31
701.92	493.64
702.25	490.55
702.59	486.83
702.92	484.21
703.26	481.50
703.59	478.26
703.93	477.26
704.26	474.52
704.60	471.67
704.93	468.86
705.26	465.71
705.60	463.17
705.93	459.90
706.27	457.48
706.60	454.90
706.94	452.98
707.27	450.14
707.61	447.60
707.94	444.55
708.27	440.14
708.61	436.81
708.94	433.69
709.28	431.02
709.61	428.26
709.94	425.17
710.28	422.62
710.61	420.02
710.95	414.98
711.28	413.33
711.61	410.55
711.95	408.43
712.28	406.12
712.61	403.64
712.95	402.55
713.28	401.07
713.61	398.55
713.95	395.43
714.28	393.38
714.61	391.38
714.95	389.48
715.28	387.31
715.61	385.00
715.95	383.36
716.28	381.21
716.61	379.83
716.95	377.93
717.28	375.86
717.61	373.86
717.94	372.05
718.28	368.83
718.61	366.98
718.94	364.74
719.27	362.55
719.61	360.57
719.94	357.90
720.27	354.71
720.60	352.50
720.94	350.79
721.27	349.24
721.60	347.74
721.93	345.90
722.27	345.07
722.60	344.10
722.93	341.90
723.26	340.26
723.59	338.43
723.93	337.07
724.26	335.93
724.59	334.38
724.92	333.24
725.25	332.31
725.59	330.90
725.92	329.83
726.25	328.40
726.58	327.19
726.91	325.76
727.24	325.10
727.57	324.10
727.91	322.57
728.24	321.21
728.57	319.67
728.90	318.88
729.23	316.88
729.56	316.14
729.89	315.17
730.22	313.71
730.55	312.19
730.89	311.07
731.22	309.40
731.55	308.26
731.88	307.00
732.21	305.60
732.54	304.31
732.87	303.07
733.20	302.48
733.53	301.62
733.86	301.02
734.19	299.33
734.52	298.95
734.85	299.48
735.18	298.19
735.51	297.98
735.84	297.17
736.17	296.67
736.50	294.90
736.83	296.21
737.16	295.60
737.49	295.07
737.82	293.95
738.15	293.45
738.48	292.55
738.81	291.64
739.14	290.36
739.47	289.62
739.80	288.64
740.13	287.67
740.46	286.55
740.79	285.19
741.12	284.69
741.45	283.19
741.78	281.45
742.11	281.36
742.44	280.12
742.77	279.40
743.10	278.33
743.43	277.33
743.75	274.40
744.08	276.29
744.41	275.26
744.74	274.60
745.07	273.40
745.40	273.12
745.73	273.40
746.06	272.95
746.39	272.33
746.71	271.74
747.04	270.81
747.37	270.10
747.70	269.62
748.03	268.57
748.36	268.24
748.68	267.29
749.01	266.10
749.34	265.17
749.67	264.52
750.00	264.17
750.33	265.33
750.65	264.98
750.98	261.71
751.31	261.31
751.64	261.00
751.97	261.90
752.29	261.10
752.62	259.48
752.95	258.74
753.28	257.90
753.60	257.36
753.93	257.45
754.26	256.76
754.59	255.98
754.91	255.31
755.24	254.33
755.57	254.02
755.90	253.31
756.22	252.79
756.55	252.12
756.88	251.48
757.20	249.43
757.53	248.40
757.86	247.81
758.19	247.43
758.51	246.57
758.84	244.93
759.17	244.43
759.49	244.14
759.82	245.02
760.15	244.90
760.47	244.24
760.80	242.98
761.13	243.26
761.45	242.71
761.78	242.52
762.11	242.50
762.43	241.81
762.76	241.31
763.08	241.10
763.41	240.52
763.74	240.21
764.06	240.05
764.39	239.90
764.71	239.76
765.04	239.14
765.37	238.86
765.69	238.48
766.02	237.95
766.34	237.57
766.67	236.31
767.00	236.50
767.32	237.17
767.65	238.45
767.97	237.74
768.30	237.81
768.62	237.55
768.95	236.86
769.27	236.55
769.60	236.76
769.92	236.26
770.25	236.00
770.57	235.26
770.90	234.81
771.22	234.14
771.55	233.95
771.87	233.83
772.20	233.43
772.52	234.90
772.85	237.17
773.17	237.05
773.50	236.64
773.82	235.95
774.15	234.83
774.47	233.40
774.80	233.17
775.12	232.81
775.45	232.71
775.77	232.71
776.09	232.74
776.42	232.52
776.74	233.05
777.07	232.83
777.39	233.12
777.72	232.71
778.04	232.86
778.36	232.52
778.69	232.14
779.01	232.38
779.33	230.21
779.66	227.79
779.98	227.36
780.31	227.21
780.63	227.81
780.95	227.98
781.28	227.81
781.60	227.29
781.92	227.19
782.25	227.07
782.57	226.93
782.89	226.60
783.22	226.29
783.54	225.60
783.86	225.45
784.19	225.10
784.51	225.50
784.83	225.07
