SpectraSuite Data File
++++++++++++++++++++++++++++++++++++
Date: Tue Apr 02 18:41:59 EDT 2013
User: group
Dark Spectrum Present: No
Reference Spectrum Present: No
Number of Sampled Component Spectra: 1
Spectrometers: USB2E7196
Integration Time (usec): 580000 (USB2E7196)
Spectra Averaged: 2 (USB2E7196)
Boxcar Smoothing: 10 (USB2E7196)
Correct for Electrical Dark: No (USB2E7196)
Strobe/Lamp Enabled: No (USB2E7196)
Correct for Detector Non-linearity: No (USB2E7196)
Correct for Stray Light: No (USB2E7196)
Number of Pixels in Processed Spectrum: 2048
>>>>>Begin Processed Spectral Data<<<<<
339.09	0.00
339.48	194.50
339.86	196.00
340.24	194.00
340.63	195.00
341.01	227.50
341.39	199.00
341.78	208.00
342.16	209.50
342.54	204.50
342.93	196.74
343.31	206.55
343.69	207.12
344.07	207.60
344.46	208.33
344.84	209.02
345.22	208.14
345.60	208.71
345.99	208.95
346.37	209.10
346.75	209.43
347.13	209.79
347.52	210.02
347.90	210.55
348.28	210.52
348.66	211.10
349.05	210.52
349.43	210.95
349.81	211.14
350.19	211.19
350.57	211.57
350.96	211.90
351.34	212.36
351.72	212.21
352.10	212.40
352.48	212.40
352.87	212.31
353.25	212.40
353.63	212.36
354.01	212.29
354.39	212.29
354.77	212.10
355.15	212.55
355.54	212.33
355.92	211.88
356.30	212.07
356.68	213.31
357.06	213.55
357.44	213.19
357.82	212.95
358.20	213.60
358.58	213.40
358.97	213.50
359.35	213.74
359.73	214.29
360.11	214.33
360.49	214.50
360.87	214.50
361.25	214.60
361.63	215.14
362.01	215.21
362.39	215.14
362.77	215.50
363.15	215.55
363.53	215.45
363.91	215.55
364.29	215.52
364.67	213.69
365.05	213.55
365.43	213.90
365.81	214.26
366.19	214.50
366.57	215.45
366.95	215.40
367.33	214.83
367.71	214.83
368.09	215.10
368.47	215.02
368.85	215.14
369.23	215.57
369.61	214.79
369.99	215.31
370.37	215.48
370.75	216.55
371.13	215.90
371.51	215.86
371.89	215.83
372.27	216.10
372.65	216.17
373.03	216.45
373.41	216.36
373.78	216.17
374.16	215.19
374.54	214.43
374.92	214.14
375.30	214.24
375.68	213.83
376.06	214.02
376.44	213.83
376.82	214.05
377.19	213.83
377.57	214.10
377.95	213.40
378.33	213.17
378.71	211.88
379.09	212.17
379.47	212.36
379.84	212.19
380.22	211.79
380.60	211.52
380.98	211.38
381.36	211.33
381.73	211.26
382.11	211.50
382.49	211.55
382.87	211.40
383.25	211.24
383.62	213.79
384.00	213.12
384.38	213.24
384.76	213.55
385.13	214.26
385.51	214.36
385.89	214.26
386.27	214.43
386.64	214.60
387.02	214.48
387.40	214.26
387.78	214.67
388.15	214.86
388.53	214.76
388.91	214.93
389.29	214.76
389.66	215.10
390.04	214.81
390.42	215.33
390.79	215.60
391.17	215.71
391.55	213.38
391.92	213.76
392.30	214.07
392.68	213.79
393.05	213.69
393.43	213.52
393.81	213.67
394.18	213.48
394.56	213.45
394.94	214.24
395.31	214.19
395.69	214.71
396.06	215.10
396.44	215.50
396.82	215.14
397.19	216.31
397.57	215.98
397.95	216.26
398.32	215.74
398.70	216.02
399.07	216.33
399.45	216.29
399.82	216.17
400.20	215.86
400.58	215.81
400.95	215.00
401.33	215.48
401.70	216.83
402.08	217.05
402.45	217.12
402.83	217.21
403.20	217.48
403.58	217.24
403.95	217.74
404.33	217.93
404.71	218.24
405.08	219.40
405.46	219.76
405.83	220.40
406.21	220.60
406.58	220.62
406.96	221.10
407.33	221.88
407.70	222.69
408.08	225.07
408.45	225.83
408.83	226.83
409.20	227.29
409.58	226.98
409.95	228.07
410.33	229.26
410.70	229.64
411.08	230.83
411.45	232.00
411.82	232.74
412.20	234.50
412.57	237.19
412.95	236.64
413.32	238.40
413.69	239.50
414.07	241.17
414.44	243.17
414.82	245.12
415.19	247.40
415.56	249.62
415.94	250.67
416.31	253.50
416.68	256.36
417.06	259.79
417.43	263.60
417.81	267.02
418.18	270.83
418.55	274.55
418.93	278.64
419.30	282.88
419.67	287.40
420.04	291.60
420.42	295.98
420.79	303.21
421.16	309.05
421.54	316.40
421.91	323.05
422.28	329.40
422.66	336.00
423.03	343.93
423.40	350.57
423.77	357.86
424.15	365.26
424.52	373.17
424.89	381.86
425.26	389.36
425.64	397.14
426.01	405.64
426.38	414.38
426.75	423.67
427.13	433.10
427.50	442.45
427.87	452.76
428.24	462.76
428.61	471.71
428.99	482.62
429.36	493.52
429.73	504.93
430.10	516.48
430.47	528.57
430.85	539.17
431.22	552.45
431.59	567.64
431.96	580.29
432.33	594.74
432.70	608.55
433.08	625.05
433.45	640.36
433.82	655.26
434.19	673.07
434.56	690.83
434.93	706.81
435.30	723.55
435.68	741.48
436.05	758.81
436.42	775.55
436.79	791.83
437.16	808.88
437.53	826.86
437.90	844.93
438.27	863.12
438.64	881.38
439.01	898.90
439.38	912.90
439.75	928.57
440.13	945.90
440.50	961.60
440.87	974.67
441.24	989.26
441.61	1004.60
441.98	1014.93
442.35	1026.38
442.72	1039.19
443.09	1052.21
443.46	1060.29
443.83	1065.95
444.20	1070.67
444.57	1076.71
444.94	1079.76
445.31	1083.38
445.68	1089.45
446.05	1091.38
446.42	1090.55
446.79	1088.95
447.16	1086.26
447.53	1085.12
447.90	1078.17
448.27	1071.81
448.64	1063.29
449.01	1055.88
449.37	1044.33
449.74	1033.43
450.11	1022.31
450.48	1007.60
450.85	991.55
451.22	978.33
451.59	966.40
451.96	955.74
452.33	940.10
452.70	926.12
453.07	908.98
453.43	888.67
453.80	871.31
454.17	855.45
454.54	840.14
454.91	824.29
455.28	808.00
455.65	792.79
456.02	781.17
456.38	767.83
456.75	752.26
457.12	738.74
457.49	726.14
457.86	711.86
458.23	701.60
458.59	689.76
458.96	677.71
459.33	666.00
459.70	654.57
460.07	646.02
460.43	636.17
460.80	627.12
461.17	619.62
461.54	611.36
461.91	602.83
462.27	594.10
462.64	586.88
463.01	578.98
463.38	572.50
463.74	561.57
464.11	554.81
464.48	549.00
464.85	542.40
465.21	537.69
465.58	532.38
465.95	525.52
466.32	520.81
466.68	515.31
467.05	510.38
467.42	505.17
467.78	499.57
468.15	494.36
468.52	490.64
468.88	484.95
469.25	479.71
469.62	476.48
469.98	472.76
470.35	469.71
470.72	466.19
471.08	461.38
471.45	458.69
471.82	456.14
472.18	452.55
472.55	450.14
472.92	446.38
473.28	443.24
473.65	440.79
474.02	438.05
474.38	436.10
474.75	433.98
475.11	431.50
475.48	429.86
475.85	427.90
476.21	426.02
476.58	425.31
476.94	424.43
477.31	423.07
477.67	421.43
478.04	419.83
478.41	418.86
478.77	420.21
479.14	418.60
479.50	417.52
479.87	417.40
480.23	417.50
480.60	417.21
480.96	417.45
481.33	418.05
481.69	418.07
482.06	418.48
482.42	418.93
482.79	419.90
483.15	420.38
483.52	421.67
483.88	421.83
484.25	422.07
484.61	422.74
484.98	423.24
485.34	424.95
485.71	426.69
486.07	427.88
486.44	427.69
486.80	430.07
487.17	432.07
487.53	434.19
487.90	436.00
488.26	439.10
488.62	441.79
488.99	443.64
489.35	446.64
489.72	448.90
490.08	452.21
490.44	454.57
490.81	458.14
491.17	461.24
491.54	465.10
491.90	469.07
492.26	473.02
492.63	477.02
492.99	480.40
493.36	484.14
493.72	488.86
494.08	492.86
494.45	497.90
494.81	502.86
495.17	507.50
495.54	513.19
495.90	517.67
496.26	522.40
496.63	528.19
496.99	533.43
497.35	539.31
497.72	544.90
498.08	550.95
498.44	556.40
498.80	562.69
499.17	568.76
499.53	574.81
499.89	581.86
500.26	588.55
500.62	595.17
500.98	602.67
501.34	609.50
501.71	617.60
502.07	624.07
502.43	630.98
502.79	637.74
503.16	644.05
503.52	651.45
503.88	658.14
504.24	665.31
504.60	672.93
504.97	680.95
505.33	688.36
505.69	696.86
506.05	705.33
506.41	713.12
506.78	720.52
507.14	728.29
507.50	735.76
507.86	743.86
508.22	752.24
508.59	759.55
508.95	767.79
509.31	776.17
509.67	784.21
510.03	792.29
510.39	800.69
510.75	808.79
511.12	816.26
511.48	824.79
511.84	832.05
512.20	839.69
512.56	846.86
512.92	854.98
513.28	862.14
513.64	869.36
514.00	877.21
514.37	885.52
514.73	893.62
515.09	900.81
515.45	907.67
515.81	914.74
516.17	921.93
516.53	928.31
516.89	933.81
517.25	940.60
517.61	947.57
517.97	954.12
518.33	960.36
518.69	967.50
519.05	974.31
519.41	980.88
519.77	988.07
520.13	994.98
520.49	1000.64
520.85	1006.62
521.21	1013.36
521.57	1018.90
521.93	1023.43
522.29	1028.69
522.65	1033.83
523.01	1039.55
523.37	1045.05
523.73	1050.17
524.09	1055.19
524.45	1061.12
524.81	1065.76
525.17	1070.64
525.53	1075.79
525.89	1081.50
526.25	1085.98
526.61	1090.29
526.97	1095.36
527.33	1099.88
527.68	1105.33
528.04	1109.81
528.40	1114.40
528.76	1118.74
529.12	1123.05
529.48	1129.29
529.84	1133.38
530.20	1138.67
530.56	1143.36
530.91	1147.74
531.27	1152.71
531.63	1157.67
531.99	1161.71
532.35	1165.79
532.71	1169.55
533.07	1173.76
533.42	1179.74
533.78	1184.21
534.14	1188.83
534.50	1193.48
534.86	1198.17
535.21	1200.90
535.57	1205.67
535.93	1209.19
536.29	1213.17
536.65	1217.52
537.00	1220.60
537.36	1223.57
537.72	1226.45
538.08	1230.21
538.44	1232.93
538.79	1236.67
539.15	1239.98
539.51	1243.62
539.87	1248.14
540.22	1252.31
540.58	1255.62
540.94	1257.57
541.29	1260.98
541.65	1263.05
542.01	1266.33
542.37	1268.81
542.72	1271.86
543.08	1273.76
543.44	1277.81
543.79	1279.33
544.15	1281.90
544.51	1285.50
544.87	1290.24
545.22	1294.10
545.58	1297.10
545.94	1300.62
546.29	1302.93
546.65	1305.00
547.01	1307.21
547.36	1309.69
547.72	1312.33
548.07	1315.79
548.43	1317.95
548.79	1320.69
549.14	1323.83
549.50	1326.93
549.86	1329.21
550.21	1332.48
550.57	1336.36
550.92	1338.26
551.28	1342.07
551.64	1344.95
551.99	1347.02
552.35	1349.24
552.70	1351.48
553.06	1354.60
553.41	1358.62
553.77	1363.21
554.13	1367.88
554.48	1373.38
554.84	1377.93
555.19	1381.50
555.55	1386.43
555.90	1390.38
556.26	1393.98
556.61	1398.10
556.97	1401.02
557.32	1405.12
557.68	1409.26
558.03	1413.36
558.39	1417.90
558.74	1421.95
559.10	1426.36
559.45	1430.98
559.81	1435.55
560.16	1440.21
560.52	1444.69
560.87	1449.67
561.23	1453.19
561.58	1459.36
561.94	1462.45
562.29	1466.48
562.64	1472.02
563.00	1475.33
563.35	1479.98
563.71	1485.48
564.06	1490.62
564.42	1495.88
564.77	1502.10
565.12	1507.81
565.48	1515.05
565.83	1520.86
566.19	1527.00
566.54	1532.50
566.89	1538.88
567.25	1545.57
567.60	1553.14
567.96	1560.93
568.31	1567.48
568.66	1573.83
569.02	1576.95
569.37	1582.14
569.72	1587.00
570.08	1591.14
570.43	1596.64
570.78	1602.24
571.14	1607.52
571.49	1612.67
571.84	1618.33
572.20	1621.98
572.55	1627.19
572.90	1630.14
573.26	1634.55
573.61	1639.07
573.96	1644.64
574.31	1648.79
574.67	1652.14
575.02	1654.98
575.37	1657.19
575.72	1658.55
576.08	1662.24
576.43	1666.79
576.78	1671.10
577.13	1674.69
577.49	1678.64
577.84	1682.14
578.19	1686.38
578.54	1690.69
578.90	1694.81
579.25	1697.83
579.60	1701.48
579.95	1703.02
580.30	1705.83
580.66	1709.69
581.01	1712.64
581.36	1714.52
581.71	1716.74
582.06	1721.36
582.42	1724.10
582.77	1725.69
583.12	1729.19
583.47	1731.79
583.82	1734.64
584.17	1737.02
584.53	1740.90
584.88	1742.50
585.23	1745.12
585.58	1747.24
585.93	1747.93
586.28	1750.19
586.63	1753.14
586.98	1755.17
587.34	1759.43
587.69	1761.71
588.04	1763.45
588.39	1765.60
588.74	1767.07
589.09	1769.33
589.44	1768.88
589.79	1770.43
590.14	1773.64
590.49	1775.19
590.84	1775.00
591.19	1776.29
591.54	1777.33
591.89	1777.31
592.25	1781.24
592.60	1781.29
592.95	1782.02
593.30	1784.21
593.65	1783.81
594.00	1783.52
594.35	1791.02
594.70	1790.02
595.05	1791.00
595.40	1791.29
595.75	1791.76
596.10	1792.60
596.45	1792.95
596.80	1793.29
597.15	1793.60
597.50	1792.38
597.85	1793.88
598.19	1795.31
598.54	1795.52
598.89	1795.55
599.24	1796.60
599.59	1795.02
599.94	1794.98
600.29	1794.50
600.64	1792.67
600.99	1793.33
601.34	1794.07
601.69	1787.12
602.04	1786.17
602.39	1784.95
602.74	1784.29
603.08	1782.95
603.43	1783.69
603.78	1783.07
604.13	1783.17
604.48	1781.98
604.83	1781.67
605.18	1780.24
605.53	1779.90
605.87	1777.95
606.22	1776.55
606.57	1773.69
606.92	1771.86
607.27	1771.29
607.62	1770.50
607.96	1769.40
608.31	1767.57
608.66	1765.93
609.01	1763.79
609.36	1761.90
609.70	1761.00
610.05	1758.07
610.40	1755.93
610.75	1751.67
611.10	1749.21
611.44	1746.24
611.79	1743.79
612.14	1740.98
612.49	1736.48
612.83	1731.76
613.18	1729.38
613.53	1726.21
613.88	1723.07
614.22	1719.10
614.57	1714.48
614.92	1709.90
615.27	1705.86
615.61	1701.00
615.96	1696.24
616.31	1691.69
616.65	1689.17
617.00	1685.17
617.35	1681.86
617.70	1677.88
618.04	1674.14
618.39	1669.31
618.74	1664.79
619.08	1659.48
619.43	1655.17
619.78	1651.00
620.12	1647.07
620.47	1642.33
620.82	1636.90
621.16	1632.21
621.51	1629.38
621.85	1624.33
622.20	1619.12
622.55	1614.67
622.89	1611.26
623.24	1607.00
623.59	1602.33
623.93	1597.45
624.28	1591.88
624.62	1589.38
624.97	1586.74
625.32	1582.69
625.66	1578.48
626.01	1573.52
626.35	1569.98
626.70	1564.76
627.04	1561.90
627.39	1557.48
627.73	1553.67
628.08	1550.55
628.43	1545.81
628.77	1540.62
629.12	1537.12
629.46	1533.36
629.81	1529.67
630.15	1524.21
630.50	1518.93
630.84	1514.24
631.19	1508.57
631.53	1503.67
631.88	1496.00
632.22	1488.07
632.57	1482.93
632.91	1476.64
633.26	1472.05
633.60	1466.69
633.95	1461.19
634.29	1454.26
634.64	1449.74
634.98	1443.76
635.32	1438.95
635.67	1435.33
636.01	1430.14
636.36	1424.79
636.70	1420.55
637.05	1415.48
637.39	1411.31
637.73	1406.64
638.08	1403.10
638.42	1398.10
638.77	1393.24
639.11	1388.45
639.45	1383.69
639.80	1377.81
640.14	1373.40
640.49	1366.93
640.83	1361.29
641.17	1356.71
641.52	1351.52
641.86	1345.40
642.20	1340.71
642.55	1334.02
642.89	1327.64
643.23	1320.79
643.58	1315.88
643.92	1308.67
644.26	1302.38
644.61	1295.40
644.95	1288.52
645.29	1281.38
645.64	1274.83
645.98	1268.10
646.32	1262.26
646.66	1255.07
647.01	1248.57
647.35	1242.24
647.69	1237.00
648.04	1231.33
648.38	1225.36
648.72	1219.14
649.06	1212.67
649.41	1205.29
649.75	1199.17
650.09	1192.55
650.43	1186.55
650.78	1179.05
651.12	1172.88
651.46	1166.10
651.80	1160.00
652.14	1153.79
652.49	1147.76
652.83	1141.95
653.17	1135.24
653.51	1128.14
653.85	1122.88
654.20	1117.02
654.54	1110.17
654.88	1102.86
655.22	1096.76
655.56	1089.55
655.90	1083.31
656.25	1077.14
656.59	1070.67
656.93	1063.98
657.27	1058.19
657.61	1050.83
657.95	1045.40
658.29	1038.95
658.64	1032.83
658.98	1026.36
659.32	1019.62
659.66	1012.83
660.00	1006.26
660.34	999.95
660.68	993.10
661.02	986.29
661.36	979.45
661.70	973.90
662.05	967.98
662.39	961.43
662.73	955.90
663.07	950.45
663.41	943.98
663.75	937.40
664.09	931.52
664.43	925.14
664.77	920.45
665.11	913.45
665.45	907.55
665.79	901.74
666.13	895.45
666.47	889.45
666.81	883.69
667.15	877.02
667.49	871.71
667.83	867.00
668.17	861.43
668.51	855.86
668.85	850.24
669.19	845.76
669.53	839.69
669.87	834.21
670.21	828.19
670.55	822.62
670.89	818.40
671.23	813.67
671.57	807.76
671.91	801.79
672.25	797.24
672.58	793.00
672.92	787.55
673.26	782.64
673.60	778.43
673.94	773.57
674.28	769.43
674.62	764.69
674.96	759.76
675.30	755.29
675.64	750.33
675.97	745.10
676.31	739.40
676.65	734.26
676.99	729.76
677.33	724.76
677.67	720.31
678.01	714.79
678.34	709.62
678.68	705.69
679.02	701.33
679.36	696.00
679.70	690.38
680.04	685.62
680.37	681.33
680.71	676.24
681.05	671.62
681.39	667.26
681.73	662.40
682.06	657.76
682.40	653.45
682.74	649.95
683.08	645.95
683.42	641.17
683.75	637.29
684.09	632.64
684.43	627.74
684.77	623.10
685.10	618.76
685.44	614.00
685.78	609.43
686.12	605.12
686.45	600.95
686.79	596.93
687.13	593.10
687.46	588.43
687.80	585.14
688.14	580.86
688.48	576.83
688.81	573.12
689.15	569.40
689.49	564.95
689.82	560.26
690.16	555.71
690.50	552.26
690.83	548.19
691.17	543.48
691.51	540.19
691.84	537.17
692.18	533.50
692.52	530.17
692.85	526.79
693.19	523.86
693.52	519.98
693.86	515.55
694.20	511.43
694.53	508.19
694.87	503.88
695.21	500.07
695.54	496.57
695.88	492.14
696.21	488.24
696.55	484.98
696.88	481.83
697.22	478.67
697.56	475.48
697.89	471.98
698.23	469.17
698.56	465.64
698.90	462.38
699.23	458.88
699.57	455.45
699.90	452.26
700.24	448.69
700.58	446.21
700.91	444.29
701.25	443.29
701.58	440.57
701.92	438.21
702.25	435.62
702.59	432.31
702.92	429.98
703.26	427.40
703.59	425.00
703.93	424.00
704.26	421.52
704.60	419.14
704.93	416.76
705.26	414.17
705.60	412.29
705.93	409.36
706.27	408.02
706.60	405.88
706.94	404.07
707.27	401.26
707.61	398.90
707.94	396.05
708.27	392.07
708.61	389.71
708.94	387.00
709.28	384.81
709.61	382.76
709.94	381.10
710.28	378.83
710.61	376.64
710.95	372.86
711.28	372.62
711.61	370.48
711.95	369.14
712.28	367.02
712.61	364.60
712.95	363.81
713.28	362.69
713.61	361.07
713.95	358.62
714.28	357.31
714.61	355.50
714.95	353.79
715.28	352.14
715.61	350.10
715.95	348.95
716.28	347.17
716.61	346.02
716.95	344.02
717.28	342.21
717.61	340.31
717.94	338.62
718.28	335.00
718.61	333.07
718.94	330.90
719.27	329.38
719.61	327.98
719.94	325.60
720.27	322.79
720.60	321.10
720.94	319.69
721.27	318.38
721.60	317.02
721.93	315.60
722.27	314.90
722.60	314.12
722.93	312.33
723.26	311.24
723.59	309.50
723.93	308.71
724.26	307.93
724.59	307.05
724.92	305.88
725.25	305.71
725.59	304.83
725.92	304.07
726.25	302.93
726.58	302.14
726.91	301.26
727.24	300.40
727.57	299.26
727.91	298.05
728.24	297.21
728.57	296.21
728.90	295.64
729.23	293.88
729.56	293.81
729.89	293.00
730.22	291.95
730.55	290.88
730.89	289.57
731.22	288.60
731.55	287.86
731.88	287.17
732.21	285.81
732.54	284.69
732.87	283.95
733.20	283.31
733.53	282.43
733.86	281.74
734.19	281.10
734.52	280.67
734.85	281.33
735.18	279.95
735.51	279.69
735.84	279.17
736.17	279.21
736.50	277.38
736.83	279.12
737.16	278.48
737.49	278.05
737.82	277.50
738.15	277.02
738.48	276.12
738.81	275.33
739.14	274.36
739.47	273.86
739.80	272.90
740.13	272.43
740.46	271.40
740.79	270.26
741.12	269.50
741.45	268.50
741.78	266.71
742.11	267.19
742.44	266.02
742.77	265.57
743.10	264.50
743.43	263.93
743.75	261.02
744.08	262.93
744.41	261.98
744.74	261.26
745.07	260.07
745.40	259.83
745.73	260.19
746.06	259.74
746.39	259.52
746.71	258.69
747.04	258.02
747.37	257.62
747.70	257.55
748.03	257.14
748.36	257.17
748.68	256.62
749.01	255.07
749.34	254.93
749.67	254.31
750.00	254.02
750.33	255.26
750.65	255.36
750.98	252.48
751.31	252.26
751.64	251.86
751.97	253.07
752.29	252.48
752.62	251.21
752.95	250.74
753.28	249.90
753.60	249.60
753.93	249.62
754.26	249.33
754.59	248.40
754.91	247.69
755.24	247.07
755.57	246.71
755.90	246.29
756.22	245.81
756.55	244.98
756.88	244.31
757.20	242.07
757.53	240.93
757.86	240.62
758.19	240.62
758.51	240.14
758.84	238.05
759.17	237.64
759.49	237.24
759.82	237.88
760.15	237.81
760.47	237.36
760.80	236.57
761.13	236.55
761.45	236.17
761.78	235.81
762.11	235.38
762.43	234.93
762.76	234.74
763.08	234.50
763.41	234.64
763.74	234.43
764.06	234.31
764.39	234.07
764.71	233.93
765.04	233.07
765.37	232.88
765.69	232.81
766.02	232.60
766.34	232.26
766.67	231.48
767.00	231.71
767.32	232.86
767.65	233.93
767.97	233.50
768.30	233.74
768.62	233.52
768.95	233.29
769.27	232.88
769.60	233.07
769.92	232.64
770.25	231.67
770.57	231.05
770.90	230.81
771.22	230.60
771.55	230.40
771.87	230.36
772.20	230.10
772.52	231.69
772.85	233.74
773.17	233.79
773.50	233.48
773.82	232.90
774.15	231.86
774.47	230.33
774.80	229.76
775.12	229.52
775.45	229.29
775.77	229.14
776.09	229.26
776.42	229.05
776.74	229.38
777.07	229.48
777.39	229.40
777.72	229.12
778.04	229.14
778.36	228.57
778.69	228.69
779.01	228.64
779.33	226.90
779.66	224.48
779.98	224.12
780.31	223.76
780.63	224.48
780.95	224.38
781.28	224.33
781.60	224.33
781.92	224.26
782.25	224.21
782.57	224.05
782.89	223.81
783.22	223.55
783.54	223.02
783.86	223.12
784.19	223.17
784.51	223.79
784.83	223.48
785.16	223.19
