SpectraSuite Data File
++++++++++++++++++++++++++++++++++++
Date: Tue Apr 02 18:45:37 EDT 2013
User: group
Dark Spectrum Present: No
Reference Spectrum Present: No
Number of Sampled Component Spectra: 1
Spectrometers: USB2E7196
Integration Time (usec): 580000 (USB2E7196)
Spectra Averaged: 2 (USB2E7196)
Boxcar Smoothing: 10 (USB2E7196)
Correct for Electrical Dark: No (USB2E7196)
Strobe/Lamp Enabled: No (USB2E7196)
Correct for Detector Non-linearity: No (USB2E7196)
Correct for Stray Light: No (USB2E7196)
Number of Pixels in Processed Spectrum: 2048
>>>>>Begin Processed Spectral Data<<<<<
339.09	0.00
339.48	193.00
339.86	192.00
340.24	193.50
340.63	194.00
341.01	231.50
341.39	199.50
341.78	202.50
342.16	208.00
342.54	200.50
342.93	195.40
343.31	205.21
343.69	205.71
344.07	206.26
344.46	206.98
344.84	207.76
345.22	206.36
345.60	206.88
345.99	207.19
346.37	207.17
346.75	207.50
347.13	207.76
347.52	207.90
347.90	208.67
348.28	208.81
348.66	209.36
349.05	208.93
349.43	209.02
349.81	209.40
350.19	209.69
350.57	209.98
350.96	210.31
351.34	210.57
351.72	210.71
352.10	210.81
352.48	210.83
352.87	210.57
353.25	210.93
353.63	210.81
354.01	210.83
354.39	211.00
354.77	210.90
355.15	211.50
355.54	211.26
355.92	210.83
356.30	210.83
356.68	212.29
357.06	212.19
357.44	211.98
357.82	211.93
358.20	212.93
358.58	212.98
358.97	213.31
359.35	213.71
359.73	214.38
360.11	214.71
360.49	215.00
360.87	215.12
361.25	215.60
361.63	216.38
362.01	216.79
362.39	216.74
362.77	217.17
363.15	217.10
363.53	217.29
363.91	217.40
364.29	217.48
364.67	215.48
365.05	216.05
365.43	216.50
365.81	216.86
366.19	216.98
366.57	217.71
366.95	217.40
367.33	217.02
367.71	217.02
368.09	217.45
368.47	217.36
368.85	217.62
369.23	217.93
369.61	217.48
369.99	217.81
370.37	218.26
370.75	219.24
371.13	218.79
371.51	218.62
371.89	219.05
372.27	219.26
372.65	219.60
373.03	219.45
373.41	219.43
373.78	219.24
374.16	218.12
374.54	217.48
374.92	217.60
375.30	217.81
375.68	217.33
376.06	217.33
376.44	217.05
376.82	217.21
377.19	216.90
377.57	216.64
377.95	215.90
378.33	215.74
378.71	214.55
379.09	214.76
379.47	214.98
379.84	214.50
380.22	214.31
380.60	213.67
380.98	213.60
381.36	213.45
381.73	213.24
382.11	213.45
382.49	213.55
382.87	213.19
383.25	213.07
383.62	215.40
384.00	214.93
384.38	215.45
384.76	215.60
385.13	216.36
385.51	216.36
385.89	216.21
386.27	216.45
386.64	216.60
387.02	216.52
387.40	216.29
387.78	216.52
388.15	216.76
388.53	217.02
388.91	217.05
389.29	217.02
389.66	217.19
390.04	216.90
390.42	217.17
390.79	217.17
391.17	217.00
391.55	214.88
391.92	214.93
392.30	214.76
392.68	214.24
393.05	213.90
393.43	213.86
393.81	214.17
394.18	213.60
394.56	213.86
394.94	214.31
395.31	214.14
395.69	214.55
396.06	214.76
396.44	214.90
396.82	214.69
397.19	215.74
397.57	215.55
397.95	215.98
398.32	215.26
398.70	215.60
399.07	215.98
399.45	215.98
399.82	215.88
400.20	215.67
400.58	215.86
400.95	215.26
401.33	215.69
401.70	217.10
402.08	217.19
402.45	217.26
402.83	217.55
403.20	218.00
403.58	217.93
403.95	218.12
404.33	218.40
404.71	218.71
405.08	219.74
405.46	220.14
405.83	220.52
406.21	221.02
406.58	221.31
406.96	221.45
407.33	222.02
407.70	222.83
408.08	225.07
408.45	225.86
408.83	226.95
409.20	227.55
409.58	227.10
409.95	228.05
410.33	228.98
410.70	229.29
411.08	230.60
411.45	231.52
411.82	232.29
412.20	233.93
412.57	236.29
412.95	235.95
413.32	237.69
413.69	239.14
414.07	240.69
414.44	242.64
414.82	244.95
415.19	247.02
415.56	249.14
415.94	250.52
416.31	253.55
416.68	256.36
417.06	259.48
417.43	263.02
417.81	266.74
418.18	270.31
418.55	274.12
418.93	277.93
419.30	282.00
419.67	286.71
420.04	290.90
420.42	295.10
420.79	302.00
421.16	307.31
421.54	313.93
421.91	320.10
422.28	326.10
422.66	332.10
423.03	340.14
423.40	346.69
423.77	353.45
424.15	360.55
424.52	367.88
424.89	376.55
425.26	384.07
425.64	392.05
426.01	400.14
426.38	408.79
426.75	418.31
427.13	427.67
427.50	436.71
427.87	447.00
428.24	456.79
428.61	465.24
428.99	476.83
429.36	487.29
429.73	498.62
430.10	510.40
430.47	522.79
430.85	532.95
431.22	545.33
431.59	560.29
431.96	572.83
432.33	587.57
432.70	600.98
433.08	616.76
433.45	631.33
433.82	646.57
434.19	663.62
434.56	680.19
434.93	695.98
435.30	711.98
435.68	728.95
436.05	745.90
436.42	762.86
436.79	778.26
437.16	794.88
437.53	812.33
437.90	828.93
438.27	845.60
438.64	863.88
439.01	881.24
439.38	894.83
439.75	909.57
440.13	925.83
440.50	941.43
440.87	955.00
441.24	968.74
441.61	983.76
441.98	994.45
442.35	1005.95
442.72	1018.38
443.09	1031.40
443.46	1038.98
443.83	1044.24
444.20	1048.95
444.57	1054.62
444.94	1058.14
445.31	1062.19
445.68	1068.71
446.05	1070.79
446.42	1069.14
446.79	1068.29
447.16	1066.29
447.53	1065.43
447.90	1058.36
448.27	1052.05
448.64	1043.07
449.01	1036.38
449.37	1024.90
449.74	1013.62
450.11	1002.95
450.48	988.36
450.85	972.98
451.22	960.21
451.59	949.12
451.96	937.60
452.33	922.52
452.70	908.93
453.07	891.81
453.43	872.33
453.80	855.90
454.17	840.40
454.54	824.76
454.91	808.45
455.28	792.31
455.65	778.33
456.02	767.12
456.38	754.33
456.75	739.43
457.12	726.10
457.49	713.86
457.86	699.50
458.23	689.93
458.59	678.29
458.96	666.76
459.33	655.79
459.70	645.24
460.07	636.95
460.43	627.07
460.80	618.64
461.17	611.50
461.54	603.62
461.91	595.93
462.27	587.98
462.64	581.40
463.01	573.71
463.38	567.45
463.74	556.48
464.11	549.98
464.48	543.98
464.85	537.98
465.21	533.62
465.58	528.67
465.95	522.00
466.32	517.55
466.68	512.33
467.05	507.10
467.42	502.05
467.78	496.64
468.15	491.86
468.52	488.02
468.88	481.98
469.25	477.19
469.62	473.95
469.98	469.55
470.35	466.14
470.72	462.76
471.08	457.79
471.45	455.17
471.82	452.38
472.18	448.95
472.55	446.45
472.92	442.43
473.28	439.52
473.65	436.50
474.02	433.38
474.38	431.81
474.75	429.93
475.11	427.64
475.48	426.07
475.85	424.17
476.21	422.33
476.58	420.88
476.94	419.62
477.31	418.02
477.67	417.17
478.04	415.76
478.41	415.50
478.77	416.62
479.14	415.43
479.50	414.57
479.87	414.21
480.23	413.40
480.60	413.45
480.96	413.50
481.33	414.93
481.69	414.90
482.06	414.62
482.42	415.07
482.79	415.74
483.15	416.02
483.52	417.40
483.88	417.57
484.25	418.62
484.61	419.50
484.98	420.05
485.34	421.71
485.71	423.26
486.07	424.07
486.44	423.81
486.80	425.55
487.17	426.90
487.53	429.38
487.90	431.90
488.26	434.86
488.62	437.31
488.99	438.55
489.35	441.19
489.72	443.98
490.08	446.57
490.44	449.57
490.81	452.62
491.17	455.40
491.54	458.79
491.90	462.62
492.26	465.98
492.63	469.98
492.99	473.64
493.36	477.86
493.72	482.29
494.08	487.00
494.45	491.86
494.81	497.17
495.17	501.38
495.54	506.55
495.90	510.90
496.26	515.52
496.63	521.14
496.99	526.64
497.35	532.26
497.72	538.05
498.08	543.88
498.44	550.24
498.80	556.12
499.17	562.45
499.53	568.62
499.89	575.83
500.26	582.81
500.62	589.21
500.98	596.24
501.34	602.67
501.71	609.31
502.07	616.45
502.43	623.43
502.79	630.64
503.16	637.60
503.52	644.83
503.88	652.21
504.24	659.86
504.60	667.24
504.97	675.12
505.33	682.52
505.69	690.76
506.05	698.14
506.41	706.31
506.78	713.88
507.14	721.38
507.50	728.21
507.86	735.57
508.22	743.52
508.59	750.76
508.95	758.76
509.31	768.12
509.67	775.95
510.03	783.60
510.39	791.74
510.75	799.48
511.12	807.24
511.48	815.38
511.84	822.52
512.20	830.90
512.56	838.33
512.92	846.40
513.28	853.95
513.64	860.95
514.00	868.10
514.37	876.05
514.73	883.31
515.09	891.40
515.45	898.29
515.81	904.98
516.17	912.45
516.53	919.19
516.89	923.95
517.25	930.14
517.61	937.55
517.97	943.71
518.33	950.24
518.69	956.74
519.05	962.76
519.41	969.71
519.77	976.24
520.13	981.86
520.49	986.98
520.85	992.24
521.21	999.33
521.57	1005.86
521.93	1010.24
522.29	1016.07
522.65	1020.88
523.01	1026.76
523.37	1031.83
523.73	1036.81
524.09	1041.93
524.45	1046.93
524.81	1051.60
525.17	1056.33
525.53	1060.52
525.89	1065.00
526.25	1069.62
526.61	1073.74
526.97	1077.02
527.33	1081.17
527.68	1087.26
528.04	1092.38
528.40	1096.50
528.76	1099.90
529.12	1103.48
529.48	1108.69
529.84	1112.57
530.20	1117.14
530.56	1121.88
530.91	1126.33
531.27	1129.95
531.63	1134.67
531.99	1139.43
532.35	1143.10
532.71	1145.76
533.07	1150.36
533.42	1156.48
533.78	1160.74
534.14	1165.33
534.50	1170.05
534.86	1174.24
535.21	1176.00
535.57	1180.31
535.93	1183.79
536.29	1188.98
536.65	1193.29
537.00	1196.67
537.36	1200.62
537.72	1203.62
538.08	1206.50
538.44	1209.69
538.79	1213.67
539.15	1216.33
539.51	1220.02
539.87	1223.86
540.22	1228.14
540.58	1231.76
540.94	1233.36
541.29	1236.29
541.65	1238.00
542.01	1241.38
542.37	1242.69
542.72	1245.07
543.08	1246.88
543.44	1250.12
543.79	1250.71
544.15	1252.50
544.51	1255.40
544.87	1257.74
545.22	1261.17
545.58	1264.07
545.94	1266.95
546.29	1269.29
546.65	1271.64
547.01	1273.69
547.36	1275.86
547.72	1277.71
548.07	1279.93
548.43	1281.55
548.79	1283.88
549.14	1287.05
549.50	1289.05
549.86	1291.48
550.21	1294.48
550.57	1297.33
550.92	1299.83
551.28	1303.60
551.64	1306.36
551.99	1309.52
552.35	1312.36
552.70	1314.26
553.06	1316.95
553.41	1320.26
553.77	1324.57
554.13	1327.33
554.48	1331.86
554.84	1336.40
555.19	1339.48
555.55	1343.60
555.90	1347.50
556.26	1351.12
556.61	1355.21
556.97	1357.62
557.32	1361.67
557.68	1365.83
558.03	1369.50
558.39	1373.05
558.74	1377.02
559.10	1380.93
559.45	1384.95
559.81	1388.50
560.16	1392.36
560.52	1396.36
560.87	1400.60
561.23	1403.74
561.58	1410.00
561.94	1412.52
562.29	1416.98
562.64	1422.93
563.00	1426.60
563.35	1431.07
563.71	1434.98
564.06	1440.07
564.42	1445.69
564.77	1452.02
565.12	1458.33
565.48	1465.45
565.83	1470.93
566.19	1476.40
566.54	1481.12
566.89	1486.21
567.25	1493.17
567.60	1501.52
567.96	1509.48
568.31	1516.26
568.66	1522.93
569.02	1526.71
569.37	1532.86
569.72	1537.62
570.08	1541.60
570.43	1547.12
570.78	1552.81
571.14	1559.19
571.49	1563.74
571.84	1569.64
572.20	1573.31
572.55	1577.64
572.90	1580.86
573.26	1586.21
573.61	1590.14
573.96	1595.71
574.31	1599.21
574.67	1602.98
575.02	1605.12
575.37	1607.31
575.72	1610.38
576.08	1613.10
576.43	1617.76
576.78	1621.43
577.13	1624.81
577.49	1629.45
577.84	1633.83
578.19	1637.43
578.54	1641.57
578.90	1645.60
579.25	1648.76
579.60	1652.90
579.95	1655.50
580.30	1659.36
580.66	1663.38
581.01	1667.29
581.36	1670.88
581.71	1675.48
582.06	1679.93
582.42	1683.45
582.77	1686.24
583.12	1689.36
583.47	1693.14
583.82	1696.67
584.17	1699.19
584.53	1703.60
584.88	1707.40
585.23	1710.62
585.58	1713.26
585.93	1715.29
586.28	1718.26
586.63	1721.86
586.98	1725.36
587.34	1729.52
587.69	1732.07
588.04	1734.36
588.39	1736.81
588.74	1737.12
589.09	1739.40
589.44	1739.55
589.79	1741.38
590.14	1743.71
590.49	1745.10
590.84	1746.79
591.19	1748.88
591.54	1751.95
591.89	1752.88
592.25	1755.29
592.60	1756.29
592.95	1758.43
593.30	1759.71
593.65	1761.26
594.00	1761.90
594.35	1767.81
594.70	1767.71
595.05	1768.55
595.40	1768.48
595.75	1769.10
596.10	1772.00
596.45	1773.26
596.80	1775.90
597.15	1777.38
597.50	1777.55
597.85	1779.31
598.19	1779.29
598.54	1779.26
598.89	1779.31
599.24	1780.12
599.59	1779.57
599.94	1779.48
600.29	1779.60
600.64	1780.67
600.99	1780.48
601.34	1781.81
601.69	1777.19
602.04	1777.21
602.39	1776.36
602.74	1777.67
603.08	1777.38
603.43	1777.67
603.78	1777.24
604.13	1775.90
604.48	1775.26
604.83	1775.52
605.18	1774.12
605.53	1774.81
605.87	1774.62
606.22	1773.29
606.57	1772.36
606.92	1771.12
607.27	1770.79
607.62	1769.90
607.96	1769.36
608.31	1769.50
608.66	1767.71
609.01	1765.98
609.36	1765.86
609.70	1765.05
610.05	1761.69
610.40	1760.83
610.75	1758.40
611.10	1756.10
611.44	1753.67
611.79	1751.90
612.14	1749.12
612.49	1746.26
612.83	1743.43
613.18	1740.76
613.53	1738.50
613.88	1735.14
614.22	1731.60
614.57	1727.40
614.92	1723.74
615.27	1719.88
615.61	1715.17
615.96	1711.88
616.31	1708.05
616.65	1705.43
617.00	1702.79
617.35	1700.60
617.70	1696.76
618.04	1693.31
618.39	1689.71
618.74	1686.86
619.08	1682.52
619.43	1679.38
619.78	1677.17
620.12	1673.57
620.47	1670.07
620.82	1666.05
621.16	1662.29
621.51	1660.36
621.85	1658.10
622.20	1654.45
622.55	1649.64
622.89	1645.76
623.24	1643.02
623.59	1639.57
623.93	1634.64
624.28	1630.76
624.62	1628.00
624.97	1625.76
625.32	1622.38
625.66	1618.05
626.01	1614.02
626.35	1610.40
626.70	1606.55
627.04	1602.83
627.39	1599.36
627.73	1595.36
628.08	1592.21
628.43	1588.81
628.77	1583.62
629.12	1579.40
629.46	1576.60
629.81	1574.19
630.15	1569.83
630.50	1563.86
630.84	1559.64
631.19	1554.90
631.53	1549.86
631.88	1543.33
632.22	1537.29
632.57	1533.29
632.91	1528.57
633.26	1524.67
633.60	1520.52
633.95	1516.00
634.29	1510.71
634.64	1506.12
634.98	1500.40
635.32	1496.43
635.67	1492.81
636.01	1488.86
636.36	1482.98
636.70	1477.79
637.05	1472.19
637.39	1468.26
637.73	1464.83
638.08	1460.98
638.42	1456.62
638.77	1453.05
639.11	1448.62
639.45	1443.07
639.80	1437.05
640.14	1432.76
640.49	1427.00
640.83	1421.64
641.17	1417.40
641.52	1412.50
641.86	1407.19
642.20	1403.52
642.55	1397.26
642.89	1390.55
643.23	1384.79
643.58	1381.10
643.92	1374.93
644.26	1369.36
644.61	1364.12
644.95	1358.38
645.29	1351.67
645.64	1346.10
645.98	1339.90
646.32	1335.05
646.66	1329.98
647.01	1324.40
647.35	1319.24
647.69	1313.64
648.04	1308.19
648.38	1301.83
648.72	1295.81
649.06	1290.02
649.41	1283.21
649.75	1277.10
650.09	1271.98
650.43	1266.26
650.78	1260.02
651.12	1254.79
651.46	1248.79
651.80	1242.64
652.14	1236.26
652.49	1231.31
652.83	1225.60
653.17	1218.52
653.51	1212.19
653.85	1206.79
654.20	1200.50
654.54	1194.17
654.88	1187.90
655.22	1182.19
655.56	1175.62
655.90	1169.98
656.25	1163.45
656.59	1158.07
656.93	1152.45
657.27	1147.17
657.61	1140.74
657.95	1134.86
658.29	1129.14
658.64	1123.83
658.98	1117.40
659.32	1111.10
659.66	1104.31
660.00	1097.88
660.34	1092.69
660.68	1086.50
661.02	1079.86
661.36	1074.29
661.70	1068.12
662.05	1062.69
662.39	1056.45
662.73	1051.48
663.07	1046.19
663.41	1040.17
663.75	1034.50
664.09	1028.86
664.43	1021.93
664.77	1015.83
665.11	1008.93
665.45	1002.55
665.79	996.76
666.13	991.12
666.47	985.14
666.81	979.55
667.15	973.98
667.49	968.55
667.83	963.31
668.17	958.45
668.51	953.12
668.85	948.07
669.19	943.24
669.53	937.17
669.87	930.90
670.21	924.31
670.55	918.12
670.89	913.00
671.23	907.31
671.57	901.74
671.91	896.62
672.25	891.83
672.58	887.33
672.92	881.29
673.26	875.64
673.60	870.60
673.94	865.29
674.28	860.12
674.62	855.36
674.96	850.45
675.30	844.48
675.64	839.00
675.97	833.67
676.31	827.71
676.65	822.52
676.99	818.26
677.33	813.29
677.67	808.86
678.01	803.24
678.34	798.60
678.68	794.55
679.02	789.67
679.36	784.40
679.70	778.64
680.04	774.05
680.37	769.71
680.71	764.86
681.05	760.48
681.39	755.57
681.73	749.69
682.06	744.45
682.40	740.50
682.74	736.21
683.08	731.45
683.42	726.40
683.75	722.02
684.09	717.12
684.43	712.36
684.77	707.76
685.10	703.17
685.44	698.38
685.78	693.45
686.12	688.81
686.45	684.02
686.79	679.40
687.13	675.57
687.46	670.67
687.80	666.81
688.14	662.05
688.48	658.07
688.81	654.05
689.15	650.10
689.49	645.05
689.82	640.36
690.16	635.55
690.50	631.55
690.83	626.71
691.17	621.67
691.51	617.90
691.84	614.21
692.18	609.76
692.52	605.38
692.85	601.62
693.19	597.98
693.52	594.29
693.86	590.02
694.20	585.57
694.53	581.88
694.87	577.10
695.21	572.74
695.54	568.24
695.88	563.69
696.21	559.02
696.55	555.07
696.88	551.29
697.22	547.21
697.56	543.60
697.89	540.40
698.23	537.24
698.56	533.07
698.90	529.24
699.23	525.26
699.57	521.71
699.90	517.19
700.24	512.83
700.58	509.02
700.91	505.64
701.25	503.90
701.58	501.50
701.92	499.02
702.25	495.95
702.59	492.19
702.92	489.52
703.26	486.64
703.59	483.60
703.93	482.29
704.26	479.67
704.60	476.38
704.93	473.17
705.26	469.74
705.60	467.12
705.93	463.71
706.27	461.48
706.60	459.00
706.94	457.00
707.27	453.90
707.61	451.31
707.94	448.67
708.27	443.98
708.61	439.93
708.94	436.79
709.28	434.12
709.61	431.90
709.94	429.02
710.28	426.50
710.61	423.83
710.95	419.02
711.28	417.88
711.61	415.52
711.95	413.62
712.28	411.07
712.61	408.43
712.95	406.79
713.28	405.21
713.61	402.48
713.95	399.45
714.28	397.69
714.61	395.33
714.95	393.12
715.28	390.88
715.61	388.79
715.95	386.79
716.28	384.14
716.61	382.26
716.95	379.98
717.28	377.60
717.61	375.74
717.94	374.07
718.28	370.67
718.61	368.29
718.94	365.98
719.27	363.98
719.61	361.81
719.94	359.36
720.27	356.38
720.60	354.21
720.94	352.45
721.27	350.86
721.60	349.36
721.93	347.45
722.27	346.43
722.60	344.98
722.93	342.76
723.26	341.67
723.59	339.55
723.93	338.26
724.26	336.79
724.59	335.00
724.92	333.43
725.25	332.71
725.59	331.67
725.92	330.29
726.25	329.10
726.58	327.86
726.91	326.45
727.24	325.60
727.57	324.74
727.91	323.21
728.24	322.10
728.57	320.64
728.90	319.48
729.23	317.69
729.56	317.50
729.89	316.64
730.22	315.17
730.55	313.71
730.89	312.55
731.22	311.19
731.55	310.10
731.88	308.98
732.21	307.14
732.54	305.50
732.87	304.38
733.20	303.19
733.53	302.38
733.86	301.76
734.19	300.31
734.52	299.43
734.85	299.88
735.18	298.48
735.51	298.45
735.84	298.07
736.17	297.31
736.50	295.48
736.83	296.76
737.16	295.95
737.49	295.67
737.82	294.62
738.15	294.29
738.48	293.14
738.81	292.43
739.14	291.31
739.47	290.57
739.80	289.69
740.13	289.19
740.46	288.05
740.79	286.76
741.12	285.83
741.45	284.67
741.78	282.90
742.11	282.60
742.44	281.19
742.77	280.12
743.10	279.17
743.43	278.10
743.75	275.10
744.08	277.24
744.41	276.29
744.74	275.76
745.07	274.62
745.40	274.45
745.73	274.40
746.06	273.86
746.39	273.50
746.71	272.45
747.04	271.26
747.37	270.60
747.70	270.64
748.03	270.31
748.36	269.93
748.68	269.07
749.01	267.79
749.34	266.93
749.67	266.64
750.00	266.29
750.33	267.12
750.65	266.83
750.98	263.38
751.31	262.90
751.64	262.50
751.97	263.19
752.29	262.29
752.62	261.05
752.95	260.36
753.28	259.40
753.60	259.00
753.93	259.21
754.26	258.67
754.59	257.33
754.91	256.29
755.24	255.36
755.57	254.76
755.90	254.19
756.22	253.52
756.55	252.62
756.88	251.67
757.20	249.64
757.53	248.50
757.86	248.12
758.19	247.62
758.51	246.95
758.84	245.21
759.17	244.86
759.49	244.26
759.82	244.86
760.15	244.57
760.47	244.17
760.80	243.00
761.13	243.02
761.45	242.50
761.78	242.62
762.11	242.31
762.43	241.88
762.76	241.52
763.08	241.31
763.41	240.98
763.74	240.81
764.06	240.64
764.39	240.60
764.71	240.10
765.04	239.69
765.37	238.98
765.69	238.55
766.02	237.86
766.34	237.36
766.67	236.57
767.00	236.83
767.32	237.57
767.65	238.64
767.97	238.10
768.30	238.02
768.62	237.36
768.95	237.10
769.27	236.76
769.60	237.02
769.92	236.52
770.25	236.10
770.57	235.57
770.90	235.52
771.22	234.90
771.55	234.98
771.87	234.74
772.20	234.50
772.52	236.33
772.85	238.62
773.17	238.45
773.50	238.05
773.82	237.38
774.15	236.02
774.47	234.43
774.80	233.88
775.12	233.60
775.45	233.48
775.77	233.24
776.09	233.38
776.42	232.93
776.74	233.45
777.07	233.12
777.39	232.98
777.72	232.40
778.04	232.64
778.36	231.98
778.69	231.88
779.01	231.79
779.33	229.52
779.66	227.10
779.98	226.71
780.31	226.38
780.63	226.88
780.95	227.26
781.28	227.26
781.60	227.26
781.92	227.38
782.25	227.19
782.57	227.21
782.89	226.79
783.22	226.43
783.54	225.83
783.86	226.02
784.19	225.76
784.51	226.05
784.83	225.48
