SpectraSuite Data File
++++++++++++++++++++++++++++++++++++
Date: Tue Apr 02 18:42:32 EDT 2013
User: group
Dark Spectrum Present: No
Reference Spectrum Present: No
Number of Sampled Component Spectra: 1
Spectrometers: USB2E7196
Integration Time (usec): 580000 (USB2E7196)
Spectra Averaged: 2 (USB2E7196)
Boxcar Smoothing: 10 (USB2E7196)
Correct for Electrical Dark: No (USB2E7196)
Strobe/Lamp Enabled: No (USB2E7196)
Correct for Detector Non-linearity: No (USB2E7196)
Correct for Stray Light: No (USB2E7196)
Number of Pixels in Processed Spectrum: 2048
>>>>>Begin Processed Spectral Data<<<<<
339.09	0.00
339.48	194.00
339.86	194.50
340.24	197.00
340.63	198.00
341.01	234.00
341.39	201.00
341.78	207.50
342.16	213.00
342.54	205.00
342.93	198.43
343.31	208.33
343.69	208.98
344.07	209.79
344.46	210.64
344.84	211.26
345.22	210.10
345.60	210.50
345.99	210.50
346.37	210.55
346.75	210.64
347.13	210.95
347.52	211.12
347.90	211.67
348.28	211.43
348.66	211.90
349.05	211.26
349.43	211.43
349.81	211.40
350.19	211.40
350.57	211.50
350.96	211.74
351.34	212.07
351.72	212.19
352.10	211.93
352.48	211.74
352.87	211.64
353.25	211.69
353.63	211.76
354.01	211.88
354.39	211.76
354.77	211.81
355.15	212.02
355.54	211.88
355.92	211.48
356.30	211.69
356.68	213.10
357.06	213.24
357.44	212.95
357.82	212.93
358.20	213.76
358.58	213.71
358.97	213.55
359.35	213.62
359.73	214.10
360.11	214.10
360.49	214.24
360.87	214.33
361.25	214.40
361.63	214.81
362.01	214.93
362.39	214.88
362.77	215.17
363.15	215.33
363.53	215.21
363.91	215.14
364.29	215.19
364.67	213.10
365.05	213.12
365.43	213.50
365.81	213.67
366.19	213.71
366.57	214.57
366.95	214.69
367.33	214.26
367.71	214.12
368.09	214.67
368.47	214.55
368.85	214.55
369.23	215.19
369.61	214.69
369.99	215.24
370.37	215.48
370.75	216.07
371.13	215.69
371.51	215.48
371.89	215.69
372.27	215.81
372.65	216.07
373.03	216.10
373.41	215.88
373.78	215.98
374.16	214.88
374.54	214.29
374.92	214.21
375.30	214.40
375.68	213.83
376.06	213.79
376.44	213.52
376.82	213.76
377.19	213.52
377.57	213.29
377.95	212.64
378.33	212.48
378.71	211.55
379.09	211.81
379.47	212.14
379.84	211.79
380.22	211.45
380.60	211.26
380.98	211.29
381.36	211.17
381.73	210.90
382.11	211.43
382.49	211.33
382.87	210.83
383.25	210.81
383.62	213.33
384.00	212.86
384.38	212.95
384.76	213.36
385.13	214.14
385.51	214.33
385.89	214.10
386.27	214.24
386.64	214.71
387.02	214.50
387.40	214.40
387.78	214.60
388.15	214.98
388.53	214.83
388.91	214.76
389.29	214.69
389.66	214.95
390.04	214.76
390.42	215.48
390.79	215.95
391.17	215.88
391.55	213.71
391.92	213.86
392.30	214.45
392.68	214.00
393.05	213.74
393.43	213.79
393.81	214.12
394.18	213.69
394.56	213.67
394.94	214.07
395.31	214.02
395.69	214.74
396.06	214.98
396.44	215.26
396.82	214.95
397.19	216.05
397.57	215.95
397.95	216.33
398.32	215.38
398.70	215.67
399.07	216.02
399.45	215.93
399.82	215.90
400.20	215.33
400.58	215.00
400.95	214.24
401.33	214.79
401.70	216.12
402.08	216.31
402.45	216.48
402.83	216.98
403.20	217.17
403.58	216.81
403.95	217.26
404.33	217.69
404.71	218.36
405.08	219.52
405.46	219.90
405.83	220.31
406.21	220.71
406.58	221.02
406.96	221.38
407.33	222.10
407.70	222.98
408.08	225.14
408.45	226.31
408.83	227.33
409.20	227.90
409.58	227.43
409.95	228.83
410.33	229.60
410.70	229.76
411.08	230.98
411.45	232.45
411.82	233.33
412.20	234.76
412.57	237.26
412.95	236.81
413.32	238.62
413.69	239.98
414.07	241.60
414.44	243.33
414.82	245.31
415.19	247.60
415.56	249.74
415.94	251.00
416.31	253.43
416.68	256.29
417.06	259.57
417.43	263.24
417.81	266.24
418.18	269.88
418.55	273.64
418.93	277.88
419.30	281.81
419.67	286.00
420.04	290.60
420.42	294.62
420.79	301.95
421.16	307.69
421.54	314.69
421.91	321.12
422.28	327.64
422.66	334.38
423.03	342.33
423.40	349.26
423.77	356.88
424.15	364.48
424.52	372.07
424.89	380.50
425.26	388.26
425.64	396.05
426.01	404.36
426.38	413.45
426.75	422.81
427.13	431.90
427.50	441.79
427.87	451.76
428.24	461.90
428.61	470.19
428.99	481.74
429.36	492.12
429.73	503.71
430.10	515.05
430.47	526.86
430.85	537.38
431.22	549.62
431.59	564.12
431.96	576.95
432.33	591.21
432.70	604.36
433.08	620.19
433.45	636.02
433.82	651.40
434.19	668.26
434.56	684.86
434.93	700.26
435.30	716.17
435.68	733.83
436.05	751.36
436.42	768.74
436.79	784.62
437.16	801.45
437.53	819.55
437.90	837.86
438.27	856.05
438.64	874.38
439.01	891.74
439.38	905.43
439.75	919.69
440.13	937.21
440.50	953.88
440.87	966.95
441.24	980.40
441.61	995.02
441.98	1006.50
442.35	1018.38
442.72	1032.33
443.09	1046.38
443.46	1053.95
443.83	1058.86
444.20	1063.88
444.57	1069.21
444.94	1073.38
445.31	1076.86
445.68	1082.19
446.05	1083.12
446.42	1081.38
446.79	1080.71
447.16	1080.05
447.53	1079.93
447.90	1072.90
448.27	1065.90
448.64	1057.31
449.01	1051.12
449.37	1039.74
449.74	1028.36
450.11	1017.48
450.48	1001.90
450.85	985.45
451.22	972.90
451.59	961.07
451.96	949.29
452.33	934.14
452.70	920.02
453.07	902.67
453.43	882.90
453.80	866.31
454.17	851.10
454.54	835.31
454.91	817.90
455.28	801.12
455.65	785.95
456.02	774.69
456.38	761.86
456.75	746.00
457.12	732.79
457.49	719.86
457.86	705.50
458.23	696.12
458.59	684.05
458.96	671.60
459.33	660.67
459.70	649.60
460.07	640.62
460.43	630.55
460.80	621.52
461.17	614.36
461.54	606.07
461.91	597.93
462.27	589.71
462.64	582.62
463.01	575.67
463.38	569.29
463.74	558.38
464.11	551.86
464.48	545.90
464.85	539.74
465.21	535.48
465.58	530.55
465.95	523.62
466.32	518.71
466.68	513.67
467.05	508.83
467.42	503.90
467.78	498.48
468.15	493.33
468.52	489.64
468.88	483.95
469.25	479.50
469.62	475.93
469.98	472.07
470.35	468.79
470.72	464.93
471.08	460.19
471.45	457.64
471.82	455.19
472.18	451.76
472.55	449.10
472.92	445.38
473.28	442.19
473.65	439.10
474.02	436.19
474.38	434.50
474.75	432.31
475.11	429.76
475.48	428.33
475.85	426.67
476.21	424.76
476.58	423.55
476.94	422.10
477.31	420.83
477.67	419.67
478.04	418.43
478.41	417.50
478.77	418.81
479.14	417.43
479.50	416.33
479.87	415.90
480.23	415.81
480.60	415.33
480.96	415.36
481.33	416.40
481.69	416.40
482.06	416.50
482.42	417.12
482.79	417.98
483.15	418.33
483.52	419.17
483.88	420.10
484.25	420.33
484.61	421.12
484.98	421.60
485.34	423.00
485.71	424.62
486.07	425.95
486.44	425.81
486.80	427.12
487.17	428.55
487.53	430.86
487.90	432.76
488.26	435.74
488.62	438.67
488.99	440.76
489.35	443.69
489.72	446.00
490.08	448.50
490.44	450.86
490.81	454.48
491.17	457.76
491.54	461.10
491.90	465.05
492.26	468.79
492.63	472.88
492.99	476.40
493.36	480.86
493.72	485.64
494.08	489.93
494.45	495.00
494.81	499.90
495.17	504.55
495.54	509.98
495.90	514.36
496.26	519.26
496.63	524.71
496.99	530.40
497.35	536.12
497.72	542.19
498.08	548.40
498.44	554.02
498.80	560.24
499.17	566.17
499.53	572.33
499.89	579.50
500.26	586.38
500.62	592.93
500.98	599.67
501.34	606.12
501.71	613.14
502.07	620.36
502.43	627.48
502.79	634.31
503.16	641.45
503.52	648.93
503.88	656.07
504.24	663.74
504.60	671.52
504.97	679.48
505.33	686.86
505.69	695.64
506.05	703.33
506.41	710.57
506.78	718.17
507.14	725.19
507.50	732.64
507.86	740.21
508.22	748.40
508.59	755.29
508.95	763.55
509.31	772.36
509.67	780.07
510.03	788.38
510.39	796.26
510.75	803.64
511.12	810.79
511.48	818.19
511.84	825.26
512.20	832.36
512.56	839.98
512.92	848.21
513.28	855.31
513.64	863.05
514.00	871.17
514.37	879.71
514.73	888.05
515.09	895.83
515.45	903.43
515.81	910.33
516.17	917.19
516.53	923.48
516.89	929.02
517.25	935.74
517.61	941.98
517.97	949.05
518.33	955.57
518.69	962.95
519.05	969.98
519.41	976.64
519.77	984.38
520.13	990.17
520.49	995.45
520.85	1001.43
521.21	1008.36
521.57	1013.79
521.93	1017.86
522.29	1023.71
522.65	1028.36
523.01	1034.55
523.37	1039.81
523.73	1045.81
524.09	1051.50
524.45	1057.26
524.81	1062.52
525.17	1067.69
525.53	1071.79
525.89	1076.76
526.25	1081.93
526.61	1085.52
526.97	1089.98
527.33	1093.62
527.68	1100.83
528.04	1105.21
528.40	1109.45
528.76	1112.55
529.12	1116.98
529.48	1122.00
529.84	1125.55
530.20	1130.76
530.56	1133.62
530.91	1138.36
531.27	1142.48
531.63	1147.24
531.99	1151.33
532.35	1154.90
532.71	1158.74
533.07	1163.43
533.42	1170.24
533.78	1173.69
534.14	1179.38
534.50	1183.38
534.86	1188.24
535.21	1189.57
535.57	1193.90
535.93	1197.12
536.29	1202.83
536.65	1207.07
537.00	1210.64
537.36	1214.69
537.72	1217.81
538.08	1222.10
538.44	1225.29
538.79	1229.05
539.15	1231.55
539.51	1234.79
539.87	1238.48
540.22	1241.83
540.58	1244.81
540.94	1246.00
541.29	1249.69
541.65	1251.98
542.01	1255.76
542.37	1258.29
542.72	1260.69
543.08	1262.71
543.44	1266.02
543.79	1266.26
544.15	1269.21
544.51	1272.88
544.87	1275.64
545.22	1278.55
545.58	1281.64
545.94	1284.26
546.29	1287.02
546.65	1289.83
547.01	1292.43
547.36	1295.07
547.72	1297.52
548.07	1301.10
548.43	1303.48
548.79	1305.19
549.14	1307.19
549.50	1309.90
549.86	1311.93
550.21	1314.69
550.57	1318.24
550.92	1321.26
551.28	1325.90
551.64	1328.76
551.99	1331.74
552.35	1334.64
552.70	1337.43
553.06	1340.02
553.41	1343.50
553.77	1348.71
554.13	1352.79
554.48	1357.52
554.84	1362.05
555.19	1366.48
555.55	1371.60
555.90	1375.64
556.26	1380.19
556.61	1384.10
556.97	1386.62
557.32	1390.50
557.68	1395.24
558.03	1398.69
558.39	1402.90
558.74	1406.38
559.10	1409.86
559.45	1414.24
559.81	1418.62
560.16	1422.71
560.52	1427.24
560.87	1432.21
561.23	1434.40
561.58	1439.55
561.94	1443.29
562.29	1447.40
562.64	1451.95
563.00	1455.14
563.35	1459.74
563.71	1464.40
564.06	1469.88
564.42	1475.55
564.77	1482.14
565.12	1488.71
565.48	1497.26
565.83	1503.21
566.19	1509.29
566.54	1514.69
566.89	1519.48
567.25	1524.95
567.60	1531.33
567.96	1538.64
568.31	1544.81
568.66	1551.55
569.02	1556.19
569.37	1560.90
569.72	1565.88
570.08	1571.26
570.43	1576.93
570.78	1582.36
571.14	1587.95
571.49	1593.00
571.84	1598.79
572.20	1603.55
572.55	1607.36
572.90	1609.55
573.26	1613.36
573.61	1617.17
573.96	1622.31
574.31	1626.90
574.67	1631.57
575.02	1635.17
575.37	1637.90
575.72	1640.48
576.08	1643.76
576.43	1646.12
576.78	1649.88
577.13	1654.24
577.49	1657.40
577.84	1661.38
578.19	1665.33
578.54	1669.36
578.90	1673.40
579.25	1676.10
579.60	1678.26
579.95	1681.26
580.30	1684.95
580.66	1688.24
581.01	1691.33
581.36	1694.52
581.71	1698.52
582.06	1702.88
582.42	1706.93
582.77	1709.40
583.12	1712.79
583.47	1715.79
583.82	1720.31
584.17	1724.57
584.53	1727.76
584.88	1730.93
585.23	1733.98
585.58	1736.43
585.93	1737.40
586.28	1739.81
586.63	1742.52
586.98	1745.31
587.34	1748.86
587.69	1750.74
588.04	1753.26
588.39	1755.71
588.74	1756.81
589.09	1757.90
589.44	1757.57
589.79	1759.21
590.14	1761.90
590.49	1763.21
590.84	1764.76
591.19	1766.71
591.54	1767.17
591.89	1767.71
592.25	1770.79
592.60	1770.40
592.95	1771.21
593.30	1773.60
593.65	1774.26
594.00	1775.00
594.35	1781.62
594.70	1780.40
595.05	1781.76
595.40	1782.57
595.75	1783.17
596.10	1784.36
596.45	1784.88
596.80	1786.57
597.15	1787.19
597.50	1786.81
597.85	1788.40
598.19	1788.02
598.54	1787.98
598.89	1788.45
599.24	1789.55
599.59	1787.88
599.94	1788.02
600.29	1787.98
600.64	1787.00
600.99	1786.67
601.34	1787.76
601.69	1781.38
602.04	1781.69
602.39	1781.24
602.74	1781.60
603.08	1781.02
603.43	1781.17
603.78	1780.74
604.13	1780.10
604.48	1778.36
604.83	1777.48
605.18	1777.38
605.53	1778.05
605.87	1776.07
606.22	1775.14
606.57	1772.21
606.92	1770.43
607.27	1769.52
607.62	1768.60
607.96	1768.45
608.31	1768.10
608.66	1766.57
609.01	1765.71
609.36	1764.29
609.70	1762.10
610.05	1758.79
610.40	1757.00
610.75	1754.29
611.10	1753.19
611.44	1751.14
611.79	1749.88
612.14	1747.29
612.49	1742.40
612.83	1738.40
613.18	1736.50
613.53	1732.62
613.88	1729.86
614.22	1726.95
614.57	1722.93
614.92	1719.12
615.27	1715.52
615.61	1710.79
615.96	1706.50
616.31	1703.45
616.65	1700.95
617.00	1698.02
617.35	1694.90
617.70	1691.24
618.04	1686.81
618.39	1681.48
618.74	1677.07
619.08	1672.52
619.43	1669.31
619.78	1666.17
620.12	1663.05
620.47	1659.12
620.82	1654.95
621.16	1650.88
621.51	1648.07
621.85	1644.55
622.20	1639.43
622.55	1634.02
622.89	1630.79
623.24	1626.76
623.59	1621.31
623.93	1615.79
624.28	1611.36
624.62	1608.98
624.97	1606.05
625.32	1602.05
625.66	1598.71
626.01	1593.90
626.35	1590.31
626.70	1585.12
627.04	1581.43
627.39	1576.98
627.73	1572.29
628.08	1568.64
628.43	1564.86
628.77	1560.26
629.12	1555.95
629.46	1553.12
629.81	1549.33
630.15	1544.05
630.50	1539.52
630.84	1534.67
631.19	1529.83
631.53	1524.10
631.88	1515.93
632.22	1508.52
632.57	1504.88
632.91	1499.76
633.26	1495.50
633.60	1489.24
633.95	1484.31
634.29	1477.93
634.64	1473.57
634.98	1468.55
635.32	1464.05
635.67	1459.57
636.01	1454.40
636.36	1448.29
636.70	1443.38
637.05	1438.48
637.39	1433.14
637.73	1428.02
638.08	1424.10
638.42	1419.14
638.77	1414.93
639.11	1410.88
639.45	1407.00
639.80	1400.60
640.14	1394.38
640.49	1388.62
640.83	1383.55
641.17	1378.57
641.52	1373.43
641.86	1367.02
642.20	1362.60
642.55	1356.07
642.89	1349.86
643.23	1343.83
643.58	1340.14
643.92	1333.05
644.26	1326.57
644.61	1321.36
644.95	1315.00
645.29	1307.71
645.64	1302.10
645.98	1294.98
646.32	1289.12
646.66	1282.33
647.01	1275.71
647.35	1270.12
647.69	1263.81
648.04	1257.64
648.38	1251.48
648.72	1245.21
649.06	1238.60
649.41	1231.07
649.75	1224.83
650.09	1218.69
650.43	1211.74
650.78	1203.83
651.12	1197.67
651.46	1191.26
651.80	1184.55
652.14	1177.76
652.49	1172.67
652.83	1165.64
653.17	1159.52
653.51	1152.21
653.85	1146.07
654.20	1139.52
654.54	1132.10
654.88	1125.29
655.22	1119.29
655.56	1111.55
655.90	1104.60
656.25	1097.98
656.59	1091.93
656.93	1085.02
657.27	1079.02
657.61	1072.43
657.95	1066.36
658.29	1060.02
658.64	1054.31
658.98	1048.10
659.32	1041.67
659.66	1034.36
660.00	1028.29
660.34	1021.74
660.68	1015.98
661.02	1008.95
661.36	1002.86
661.70	997.40
662.05	991.57
662.39	984.95
662.73	980.00
663.07	975.90
663.41	970.38
663.75	964.31
664.09	958.88
664.43	951.93
664.77	945.67
665.11	939.31
665.45	933.38
665.79	927.52
666.13	920.67
666.47	915.00
666.81	909.14
667.15	902.95
667.49	897.60
667.83	892.55
668.17	887.14
668.51	881.60
668.85	876.05
669.19	871.33
669.53	865.02
669.87	858.98
670.21	852.12
670.55	845.95
670.89	840.26
671.23	834.74
671.57	829.45
671.91	824.40
672.25	819.05
672.58	814.36
672.92	808.26
673.26	803.36
673.60	797.74
673.94	792.60
674.28	787.07
674.62	782.24
674.96	776.38
675.30	771.62
675.64	766.64
675.97	760.95
676.31	755.29
676.65	750.71
676.99	747.07
677.33	742.21
677.67	737.57
678.01	732.29
678.34	727.64
678.68	723.48
679.02	718.55
679.36	713.86
679.70	708.40
680.04	703.83
680.37	699.29
680.71	694.60
681.05	690.50
681.39	686.79
681.73	681.50
682.06	677.07
682.40	672.50
682.74	668.67
683.08	664.83
683.42	659.93
683.75	656.05
684.09	650.40
684.43	645.38
684.77	640.74
685.10	636.55
685.44	632.19
685.78	627.43
686.12	623.26
686.45	618.95
686.79	614.64
687.13	610.81
687.46	606.21
687.80	603.07
688.14	598.21
688.48	594.36
688.81	590.14
689.15	586.50
689.49	581.83
689.82	577.17
690.16	572.71
690.50	568.86
690.83	564.02
691.17	559.43
691.51	555.64
691.84	551.83
692.18	547.74
692.52	543.60
692.85	539.88
693.19	536.69
693.52	533.07
693.86	528.88
694.20	525.17
694.53	521.90
694.87	517.62
695.21	514.07
695.54	510.29
695.88	506.48
696.21	502.36
696.55	498.95
696.88	495.67
697.22	492.26
697.56	489.17
697.89	485.86
698.23	483.24
698.56	480.00
698.90	476.98
699.23	473.62
699.57	470.64
699.90	467.29
700.24	463.83
700.58	460.90
700.91	458.50
701.25	456.83
701.58	454.31
701.92	451.64
702.25	448.52
702.59	445.14
702.92	442.60
703.26	439.93
703.59	437.52
703.93	436.62
704.26	434.31
704.60	431.40
704.93	428.86
705.26	426.19
705.60	424.02
705.93	421.05
706.27	419.52
706.60	417.67
706.94	415.57
707.27	412.74
707.61	410.10
707.94	407.60
708.27	403.60
708.61	400.88
708.94	398.36
709.28	396.38
709.61	393.95
709.94	392.05
710.28	389.98
710.61	387.74
710.95	383.45
711.28	382.64
711.61	380.69
711.95	379.21
712.28	376.60
712.61	374.36
712.95	373.74
713.28	372.33
713.61	369.76
713.95	367.55
714.28	366.00
714.61	364.17
714.95	362.29
715.28	360.12
715.61	358.00
715.95	356.26
716.28	353.98
716.61	352.71
716.95	350.69
717.28	348.57
717.61	346.40
717.94	344.83
718.28	341.60
718.61	339.90
718.94	337.98
719.27	336.81
719.61	335.17
719.94	332.29
720.27	329.43
720.60	327.81
720.94	326.10
721.27	324.62
721.60	323.48
721.93	321.69
722.27	321.05
722.60	320.02
722.93	318.50
723.26	317.81
723.59	315.98
723.93	314.83
724.26	313.83
724.59	312.69
724.92	311.83
725.25	311.24
725.59	309.81
725.92	308.93
726.25	307.67
726.58	306.52
726.91	305.60
727.24	304.95
727.57	303.81
727.91	302.52
728.24	301.52
728.57	300.05
728.90	299.52
729.23	297.88
729.56	297.40
729.89	296.52
730.22	295.36
730.55	294.57
730.89	294.14
731.22	293.10
731.55	292.33
731.88	291.50
732.21	290.14
732.54	289.12
732.87	288.02
733.20	287.21
733.53	286.38
733.86	285.98
734.19	284.60
734.52	284.12
734.85	284.69
735.18	283.71
735.51	283.90
735.84	283.29
736.17	283.40
736.50	282.07
736.83	283.76
737.16	283.02
737.49	282.31
737.82	280.98
738.15	280.45
738.48	279.62
738.81	278.57
739.14	277.50
739.47	276.64
739.80	275.69
740.13	275.24
740.46	274.36
740.79	272.98
741.12	272.31
741.45	271.07
741.78	269.52
742.11	269.33
742.44	268.02
742.77	267.45
743.10	265.93
743.43	265.12
743.75	262.12
744.08	263.95
744.41	263.40
744.74	262.55
745.07	261.50
745.40	261.24
745.73	261.40
746.06	261.00
746.39	260.98
746.71	260.50
747.04	259.64
747.37	259.05
747.70	259.05
748.03	258.55
748.36	258.67
748.68	258.12
749.01	257.07
749.34	256.60
749.67	256.07
750.00	256.31
750.33	257.07
750.65	256.88
750.98	254.00
751.31	253.52
751.64	253.40
751.97	254.26
752.29	253.76
752.62	252.19
752.95	251.86
753.28	251.10
753.60	250.43
753.93	250.64
754.26	250.36
754.59	249.43
754.91	249.00
755.24	248.21
755.57	247.90
755.90	247.17
756.22	246.50
756.55	245.95
756.88	245.14
757.20	243.57
757.53	242.69
757.86	242.19
758.19	241.86
758.51	241.50
758.84	239.98
759.17	239.48
759.49	239.55
759.82	239.83
760.15	239.57
760.47	239.07
760.80	237.67
761.13	237.74
761.45	237.40
761.78	237.10
762.11	237.00
762.43	236.31
762.76	236.38
763.08	236.19
763.41	236.00
763.74	235.67
764.06	235.43
764.39	235.19
764.71	234.93
765.04	234.83
765.37	234.36
765.69	234.12
766.02	233.83
766.34	233.45
766.67	232.60
767.00	232.69
767.32	233.88
767.65	235.19
767.97	235.05
768.30	234.69
768.62	234.10
768.95	233.60
769.27	233.60
769.60	233.45
769.92	233.12
770.25	232.52
770.57	231.86
770.90	231.88
771.22	231.57
771.55	231.19
771.87	230.71
772.20	230.50
772.52	232.19
772.85	234.69
773.17	234.31
773.50	234.21
773.82	233.79
774.15	232.64
774.47	231.43
774.80	230.69
775.12	230.69
775.45	230.81
775.77	230.83
776.09	230.69
776.42	230.60
776.74	230.95
777.07	230.52
777.39	230.55
777.72	230.07
778.04	230.05
778.36	230.07
778.69	230.10
779.01	229.90
779.33	227.76
779.66	225.12
779.98	225.07
780.31	224.76
780.63	225.60
780.95	225.76
781.28	225.52
781.60	225.43
781.92	225.07
782.25	224.76
782.57	224.57
782.89	224.21
783.22	223.71
783.54	223.14
783.86	223.24
784.19	223.02
784.51	223.57
784.83	223.17
785.16	222.86
