SpectraSuite Data File
++++++++++++++++++++++++++++++++++++
Date: Tue Apr 02 18:41:20 EDT 2013
User: group
Dark Spectrum Present: No
Reference Spectrum Present: No
Number of Sampled Component Spectra: 1
Spectrometers: USB2E7196
Integration Time (usec): 580000 (USB2E7196)
Spectra Averaged: 2 (USB2E7196)
Boxcar Smoothing: 10 (USB2E7196)
Correct for Electrical Dark: No (USB2E7196)
Strobe/Lamp Enabled: No (USB2E7196)
Correct for Detector Non-linearity: No (USB2E7196)
Correct for Stray Light: No (USB2E7196)
Number of Pixels in Processed Spectrum: 2048
>>>>>Begin Processed Spectral Data<<<<<
339.09	0.00
339.48	194.50
339.86	196.00
340.24	192.50
340.63	196.00
341.01	231.00
341.39	201.50
341.78	207.50
342.16	211.50
342.54	202.50
342.93	196.45
343.31	206.24
343.69	206.79
344.07	207.45
344.46	208.43
344.84	209.10
345.22	207.86
345.60	208.31
345.99	208.26
346.37	208.21
346.75	208.33
347.13	208.38
347.52	208.74
347.90	209.52
348.28	209.55
348.66	210.02
349.05	209.29
349.43	209.64
349.81	209.86
350.19	209.90
350.57	210.07
350.96	210.02
351.34	210.45
351.72	210.55
352.10	210.38
352.48	210.29
352.87	210.21
353.25	210.43
353.63	210.26
354.01	210.38
354.39	210.50
354.77	210.81
355.15	211.52
355.54	211.24
355.92	210.81
356.30	210.95
356.68	212.21
357.06	212.55
357.44	212.40
357.82	212.33
358.20	213.60
358.58	213.52
358.97	213.79
359.35	214.19
359.73	214.69
360.11	214.79
360.49	214.88
360.87	214.81
361.25	215.02
361.63	215.90
362.01	216.40
362.39	216.24
362.77	216.33
363.15	216.00
363.53	216.19
363.91	216.24
364.29	216.36
364.67	214.57
365.05	214.74
365.43	215.17
365.81	215.69
366.19	215.86
366.57	216.79
366.95	216.62
367.33	216.05
367.71	215.83
368.09	216.24
368.47	216.19
368.85	216.40
369.23	216.90
369.61	215.98
369.99	216.33
370.37	216.62
370.75	217.67
371.13	217.43
371.51	217.14
371.89	217.14
372.27	217.33
372.65	217.62
373.03	217.64
373.41	217.29
373.78	217.24
374.16	216.02
374.54	215.43
374.92	215.24
375.30	215.19
375.68	214.95
376.06	215.12
376.44	214.95
376.82	215.17
377.19	215.00
377.57	215.12
377.95	214.29
378.33	214.29
378.71	212.98
379.09	213.38
379.47	213.57
379.84	213.60
380.22	213.31
380.60	212.88
380.98	212.52
381.36	212.33
381.73	211.90
382.11	212.52
382.49	212.52
382.87	212.50
383.25	212.62
383.62	215.00
384.00	214.48
384.38	214.69
384.76	214.90
385.13	215.60
385.51	215.69
385.89	215.55
386.27	215.48
386.64	215.83
387.02	215.69
387.40	215.45
387.78	215.45
388.15	215.76
388.53	215.52
388.91	215.95
389.29	215.88
389.66	216.05
390.04	215.52
390.42	215.74
390.79	215.81
391.17	215.62
391.55	213.40
391.92	213.43
392.30	213.45
392.68	212.81
393.05	212.55
393.43	212.57
393.81	212.71
394.18	212.50
394.56	212.60
394.94	212.88
395.31	212.95
395.69	213.69
396.06	213.81
396.44	214.43
396.82	214.14
397.19	215.29
397.57	215.24
397.95	215.62
398.32	215.05
398.70	215.24
399.07	215.79
399.45	215.79
399.82	215.95
400.20	215.90
400.58	216.17
400.95	215.40
401.33	215.67
401.70	217.21
402.08	217.19
402.45	217.24
402.83	217.69
403.20	217.76
403.58	217.60
403.95	218.19
404.33	218.69
404.71	219.02
405.08	220.24
405.46	220.60
405.83	221.21
406.21	221.60
406.58	222.12
406.96	222.40
407.33	223.02
407.70	223.62
408.08	225.88
408.45	226.74
408.83	227.88
409.20	228.36
409.58	227.81
409.95	229.19
410.33	230.17
410.70	230.50
411.08	231.93
411.45	232.90
411.82	233.29
412.20	234.62
412.57	237.24
412.95	236.95
413.32	238.62
413.69	239.71
414.07	241.64
414.44	243.40
414.82	245.45
415.19	247.86
415.56	250.19
415.94	251.24
416.31	254.10
416.68	256.86
417.06	260.26
417.43	264.29
417.81	267.74
418.18	271.50
418.55	275.52
418.93	279.74
419.30	284.31
419.67	289.36
420.04	293.62
420.42	297.67
420.79	304.71
421.16	310.88
421.54	318.17
421.91	324.50
422.28	330.83
422.66	337.71
423.03	345.64
423.40	352.60
423.77	360.05
424.15	367.64
424.52	375.64
424.89	384.40
425.26	392.07
425.64	400.31
426.01	408.71
426.38	418.26
426.75	427.86
427.13	436.98
427.50	446.60
427.87	457.07
428.24	467.40
428.61	476.07
428.99	487.64
429.36	498.36
429.73	509.74
430.10	521.43
430.47	533.48
430.85	544.98
431.22	557.48
431.59	572.57
431.96	585.21
432.33	599.60
432.70	613.83
433.08	630.31
433.45	645.79
433.82	661.40
434.19	678.36
434.56	695.36
434.93	712.12
435.30	728.12
435.68	746.76
436.05	764.60
436.42	782.19
436.79	797.95
437.16	816.00
437.53	834.93
437.90	853.33
438.27	871.21
438.64	889.19
439.01	907.98
439.38	922.24
439.75	937.45
440.13	954.36
440.50	970.86
440.87	984.00
441.24	998.05
441.61	1012.57
441.98	1023.79
442.35	1036.74
442.72	1050.10
443.09	1064.31
443.46	1071.50
443.83	1077.43
444.20	1082.50
444.57	1088.60
444.94	1092.14
445.31	1095.83
445.68	1101.76
446.05	1103.17
446.42	1102.00
446.79	1100.19
447.16	1098.40
447.53	1098.07
447.90	1092.00
448.27	1085.05
448.64	1076.81
449.01	1069.74
449.37	1059.12
449.74	1047.48
450.11	1035.57
450.48	1020.00
450.85	1003.81
451.22	991.10
451.59	978.79
451.96	966.62
452.33	951.29
452.70	936.55
453.07	918.60
453.43	898.52
453.80	881.76
454.17	865.69
454.54	849.50
454.91	832.93
455.28	816.10
455.65	800.74
456.02	788.88
456.38	775.60
456.75	759.93
457.12	746.19
457.49	733.12
457.86	718.55
458.23	708.48
458.59	696.43
458.96	683.79
459.33	672.19
459.70	661.40
460.07	652.48
460.43	641.98
460.80	633.21
461.17	625.62
461.54	617.36
461.91	608.88
462.27	600.31
462.64	592.98
463.01	585.26
463.38	578.29
463.74	567.38
464.11	560.14
464.48	554.36
464.85	547.98
465.21	543.48
465.58	537.79
465.95	530.64
466.32	525.52
466.68	520.29
467.05	515.43
467.42	510.43
467.78	504.48
468.15	499.52
468.52	495.36
468.88	489.74
469.25	485.00
469.62	481.86
469.98	478.24
470.35	474.60
470.72	470.88
471.08	466.10
471.45	463.07
471.82	460.29
472.18	456.57
472.55	453.88
472.92	450.38
473.28	447.57
473.65	444.79
474.02	442.10
474.38	440.19
474.75	438.19
475.11	435.76
475.48	434.31
475.85	432.10
476.21	430.21
476.58	429.17
476.94	427.74
477.31	425.76
477.67	424.21
478.04	422.81
478.41	422.02
478.77	423.76
479.14	422.21
479.50	421.19
479.87	421.10
480.23	420.79
480.60	420.26
480.96	419.95
481.33	420.76
481.69	420.64
482.06	420.36
482.42	420.31
482.79	420.62
483.15	420.90
483.52	422.26
483.88	422.79
484.25	422.67
484.61	423.52
484.98	424.57
485.34	426.52
485.71	428.05
486.07	429.36
486.44	429.14
486.80	431.19
487.17	433.10
487.53	435.19
487.90	437.33
488.26	439.83
488.62	442.62
488.99	444.64
489.35	447.55
489.72	450.33
490.08	453.02
490.44	455.64
490.81	459.55
491.17	462.83
491.54	466.26
491.90	470.38
492.26	474.10
492.63	478.14
492.99	481.57
493.36	486.02
493.72	490.71
494.08	495.00
494.45	499.83
494.81	505.14
495.17	509.69
495.54	514.98
495.90	520.02
496.26	525.45
496.63	530.60
496.99	535.50
497.35	541.45
497.72	547.83
498.08	554.29
498.44	560.26
498.80	566.60
499.17	573.17
499.53	579.52
499.89	586.81
500.26	593.19
500.62	599.74
500.98	607.02
501.34	614.07
501.71	621.95
502.07	629.45
502.43	636.21
502.79	643.48
503.16	650.60
503.52	658.31
503.88	665.07
504.24	673.38
504.60	681.40
504.97	690.14
505.33	697.38
505.69	705.79
506.05	713.45
506.41	721.17
506.78	729.19
507.14	737.12
507.50	744.88
507.86	752.83
508.22	761.29
508.59	768.60
508.95	776.57
509.31	784.60
509.67	792.79
510.03	800.86
510.39	809.17
510.75	817.24
511.12	825.33
511.48	834.21
511.84	841.62
512.20	849.79
512.56	857.76
512.92	865.95
513.28	873.95
513.64	881.40
514.00	889.52
514.37	897.64
514.73	905.50
515.09	913.02
515.45	920.60
515.81	927.95
516.17	935.29
516.53	941.76
516.89	948.31
517.25	955.02
517.61	961.76
517.97	968.14
518.33	974.79
518.69	981.38
519.05	988.07
519.41	994.69
519.77	1002.48
520.13	1007.45
520.49	1013.29
520.85	1018.52
521.21	1025.26
521.57	1030.88
521.93	1035.86
522.29	1041.36
522.65	1046.43
523.01	1053.19
523.37	1058.86
523.73	1064.93
524.09	1071.31
524.45	1076.81
524.81	1081.40
525.17	1087.29
525.53	1092.67
525.89	1097.48
526.25	1102.86
526.61	1107.38
526.97	1111.31
527.33	1114.79
527.68	1121.69
528.04	1126.57
528.40	1131.88
528.76	1136.10
529.12	1140.93
529.48	1146.29
529.84	1150.52
530.20	1156.10
530.56	1160.26
530.91	1164.50
531.27	1168.69
531.63	1172.62
531.99	1175.50
532.35	1180.24
532.71	1183.90
533.07	1188.60
533.42	1195.71
533.78	1199.64
534.14	1203.71
534.50	1208.67
534.86	1213.95
535.21	1217.10
535.57	1222.43
535.93	1226.12
536.29	1231.40
536.65	1235.64
537.00	1238.93
537.36	1243.62
537.72	1247.36
538.08	1250.79
538.44	1255.24
538.79	1259.52
539.15	1262.81
539.51	1268.02
539.87	1272.10
540.22	1276.17
540.58	1279.81
540.94	1282.00
541.29	1285.62
541.65	1289.14
542.01	1293.50
542.37	1296.38
542.72	1298.10
543.08	1300.62
543.44	1304.02
543.79	1305.19
544.15	1309.02
544.51	1313.26
544.87	1316.74
545.22	1320.14
545.58	1323.38
545.94	1326.45
546.29	1329.40
546.65	1333.00
547.01	1335.76
547.36	1338.81
547.72	1341.62
548.07	1344.98
548.43	1347.05
548.79	1349.76
549.14	1352.74
549.50	1355.60
549.86	1357.95
550.21	1362.12
550.57	1365.60
550.92	1368.67
551.28	1372.71
551.64	1375.40
551.99	1378.64
552.35	1381.62
552.70	1384.76
553.06	1389.07
553.41	1392.00
553.77	1396.55
554.13	1401.17
554.48	1406.14
554.84	1411.26
555.19	1415.69
555.55	1420.12
555.90	1424.29
556.26	1428.60
556.61	1433.31
556.97	1437.48
557.32	1442.48
557.68	1446.95
558.03	1451.33
558.39	1455.57
558.74	1460.33
559.10	1464.67
559.45	1469.79
559.81	1474.29
560.16	1478.40
560.52	1482.50
560.87	1488.90
561.23	1492.24
561.58	1497.52
561.94	1501.64
562.29	1505.10
562.64	1510.38
563.00	1515.26
563.35	1520.43
563.71	1526.10
564.06	1531.19
564.42	1536.74
564.77	1542.67
565.12	1548.79
565.48	1555.83
565.83	1562.07
566.19	1567.71
566.54	1573.57
566.89	1578.81
567.25	1584.71
567.60	1592.55
567.96	1600.12
568.31	1606.31
568.66	1613.33
569.02	1617.48
569.37	1622.31
569.72	1628.05
570.08	1633.71
570.43	1638.60
570.78	1644.02
571.14	1649.50
571.49	1653.76
571.84	1658.48
572.20	1662.67
572.55	1667.05
572.90	1669.26
573.26	1673.98
573.61	1678.12
573.96	1682.74
574.31	1686.31
574.67	1691.26
575.02	1694.14
575.37	1697.14
575.72	1699.05
576.08	1702.05
576.43	1705.90
576.78	1709.52
577.13	1713.07
577.49	1715.43
577.84	1718.60
578.19	1722.43
578.54	1725.95
578.90	1730.64
579.25	1734.19
579.60	1736.36
579.95	1738.00
580.30	1742.17
580.66	1745.19
581.01	1749.07
581.36	1751.05
581.71	1753.40
582.06	1756.71
582.42	1758.67
582.77	1759.40
583.12	1762.33
583.47	1764.43
583.82	1766.38
584.17	1769.95
584.53	1772.71
584.88	1775.40
585.23	1778.45
585.58	1780.05
585.93	1780.83
586.28	1782.12
586.63	1783.69
586.98	1786.69
587.34	1789.14
587.69	1790.71
588.04	1791.67
588.39	1792.19
588.74	1791.93
589.09	1794.19
589.44	1792.48
589.79	1794.12
590.14	1796.19
590.49	1796.81
590.84	1797.67
591.19	1798.93
591.54	1799.12
591.89	1799.00
592.25	1801.12
592.60	1799.74
592.95	1799.67
593.30	1800.69
593.65	1800.57
594.00	1800.10
594.35	1805.74
594.70	1805.86
595.05	1805.55
595.40	1805.38
595.75	1805.86
596.10	1808.21
596.45	1807.19
596.80	1809.17
597.15	1808.57
597.50	1808.02
597.85	1808.74
598.19	1808.69
598.54	1808.10
598.89	1807.60
599.24	1807.86
599.59	1806.05
599.94	1806.17
600.29	1805.45
600.64	1804.57
600.99	1804.69
601.34	1804.10
601.69	1797.21
602.04	1795.76
602.39	1794.19
602.74	1794.21
603.08	1792.48
603.43	1791.50
603.78	1790.45
604.13	1788.21
604.48	1787.21
604.83	1786.88
605.18	1785.17
605.53	1783.76
605.87	1783.07
606.22	1780.64
606.57	1777.48
606.92	1775.43
607.27	1774.36
607.62	1773.02
607.96	1772.02
608.31	1770.33
608.66	1768.93
609.01	1766.24
609.36	1764.79
609.70	1762.79
610.05	1759.02
610.40	1757.62
610.75	1754.52
611.10	1752.74
611.44	1749.02
611.79	1745.21
612.14	1740.40
612.49	1735.74
612.83	1731.93
613.18	1727.24
613.53	1723.55
613.88	1719.95
614.22	1715.55
614.57	1710.79
614.92	1706.67
615.27	1701.57
615.61	1696.12
615.96	1691.24
616.31	1686.57
616.65	1682.95
617.00	1678.69
617.35	1674.60
617.70	1668.93
618.04	1663.90
618.39	1658.83
618.74	1654.12
619.08	1649.07
619.43	1645.38
619.78	1641.00
620.12	1636.69
620.47	1632.31
620.82	1627.19
621.16	1622.50
621.51	1618.29
621.85	1613.62
622.20	1608.40
622.55	1602.95
622.89	1598.71
623.24	1593.95
623.59	1589.36
623.93	1584.17
624.28	1579.64
624.62	1576.48
624.97	1573.50
625.32	1569.07
625.66	1563.98
626.01	1559.36
626.35	1556.02
626.70	1550.90
627.04	1547.48
627.39	1541.81
627.73	1537.74
628.08	1534.57
628.43	1530.17
628.77	1524.90
629.12	1520.26
629.46	1515.64
629.81	1510.36
630.15	1504.71
630.50	1498.98
630.84	1494.00
631.19	1487.90
631.53	1482.36
631.88	1474.55
632.22	1466.67
632.57	1461.40
632.91	1454.90
633.26	1450.00
633.60	1443.38
633.95	1436.98
634.29	1430.10
634.64	1424.57
634.98	1418.24
635.32	1413.17
635.67	1408.81
636.01	1404.31
636.36	1398.12
636.70	1393.76
637.05	1389.07
637.39	1383.90
637.73	1378.67
638.08	1373.83
638.42	1369.19
638.77	1363.93
639.11	1359.17
639.45	1353.52
639.80	1346.43
640.14	1341.02
640.49	1335.26
640.83	1329.26
641.17	1324.57
641.52	1318.69
641.86	1313.07
642.20	1308.45
642.55	1300.79
642.89	1292.98
643.23	1285.64
643.58	1281.02
643.92	1272.76
644.26	1266.64
644.61	1260.10
644.95	1253.81
645.29	1246.93
645.64	1240.52
645.98	1233.50
646.32	1227.48
646.66	1221.05
647.01	1215.17
647.35	1209.83
647.69	1203.21
648.04	1196.79
648.38	1189.62
648.72	1183.21
649.06	1176.33
649.41	1168.79
649.75	1161.79
650.09	1155.69
650.43	1149.02
650.78	1140.74
651.12	1134.74
651.46	1127.10
651.80	1119.98
652.14	1113.71
652.49	1107.67
652.83	1100.67
653.17	1093.76
653.51	1086.33
653.85	1080.24
654.20	1073.38
654.54	1065.88
654.88	1059.07
655.22	1053.38
655.56	1046.69
655.90	1040.00
656.25	1033.79
656.59	1027.05
656.93	1021.36
657.27	1016.00
657.61	1009.10
657.95	1003.55
658.29	996.86
658.64	991.88
658.98	985.79
659.32	978.81
659.66	971.76
660.00	965.31
660.34	959.12
660.68	952.86
661.02	946.60
661.36	940.62
661.70	934.83
662.05	928.95
662.39	923.60
662.73	918.19
663.07	913.24
663.41	907.21
663.75	901.19
664.09	895.14
664.43	888.00
664.77	882.48
665.11	875.81
665.45	870.50
665.79	864.36
666.13	858.79
666.47	853.40
666.81	848.40
667.15	842.95
667.49	837.76
667.83	833.38
668.17	828.07
668.51	823.12
668.85	818.05
669.19	813.64
669.53	806.74
669.87	800.98
670.21	794.60
670.55	789.00
670.89	784.86
671.23	779.90
671.57	775.24
671.91	770.74
672.25	766.02
672.58	761.57
672.92	756.02
673.26	751.07
673.60	746.26
673.94	741.14
674.28	736.71
674.62	731.88
674.96	726.19
675.30	721.69
675.64	716.86
675.97	711.88
676.31	706.00
676.65	701.26
676.99	697.81
677.33	693.45
677.67	689.43
678.01	683.62
678.34	679.07
678.68	674.57
679.02	669.93
679.36	664.86
679.70	659.52
680.04	655.14
680.37	650.79
680.71	646.40
681.05	641.81
681.39	636.62
681.73	632.02
682.06	627.60
682.40	622.90
682.74	618.79
683.08	615.10
683.42	611.43
683.75	607.60
684.09	602.67
684.43	598.26
684.77	593.67
685.10	589.90
685.44	585.48
685.78	580.79
686.12	576.21
686.45	572.62
686.79	568.43
687.13	564.69
687.46	560.38
687.80	556.57
688.14	553.21
688.48	549.81
688.81	546.29
689.15	543.12
689.49	539.67
689.82	535.69
690.16	531.14
690.50	526.88
690.83	522.98
691.17	518.71
691.51	515.21
691.84	512.02
692.18	507.95
692.52	504.55
692.85	501.40
693.19	498.93
693.52	495.38
693.86	491.71
694.20	488.17
694.53	485.00
694.87	481.45
695.21	477.05
695.54	473.36
695.88	469.38
696.21	465.12
696.55	461.60
696.88	458.64
697.22	455.74
697.56	453.67
697.89	450.67
698.23	448.17
698.56	445.12
698.90	442.00
699.23	439.02
699.57	435.95
699.90	432.98
700.24	429.29
700.58	426.64
700.91	424.24
701.25	422.60
701.58	420.67
701.92	418.38
702.25	416.31
702.59	413.50
702.92	411.26
703.26	409.24
703.59	406.43
703.93	405.57
704.26	403.40
704.60	400.36
704.93	397.86
705.26	395.12
705.60	392.93
705.93	390.48
706.27	388.98
706.60	387.21
706.94	385.93
707.27	383.83
707.61	381.55
707.94	379.38
708.27	375.88
708.61	373.19
708.94	370.95
709.28	369.10
709.61	367.33
709.94	365.62
710.28	363.60
710.61	361.76
710.95	357.83
711.28	356.98
711.61	355.29
711.95	354.10
712.28	352.07
712.61	350.43
712.95	349.62
713.28	348.36
713.61	346.31
713.95	344.02
714.28	342.57
714.61	341.36
714.95	339.81
715.28	338.33
715.61	336.55
715.95	335.21
716.28	333.29
716.61	332.07
716.95	330.50
717.28	329.05
717.61	327.60
717.94	326.05
718.28	323.17
718.61	321.60
718.94	319.40
719.27	318.02
719.61	316.64
719.94	314.60
720.27	312.43
720.60	311.24
720.94	309.86
721.27	308.90
721.60	307.67
721.93	306.24
722.27	306.05
722.60	305.31
722.93	303.95
723.26	303.14
723.59	301.74
723.93	300.79
724.26	299.86
724.59	298.81
724.92	297.93
725.25	297.50
725.59	296.38
725.92	295.64
726.25	294.88
726.58	294.12
726.91	293.29
727.24	292.86
727.57	291.95
727.91	290.81
728.24	289.52
728.57	288.26
728.90	288.00
729.23	286.50
729.56	286.31
729.89	285.21
730.22	284.19
730.55	283.33
730.89	282.29
731.22	281.21
731.55	280.69
731.88	280.10
732.21	278.76
732.54	277.95
732.87	277.50
733.20	276.86
733.53	275.83
733.86	275.26
734.19	273.93
734.52	273.36
734.85	273.86
735.18	273.26
735.51	273.26
735.84	272.74
736.17	272.62
736.50	271.10
736.83	272.83
737.16	272.05
737.49	271.40
737.82	270.81
738.15	270.48
738.48	269.64
738.81	268.81
739.14	268.14
739.47	267.55
739.80	266.81
740.13	266.40
740.46	265.76
740.79	264.81
741.12	264.26
741.45	263.43
741.78	262.07
742.11	261.86
742.44	260.86
742.77	260.24
743.10	259.17
743.43	258.79
743.75	256.29
744.08	258.40
744.41	257.79
744.74	257.19
745.07	256.33
745.40	256.21
745.73	256.52
746.06	256.12
746.39	255.93
746.71	255.38
747.04	254.50
747.37	253.81
747.70	253.95
748.03	253.76
748.36	253.52
748.68	252.95
749.01	252.05
749.34	251.64
749.67	251.31
750.00	250.93
750.33	251.60
750.65	251.07
750.98	248.43
751.31	248.17
751.64	247.98
751.97	248.88
752.29	248.19
752.62	247.05
752.95	246.48
753.28	245.86
753.60	245.38
753.93	245.69
754.26	245.71
754.59	244.64
754.91	244.10
755.24	243.62
755.57	243.31
755.90	243.00
756.22	242.52
756.55	241.95
756.88	241.64
757.20	239.98
757.53	239.38
757.86	238.95
758.19	238.76
758.51	238.38
758.84	237.07
759.17	236.90
759.49	236.69
759.82	237.62
760.15	237.43
760.47	237.05
760.80	235.93
761.13	236.10
761.45	235.81
761.78	235.64
762.11	235.45
762.43	234.95
762.76	234.33
763.08	234.24
763.41	234.00
763.74	233.88
764.06	233.64
764.39	233.45
764.71	233.14
765.04	232.88
765.37	232.45
765.69	232.02
766.02	231.67
766.34	231.55
766.67	230.60
767.00	230.81
767.32	231.76
767.65	233.02
767.97	232.48
768.30	232.64
768.62	232.31
768.95	231.88
769.27	231.57
769.60	232.14
769.92	231.57
770.25	231.02
770.57	230.38
770.90	230.19
771.22	229.67
771.55	229.55
771.87	229.43
772.20	229.33
772.52	230.93
772.85	232.98
773.17	232.64
773.50	232.21
773.82	231.81
774.15	230.81
774.47	229.43
774.80	229.24
775.12	228.93
775.45	228.81
775.77	228.74
776.09	228.79
776.42	228.60
776.74	229.36
777.07	229.07
777.39	228.86
777.72	228.69
778.04	229.12
778.36	228.76
778.69	228.55
779.01	228.55
779.33	226.79
779.66	224.55
779.98	224.48
780.31	224.57
780.63	225.07
780.95	225.29
781.28	225.38
781.60	225.05
781.92	225.05
782.25	225.10
782.57	225.14
782.89	224.95
783.22	224.74
783.54	224.00
783.86	224.12
784.19	224.07
784.51	224.64
784.83	224.14
785.16	224.10
