SpectraSuite Data File
++++++++++++++++++++++++++++++++++++
Date: Tue Apr 02 18:44:44 EDT 2013
User: group
Dark Spectrum Present: No
Reference Spectrum Present: No
Number of Sampled Component Spectra: 1
Spectrometers: USB2E7196
Integration Time (usec): 580000 (USB2E7196)
Spectra Averaged: 2 (USB2E7196)
Boxcar Smoothing: 10 (USB2E7196)
Correct for Electrical Dark: No (USB2E7196)
Strobe/Lamp Enabled: No (USB2E7196)
Correct for Detector Non-linearity: No (USB2E7196)
Correct for Stray Light: No (USB2E7196)
Number of Pixels in Processed Spectrum: 2048
>>>>>Begin Processed Spectral Data<<<<<
339.09	0.00
339.48	193.00
339.86	189.50
340.24	198.50
340.63	197.00
341.01	231.50
341.39	200.00
341.78	207.00
342.16	209.50
342.54	202.50
342.93	197.10
343.31	206.88
343.69	207.31
344.07	208.07
344.46	208.69
344.84	209.45
345.22	208.29
345.60	208.90
345.99	209.14
346.37	209.12
346.75	209.48
347.13	209.74
347.52	209.71
347.90	210.52
348.28	210.52
348.66	211.38
349.05	210.60
349.43	211.00
349.81	211.26
350.19	211.55
350.57	211.64
350.96	211.69
351.34	212.05
351.72	212.36
352.10	212.71
352.48	212.67
352.87	212.43
353.25	212.57
353.63	212.43
354.01	212.43
354.39	212.88
354.77	212.83
355.15	213.48
355.54	213.43
355.92	212.86
356.30	213.00
356.68	214.02
357.06	214.29
357.44	214.10
357.82	213.98
358.20	214.86
358.58	215.05
358.97	215.05
359.35	215.52
359.73	215.90
360.11	215.69
360.49	215.81
360.87	216.05
361.25	216.31
361.63	216.83
362.01	216.93
362.39	216.36
362.77	216.55
363.15	216.50
363.53	216.57
363.91	216.93
364.29	217.00
364.67	215.00
365.05	215.17
365.43	215.38
365.81	215.57
366.19	215.71
366.57	216.14
366.95	215.98
367.33	215.26
367.71	215.26
368.09	215.67
368.47	215.33
368.85	215.10
369.23	215.60
369.61	215.00
369.99	215.57
370.37	216.02
370.75	216.93
371.13	216.31
371.51	216.05
371.89	215.81
372.27	215.74
372.65	216.14
373.03	216.26
373.41	216.02
373.78	215.90
374.16	214.83
374.54	214.29
374.92	214.48
375.30	214.33
375.68	213.81
376.06	213.88
376.44	213.90
376.82	214.17
377.19	213.79
377.57	213.60
377.95	212.71
378.33	212.45
378.71	211.36
379.09	211.55
379.47	211.74
379.84	211.48
380.22	211.40
380.60	210.81
380.98	210.64
381.36	210.60
381.73	210.31
382.11	210.62
382.49	210.74
382.87	210.45
383.25	210.79
383.62	213.36
384.00	212.86
384.38	213.26
384.76	213.62
385.13	214.57
385.51	214.60
385.89	214.62
386.27	214.90
386.64	215.00
387.02	214.95
387.40	214.69
387.78	214.88
388.15	214.83
388.53	214.83
388.91	214.79
389.29	214.71
389.66	214.93
390.04	214.76
390.42	215.07
390.79	215.05
391.17	214.90
391.55	212.62
391.92	212.81
392.30	212.86
392.68	212.45
393.05	212.26
393.43	212.43
393.81	212.55
394.18	212.48
394.56	212.86
394.94	213.31
395.31	213.26
395.69	214.19
396.06	214.31
396.44	214.57
396.82	214.33
397.19	215.48
397.57	215.43
397.95	215.67
398.32	215.10
398.70	215.33
399.07	216.00
399.45	216.02
399.82	215.98
400.20	215.64
400.58	215.50
400.95	214.50
401.33	215.14
401.70	216.67
402.08	216.62
402.45	216.60
402.83	216.90
403.20	217.19
403.58	217.07
403.95	217.67
404.33	218.14
404.71	218.52
405.08	219.57
405.46	219.79
405.83	220.21
406.21	220.71
406.58	221.19
406.96	221.21
407.33	221.76
407.70	222.60
408.08	224.88
408.45	225.76
408.83	226.83
409.20	227.17
409.58	226.79
409.95	227.81
410.33	228.62
410.70	229.12
411.08	230.45
411.45	231.33
411.82	232.29
412.20	233.98
412.57	236.45
412.95	236.07
413.32	238.12
413.69	239.29
414.07	240.98
414.44	242.57
414.82	244.38
415.19	246.88
415.56	248.93
415.94	250.12
416.31	253.14
416.68	256.17
417.06	259.26
417.43	262.79
417.81	266.10
418.18	269.81
418.55	273.86
418.93	277.67
419.30	281.55
419.67	285.90
420.04	289.90
420.42	293.81
420.79	300.98
421.16	306.38
421.54	313.33
421.91	319.52
422.28	325.86
422.66	332.57
423.03	340.12
423.40	347.21
423.77	354.45
424.15	361.40
424.52	368.40
424.89	376.64
425.26	384.36
425.64	391.95
426.01	400.12
426.38	408.74
426.75	418.50
427.13	428.50
427.50	437.86
427.87	447.86
428.24	458.07
428.61	466.45
428.99	477.83
429.36	488.31
429.73	499.43
430.10	510.52
430.47	522.64
430.85	533.19
431.22	546.31
431.59	561.38
431.96	574.02
432.33	588.83
432.70	602.95
433.08	619.05
433.45	634.83
433.82	650.17
434.19	666.86
434.56	683.26
434.93	698.17
435.30	713.88
435.68	731.21
436.05	748.10
436.42	765.00
436.79	780.57
437.16	797.76
437.53	815.50
437.90	833.55
438.27	851.02
438.64	869.12
439.01	885.17
439.38	898.26
439.75	912.98
440.13	929.55
440.50	944.57
440.87	956.98
441.24	970.26
441.61	985.12
441.98	995.71
442.35	1007.81
442.72	1021.31
443.09	1035.26
443.46	1042.93
443.83	1048.24
444.20	1053.00
444.57	1058.76
444.94	1062.05
445.31	1066.24
445.68	1071.95
446.05	1073.50
446.42	1071.93
446.79	1070.36
447.16	1068.81
447.53	1068.05
447.90	1061.57
448.27	1055.12
448.64	1046.36
449.01	1039.83
449.37	1028.40
449.74	1017.93
450.11	1006.21
450.48	991.10
450.85	975.02
451.22	963.00
451.59	951.48
451.96	940.14
452.33	924.74
452.70	910.36
453.07	892.48
453.43	872.67
453.80	856.40
454.17	840.88
454.54	825.45
454.91	809.24
455.28	793.02
455.65	777.76
456.02	766.74
456.38	754.88
456.75	739.17
457.12	726.31
457.49	713.45
457.86	699.62
458.23	689.88
458.59	678.33
458.96	666.33
459.33	655.50
459.70	645.10
460.07	636.62
460.43	627.14
460.80	618.57
461.17	611.81
461.54	603.36
461.91	595.36
462.27	587.26
462.64	580.38
463.01	573.21
463.38	567.57
463.74	556.83
464.11	549.81
464.48	544.07
464.85	537.60
465.21	533.10
465.58	528.10
465.95	521.17
466.32	516.00
466.68	510.64
467.05	505.88
467.42	500.86
467.78	495.98
468.15	491.05
468.52	487.79
468.88	482.07
469.25	477.31
469.62	474.38
469.98	471.05
470.35	467.50
470.72	463.86
471.08	459.07
471.45	456.40
471.82	453.64
472.18	450.24
472.55	447.79
472.92	444.21
473.28	440.93
473.65	438.60
474.02	436.07
474.38	434.19
474.75	432.31
475.11	429.50
475.48	427.71
475.85	426.07
476.21	423.95
476.58	422.98
476.94	421.52
477.31	420.29
477.67	419.12
478.04	417.93
478.41	417.19
478.77	418.14
479.14	417.10
479.50	416.62
479.87	416.36
480.23	415.57
480.60	415.05
480.96	415.17
481.33	415.40
481.69	415.40
482.06	415.17
482.42	415.07
482.79	415.57
483.15	415.86
483.52	416.88
483.88	417.36
484.25	417.50
484.61	418.60
484.98	418.62
485.34	420.36
485.71	421.98
486.07	423.26
486.44	423.00
486.80	424.55
487.17	425.83
487.53	428.40
487.90	431.36
488.26	434.88
488.62	437.90
488.99	440.24
489.35	442.88
489.72	446.07
490.08	448.50
490.44	451.26
490.81	454.74
491.17	457.21
491.54	460.67
491.90	464.31
492.26	467.55
492.63	471.86
492.99	475.02
493.36	479.05
493.72	483.33
494.08	487.10
494.45	492.24
494.81	496.90
495.17	501.07
495.54	505.81
495.90	509.48
496.26	513.88
496.63	519.26
496.99	524.64
497.35	529.95
497.72	536.12
498.08	542.33
498.44	548.00
498.80	555.12
499.17	561.38
499.53	567.62
499.89	574.81
500.26	581.48
500.62	588.05
500.98	594.86
501.34	601.36
501.71	609.17
502.07	615.24
502.43	622.36
502.79	628.79
503.16	636.02
503.52	643.45
503.88	650.74
504.24	658.62
504.60	665.90
504.97	674.05
505.33	681.33
505.69	689.29
506.05	697.36
506.41	704.07
506.78	711.64
507.14	719.55
507.50	727.24
507.86	734.98
508.22	743.10
508.59	750.05
508.95	758.40
509.31	767.05
509.67	775.43
510.03	783.45
510.39	792.29
510.75	799.95
511.12	807.31
511.48	815.00
511.84	821.55
512.20	829.21
512.56	836.12
512.92	844.21
513.28	851.60
513.64	858.17
514.00	865.98
514.37	873.26
514.73	880.24
515.09	887.62
515.45	894.21
515.81	900.64
516.17	907.69
516.53	914.64
516.89	920.52
517.25	926.50
517.61	933.12
517.97	939.14
518.33	945.62
518.69	952.83
519.05	959.69
519.41	966.12
519.77	973.81
520.13	980.02
520.49	985.43
520.85	991.24
521.21	998.76
521.57	1004.95
521.93	1010.12
522.29	1015.69
522.65	1020.60
523.01	1026.31
523.37	1031.57
523.73	1037.36
524.09	1041.95
524.45	1046.69
524.81	1052.26
525.17	1057.00
525.53	1060.88
525.89	1065.29
526.25	1069.60
526.61	1073.55
526.97	1078.26
527.33	1081.45
527.68	1087.79
528.04	1092.36
528.40	1096.14
528.76	1099.50
529.12	1102.71
529.48	1107.40
529.84	1111.76
530.20	1116.31
530.56	1120.50
530.91	1124.93
531.27	1128.60
531.63	1132.71
531.99	1136.67
532.35	1139.93
532.71	1143.83
533.07	1148.74
533.42	1154.90
533.78	1158.90
534.14	1163.86
534.50	1167.50
534.86	1171.93
535.21	1173.45
535.57	1177.81
535.93	1181.52
536.29	1185.86
536.65	1190.86
537.00	1194.05
537.36	1197.60
537.72	1200.83
538.08	1204.69
538.44	1208.55
538.79	1212.38
539.15	1215.14
539.51	1218.36
539.87	1222.17
540.22	1225.62
540.58	1228.71
540.94	1229.86
541.29	1233.12
541.65	1234.50
542.01	1237.98
542.37	1239.98
542.72	1242.43
543.08	1243.76
543.44	1246.88
543.79	1248.36
544.15	1250.43
544.51	1254.12
544.87	1257.31
545.22	1260.14
545.58	1262.79
545.94	1264.79
546.29	1267.24
546.65	1270.74
547.01	1273.55
547.36	1276.76
547.72	1278.67
548.07	1281.69
548.43	1283.79
548.79	1286.24
549.14	1289.26
549.50	1292.60
549.86	1294.98
550.21	1297.76
550.57	1301.86
550.92	1304.10
551.28	1307.19
551.64	1310.43
551.99	1313.45
552.35	1316.45
552.70	1319.10
553.06	1321.88
553.41	1325.67
553.77	1329.93
554.13	1332.95
554.48	1337.69
554.84	1341.31
555.19	1345.38
555.55	1350.71
555.90	1354.48
556.26	1358.64
556.61	1362.19
556.97	1364.93
557.32	1368.64
557.68	1372.98
558.03	1376.62
558.39	1381.31
558.74	1385.38
559.10	1389.10
559.45	1392.52
559.81	1396.12
560.16	1400.48
560.52	1404.57
560.87	1409.14
561.23	1412.60
561.58	1418.07
561.94	1422.10
562.29	1425.83
562.64	1430.74
563.00	1433.43
563.35	1438.26
563.71	1441.69
564.06	1447.93
564.42	1453.38
564.77	1460.17
565.12	1466.07
565.48	1472.98
565.83	1478.86
566.19	1484.31
566.54	1489.26
566.89	1494.98
567.25	1501.36
567.60	1508.60
567.96	1517.31
568.31	1524.36
568.66	1531.05
569.02	1535.52
569.37	1540.36
569.72	1546.60
570.08	1551.50
570.43	1556.93
570.78	1563.33
571.14	1569.45
571.49	1573.90
571.84	1580.02
572.20	1584.79
572.55	1589.98
572.90	1593.50
573.26	1598.12
573.61	1602.43
573.96	1608.98
574.31	1613.10
574.67	1617.40
575.02	1619.86
575.37	1621.19
575.72	1623.40
576.08	1626.95
576.43	1631.43
576.78	1635.17
577.13	1638.67
577.49	1643.50
577.84	1648.81
578.19	1652.21
578.54	1657.31
578.90	1661.48
579.25	1663.81
579.60	1666.60
579.95	1668.74
580.30	1672.40
580.66	1676.05
581.01	1681.02
581.36	1683.26
581.71	1686.69
582.06	1690.95
582.42	1695.02
582.77	1698.50
583.12	1701.95
583.47	1705.12
583.82	1708.02
584.17	1711.29
584.53	1714.57
584.88	1716.48
585.23	1718.55
585.58	1720.88
585.93	1722.48
586.28	1725.81
586.63	1728.62
586.98	1731.69
587.34	1736.62
587.69	1739.02
588.04	1741.33
588.39	1742.60
588.74	1743.33
589.09	1745.69
589.44	1745.21
589.79	1747.86
590.14	1750.07
590.49	1751.62
590.84	1752.45
591.19	1754.19
591.54	1755.55
591.89	1757.33
592.25	1761.93
592.60	1762.95
592.95	1764.52
593.30	1766.31
593.65	1767.26
594.00	1767.38
594.35	1773.83
594.70	1772.69
595.05	1774.48
595.40	1775.71
595.75	1776.48
596.10	1778.95
596.45	1780.40
596.80	1782.67
597.15	1782.60
597.50	1782.36
597.85	1784.12
598.19	1784.29
598.54	1784.43
598.89	1784.43
599.24	1785.05
599.59	1783.17
599.94	1784.43
600.29	1784.52
600.64	1784.98
600.99	1784.43
601.34	1785.86
601.69	1780.02
602.04	1779.48
602.39	1778.14
602.74	1777.81
603.08	1776.98
603.43	1777.10
603.78	1776.43
604.13	1776.00
604.48	1775.24
604.83	1775.50
605.18	1774.57
605.53	1775.00
605.87	1774.24
606.22	1773.95
606.57	1772.74
606.92	1771.64
607.27	1770.10
607.62	1769.48
607.96	1768.40
608.31	1767.10
608.66	1766.24
609.01	1764.57
609.36	1764.12
609.70	1762.48
610.05	1760.52
610.40	1759.43
610.75	1756.81
611.10	1754.81
611.44	1751.02
611.79	1749.02
612.14	1747.02
612.49	1743.10
612.83	1740.10
613.18	1737.45
613.53	1734.60
613.88	1730.50
614.22	1727.50
614.57	1723.45
614.92	1719.31
615.27	1715.33
615.61	1712.26
615.96	1708.33
616.31	1705.48
616.65	1703.26
617.00	1700.48
617.35	1697.33
617.70	1693.98
618.04	1689.52
618.39	1686.17
618.74	1683.55
619.08	1679.29
619.43	1674.71
619.78	1671.38
620.12	1668.45
620.47	1665.45
620.82	1661.12
621.16	1657.43
621.51	1654.02
621.85	1650.21
622.20	1646.81
622.55	1642.62
622.89	1639.43
623.24	1635.71
623.59	1632.07
623.93	1627.67
624.28	1623.17
624.62	1621.00
624.97	1618.52
625.32	1615.55
625.66	1611.83
626.01	1608.64
626.35	1605.98
626.70	1602.36
627.04	1599.40
627.39	1595.12
627.73	1591.07
628.08	1588.43
628.43	1584.81
628.77	1580.21
629.12	1577.31
629.46	1574.00
629.81	1570.10
630.15	1563.90
630.50	1559.60
630.84	1554.76
631.19	1548.86
631.53	1544.67
631.88	1537.33
632.22	1530.74
632.57	1526.50
632.91	1520.33
633.26	1515.79
633.60	1509.90
633.95	1505.00
634.29	1499.38
634.64	1495.76
634.98	1490.45
635.32	1486.69
635.67	1482.86
636.01	1478.60
636.36	1472.71
636.70	1468.05
637.05	1463.86
637.39	1460.38
637.73	1455.81
638.08	1452.10
638.42	1449.26
638.77	1445.26
639.11	1440.57
639.45	1436.48
639.80	1430.74
640.14	1426.52
640.49	1420.90
640.83	1416.02
641.17	1411.62
641.52	1407.26
641.86	1400.76
642.20	1397.10
642.55	1389.86
642.89	1384.38
643.23	1378.74
643.58	1375.02
643.92	1368.81
644.26	1363.07
644.61	1358.55
644.95	1352.74
645.29	1345.88
645.64	1340.07
645.98	1333.60
646.32	1329.02
646.66	1322.31
647.01	1316.29
647.35	1310.69
647.69	1304.79
648.04	1300.31
648.38	1294.12
648.72	1288.02
649.06	1281.93
649.41	1275.10
649.75	1268.81
650.09	1262.55
650.43	1256.60
650.78	1248.62
651.12	1242.43
651.46	1236.40
651.80	1229.12
652.14	1223.02
652.49	1218.10
652.83	1211.48
653.17	1204.67
653.51	1197.21
653.85	1191.55
654.20	1186.02
654.54	1179.19
654.88	1172.74
655.22	1166.17
655.56	1159.55
655.90	1152.98
656.25	1146.79
656.59	1140.55
656.93	1135.05
657.27	1130.05
657.61	1123.52
657.95	1118.55
658.29	1112.24
658.64	1106.40
658.98	1099.93
659.32	1093.17
659.66	1086.26
660.00	1079.86
660.34	1074.12
660.68	1068.29
661.02	1062.98
661.36	1055.31
661.70	1050.10
662.05	1044.17
662.39	1037.62
662.73	1032.14
663.07	1027.00
663.41	1020.88
663.75	1014.43
664.09	1008.64
664.43	1001.62
664.77	995.83
665.11	989.38
665.45	983.76
665.79	977.38
666.13	971.67
666.47	965.81
666.81	960.21
667.15	954.38
667.49	949.07
667.83	945.02
668.17	938.98
668.51	934.48
668.85	928.98
669.19	924.36
669.53	918.02
669.87	912.95
670.21	907.07
670.55	901.95
670.89	897.38
671.23	891.76
671.57	886.55
671.91	881.14
672.25	875.67
672.58	871.21
672.92	865.45
673.26	860.10
673.60	854.88
673.94	849.52
674.28	844.36
674.62	838.95
674.96	832.74
675.30	827.55
675.64	822.26
675.97	816.86
676.31	810.71
676.65	805.62
676.99	801.00
677.33	795.81
677.67	791.24
678.01	785.62
678.34	780.67
678.68	775.71
679.02	770.50
679.36	765.74
679.70	760.02
680.04	755.17
680.37	750.02
680.71	745.21
681.05	740.55
681.39	735.50
681.73	731.00
682.06	725.83
682.40	720.95
682.74	717.60
683.08	713.45
683.42	708.57
683.75	704.76
684.09	698.95
684.43	693.81
684.77	688.45
685.10	683.60
685.44	678.88
685.78	673.98
686.12	669.74
686.45	664.79
686.79	659.98
687.13	656.36
687.46	652.12
687.80	648.50
688.14	644.00
688.48	639.95
688.81	635.00
689.15	631.36
689.49	627.00
689.82	621.98
690.16	616.50
690.50	612.55
690.83	607.76
691.17	603.07
691.51	599.00
691.84	595.21
692.18	591.07
692.52	587.38
692.85	583.81
693.19	580.19
693.52	576.69
693.86	572.55
694.20	567.93
694.53	564.02
694.87	559.38
695.21	555.26
695.54	551.05
695.88	547.00
696.21	542.05
696.55	538.24
696.88	534.33
697.22	531.00
697.56	527.83
697.89	524.02
698.23	520.98
698.56	517.57
698.90	514.19
699.23	510.52
699.57	506.90
699.90	503.05
700.24	499.17
700.58	495.38
700.91	492.50
701.25	491.40
701.58	488.69
701.92	486.55
702.25	483.57
702.59	480.52
702.92	477.69
703.26	475.21
703.59	471.93
703.93	470.76
704.26	468.00
704.60	465.10
704.93	462.21
705.26	458.93
705.60	456.57
705.93	453.33
706.27	451.40
706.60	449.02
706.94	447.02
707.27	443.90
707.61	441.55
707.94	439.12
708.27	434.33
708.61	431.31
708.94	428.07
709.28	425.79
709.61	422.95
709.94	420.57
710.28	417.90
710.61	415.64
710.95	411.19
711.28	410.24
711.61	407.55
711.95	405.88
712.28	403.21
712.61	400.43
712.95	398.95
713.28	397.17
713.61	394.48
713.95	391.79
714.28	389.90
714.61	387.62
714.95	385.14
715.28	382.93
715.61	380.57
715.95	378.55
716.28	375.86
716.61	374.29
716.95	372.02
717.28	369.88
717.61	367.71
717.94	365.81
718.28	362.14
718.61	360.07
718.94	357.90
719.27	356.45
719.61	354.81
719.94	352.62
720.27	349.81
720.60	347.69
720.94	345.69
721.27	344.17
721.60	342.90
721.93	341.24
722.27	340.36
722.60	339.48
722.93	337.67
723.26	336.74
723.59	334.86
723.93	333.62
724.26	332.62
724.59	331.00
724.92	329.62
725.25	329.05
725.59	327.74
725.92	326.76
726.25	325.21
726.58	324.05
726.91	322.29
727.24	321.52
727.57	320.52
727.91	319.24
728.24	318.29
728.57	316.76
728.90	315.55
729.23	313.71
729.56	313.36
729.89	312.05
730.22	310.60
730.55	309.55
730.89	308.74
731.22	307.31
731.55	306.43
731.88	305.64
732.21	303.98
732.54	302.93
732.87	301.62
733.20	300.95
733.53	299.98
733.86	299.57
734.19	298.00
734.52	297.45
734.85	297.83
735.18	296.24
735.51	295.67
735.84	295.00
736.17	294.50
736.50	292.17
736.83	293.74
737.16	292.90
737.49	292.07
737.82	290.95
738.15	290.31
738.48	289.40
738.81	288.40
739.14	287.79
739.47	286.83
739.80	286.17
740.13	285.26
740.46	284.17
740.79	282.83
741.12	282.10
741.45	280.98
741.78	279.10
742.11	278.98
742.44	277.93
742.77	277.26
743.10	276.38
743.43	275.86
743.75	273.14
744.08	275.02
744.41	274.07
744.74	273.14
745.07	272.21
745.40	271.76
745.73	272.17
746.06	271.60
746.39	271.26
746.71	270.21
747.04	269.55
747.37	268.93
747.70	268.69
748.03	268.26
748.36	267.64
748.68	267.21
749.01	265.83
749.34	265.24
749.67	264.69
750.00	264.33
750.33	265.21
750.65	264.90
750.98	261.57
751.31	261.21
751.64	260.81
751.97	261.38
752.29	260.60
752.62	258.86
752.95	257.88
753.28	256.95
753.60	256.31
753.93	256.33
754.26	255.83
754.59	254.79
754.91	253.60
755.24	253.21
755.57	252.43
755.90	251.98
756.22	251.36
756.55	250.64
756.88	249.62
757.20	247.86
757.53	246.64
757.86	246.10
758.19	245.71
758.51	245.14
758.84	243.48
759.17	242.98
759.49	242.50
759.82	243.00
760.15	242.93
760.47	242.48
760.80	241.45
761.13	241.31
761.45	240.83
761.78	240.86
762.11	240.52
762.43	240.17
762.76	239.79
763.08	239.60
763.41	239.26
763.74	239.50
764.06	238.88
764.39	238.67
764.71	238.48
765.04	237.81
765.37	237.48
765.69	237.29
766.02	236.93
766.34	236.50
766.67	235.74
767.00	235.90
767.32	236.98
767.65	237.76
767.97	237.10
768.30	236.93
768.62	236.67
768.95	236.02
769.27	235.64
769.60	235.62
769.92	234.98
770.25	234.38
770.57	233.48
770.90	233.31
771.22	232.88
771.55	232.69
771.87	232.69
772.20	232.40
772.52	233.95
772.85	236.52
773.17	236.52
773.50	235.98
773.82	235.14
774.15	233.86
774.47	232.24
774.80	231.98
775.12	231.76
775.45	231.48
775.77	231.81
776.09	231.83
776.42	231.76
776.74	232.38
777.07	231.98
777.39	231.76
777.72	231.45
778.04	231.40
778.36	231.10
778.69	231.10
779.01	231.14
779.33	229.19
779.66	226.48
779.98	226.17
780.31	226.12
780.63	226.69
780.95	226.81
781.28	226.95
781.60	226.86
781.92	226.83
782.25	226.93
782.57	226.48
782.89	225.95
783.22	225.74
783.54	225.10
783.86	225.29
784.19	225.24
784.51	225.81
784.83	225.55
785.16	225.43
