SpectraSuite Data File
++++++++++++++++++++++++++++++++++++
Date: Tue Apr 02 18:43:42 EDT 2013
User: group
Dark Spectrum Present: No
Reference Spectrum Present: No
Number of Sampled Component Spectra: 1
Spectrometers: USB2E7196
Integration Time (usec): 580000 (USB2E7196)
Spectra Averaged: 2 (USB2E7196)
Boxcar Smoothing: 10 (USB2E7196)
Correct for Electrical Dark: No (USB2E7196)
Strobe/Lamp Enabled: No (USB2E7196)
Correct for Detector Non-linearity: No (USB2E7196)
Correct for Stray Light: No (USB2E7196)
Number of Pixels in Processed Spectrum: 2048
>>>>>Begin Processed Spectral Data<<<<<
339.09	0.00
339.48	192.00
339.86	196.00
340.24	196.00
340.63	196.00
341.01	229.00
341.39	197.00
341.78	207.00
342.16	208.50
342.54	203.50
342.93	196.55
343.31	206.38
343.69	206.86
344.07	207.29
344.46	207.88
344.84	208.62
345.22	207.55
345.60	208.14
345.99	208.17
346.37	208.21
346.75	208.19
347.13	208.31
347.52	208.71
347.90	209.36
348.28	209.29
348.66	209.81
349.05	209.38
349.43	209.74
349.81	210.07
350.19	210.24
350.57	210.36
350.96	210.55
351.34	210.88
351.72	211.19
352.10	211.26
352.48	211.05
352.87	210.95
353.25	211.29
353.63	211.21
354.01	211.19
354.39	211.64
354.77	211.90
355.15	212.64
355.54	212.45
355.92	211.98
356.30	212.17
356.68	213.57
357.06	213.88
357.44	213.69
357.82	213.43
358.20	214.33
358.58	214.55
358.97	214.79
359.35	215.10
359.73	215.71
360.11	215.83
360.49	216.38
360.87	216.45
361.25	216.62
361.63	217.60
362.01	217.83
362.39	217.50
362.77	217.74
363.15	217.57
363.53	217.64
363.91	217.81
364.29	218.05
364.67	216.24
365.05	216.02
365.43	216.50
365.81	216.90
366.19	217.12
366.57	217.67
366.95	217.60
367.33	217.21
367.71	217.02
368.09	217.40
368.47	217.38
368.85	217.36
369.23	217.90
369.61	216.95
369.99	217.74
370.37	217.86
370.75	218.81
371.13	218.36
371.51	218.07
371.89	218.02
372.27	217.88
372.65	217.67
373.03	217.95
373.41	217.52
373.78	217.40
374.16	216.45
374.54	215.86
374.92	215.60
375.30	215.62
375.68	215.26
376.06	215.43
376.44	215.19
376.82	215.38
377.19	214.98
377.57	215.07
377.95	214.29
378.33	214.33
378.71	213.07
379.09	213.31
379.47	213.36
379.84	213.33
380.22	213.36
380.60	213.36
380.98	213.02
381.36	212.98
381.73	212.74
382.11	213.05
382.49	213.10
382.87	212.98
383.25	213.14
383.62	215.55
384.00	215.26
384.38	215.29
384.76	215.57
385.13	216.45
385.51	216.48
385.89	216.36
386.27	216.26
386.64	216.67
387.02	216.33
387.40	216.40
387.78	216.57
388.15	216.45
388.53	216.31
388.91	216.50
389.29	216.40
389.66	216.69
390.04	216.38
390.42	216.64
390.79	216.83
391.17	216.60
391.55	214.29
391.92	214.05
392.30	214.19
392.68	213.76
393.05	213.50
393.43	213.60
393.81	213.67
394.18	213.33
394.56	213.21
394.94	213.76
395.31	213.52
395.69	213.93
396.06	214.29
396.44	214.36
396.82	214.17
397.19	215.31
397.57	215.12
397.95	215.17
398.32	214.74
398.70	214.57
399.07	215.00
399.45	214.93
399.82	215.02
400.20	214.86
400.58	214.69
400.95	213.76
401.33	214.24
401.70	215.45
402.08	216.00
402.45	216.19
402.83	216.64
403.20	216.81
403.58	216.60
403.95	217.14
404.33	217.79
404.71	218.07
405.08	219.17
405.46	219.45
405.83	220.07
406.21	220.29
406.58	220.83
406.96	220.93
407.33	221.71
407.70	222.40
408.08	224.71
408.45	225.86
408.83	227.05
409.20	227.33
409.58	227.10
409.95	228.02
410.33	228.86
410.70	229.33
411.08	230.57
411.45	231.76
411.82	232.43
412.20	233.93
412.57	236.36
412.95	235.93
413.32	237.76
413.69	238.88
414.07	240.81
414.44	242.76
414.82	244.90
415.19	247.24
415.56	249.55
415.94	250.67
416.31	253.43
416.68	256.19
417.06	259.45
417.43	263.24
417.81	266.50
418.18	270.24
418.55	273.71
418.93	277.83
419.30	282.14
419.67	286.40
420.04	290.81
420.42	295.02
420.79	302.14
421.16	307.67
421.54	315.26
421.91	321.48
422.28	327.64
422.66	334.12
423.03	341.62
423.40	348.38
423.77	355.67
424.15	362.67
424.52	370.38
424.89	379.19
425.26	386.62
425.64	394.26
426.01	402.45
426.38	411.52
426.75	421.00
427.13	430.43
427.50	440.19
427.87	450.45
428.24	460.55
428.61	468.86
428.99	480.19
429.36	489.76
429.73	501.07
430.10	512.02
430.47	523.62
430.85	534.45
431.22	547.33
431.59	562.19
431.96	575.07
432.33	589.12
432.70	602.38
433.08	618.33
433.45	634.12
433.82	649.38
434.19	666.10
434.56	682.74
434.93	697.79
435.30	713.29
435.68	730.31
436.05	747.40
436.42	764.81
436.79	780.24
437.16	797.29
437.53	814.71
437.90	833.52
438.27	851.40
438.64	868.93
439.01	885.86
439.38	899.62
439.75	913.98
440.13	930.55
440.50	946.40
440.87	959.17
441.24	971.79
441.61	986.83
441.98	997.43
442.35	1009.21
442.72	1022.60
443.09	1036.74
443.46	1044.36
443.83	1050.00
444.20	1054.90
444.57	1061.52
444.94	1066.05
445.31	1070.19
445.68	1075.33
446.05	1077.00
446.42	1075.93
446.79	1074.81
447.16	1072.62
447.53	1072.14
447.90	1065.88
448.27	1059.26
448.64	1051.31
449.01	1045.52
449.37	1033.98
449.74	1024.00
450.11	1012.86
450.48	998.12
450.85	982.17
451.22	969.93
451.59	957.36
451.96	945.40
452.33	929.45
452.70	914.43
453.07	896.57
453.43	876.86
453.80	860.31
454.17	845.02
454.54	829.12
454.91	812.90
455.28	796.86
455.65	781.79
456.02	770.48
456.38	757.57
456.75	742.00
457.12	728.57
457.49	715.05
457.86	700.90
458.23	691.10
458.59	678.83
458.96	666.69
459.33	656.24
459.70	645.55
460.07	637.29
460.43	627.86
460.80	619.29
461.17	612.33
461.54	603.90
461.91	595.62
462.27	587.52
462.64	580.36
463.01	572.93
463.38	566.48
463.74	555.45
464.11	548.52
464.48	542.76
464.85	536.62
465.21	532.26
465.58	527.31
465.95	520.17
466.32	515.69
466.68	510.40
467.05	505.24
467.42	500.36
467.78	494.64
468.15	489.26
468.52	485.83
468.88	480.17
469.25	475.76
469.62	472.55
469.98	468.55
470.35	465.36
470.72	461.88
471.08	457.52
471.45	454.81
471.82	452.02
472.18	448.26
472.55	446.40
472.92	443.02
473.28	440.07
473.65	437.76
474.02	434.86
474.38	433.24
474.75	431.52
475.11	429.19
475.48	427.83
475.85	426.40
476.21	424.45
476.58	422.86
476.94	421.52
477.31	420.21
477.67	419.17
478.04	417.86
478.41	416.57
478.77	417.74
479.14	416.81
479.50	416.02
479.87	415.71
480.23	414.93
480.60	414.33
480.96	414.24
481.33	414.88
481.69	414.98
482.06	414.83
482.42	414.79
482.79	415.24
483.15	415.36
483.52	416.17
483.88	416.52
484.25	417.12
484.61	417.69
484.98	418.19
485.34	419.74
485.71	421.55
486.07	422.86
486.44	422.38
486.80	424.10
487.17	426.00
487.53	428.83
487.90	430.83
488.26	433.76
488.62	436.40
488.99	437.90
489.35	440.81
489.72	443.50
490.08	446.40
490.44	449.19
490.81	452.69
491.17	455.48
491.54	459.33
491.90	463.60
492.26	467.43
492.63	471.26
492.99	474.57
493.36	478.45
493.72	483.24
494.08	487.69
494.45	492.55
494.81	497.26
495.17	501.19
495.54	506.26
495.90	510.62
496.26	515.24
496.63	521.00
496.99	525.83
497.35	531.62
497.72	537.79
498.08	543.48
498.44	548.95
498.80	555.14
499.17	561.29
499.53	567.50
499.89	574.43
500.26	581.00
500.62	588.19
500.98	595.83
501.34	602.81
501.71	610.21
502.07	617.29
502.43	624.36
502.79	631.43
503.16	638.79
503.52	646.17
503.88	653.88
504.24	661.43
504.60	669.07
504.97	676.71
505.33	684.02
505.69	692.95
506.05	701.45
506.41	709.31
506.78	716.67
507.14	724.07
507.50	731.48
507.86	739.52
508.22	747.55
508.59	754.52
508.95	761.83
509.31	770.60
509.67	778.07
510.03	785.48
510.39	793.88
510.75	801.83
511.12	808.95
511.48	816.21
511.84	823.45
512.20	831.24
512.56	838.79
512.92	846.45
513.28	853.83
513.64	860.95
514.00	868.62
514.37	876.17
514.73	882.98
515.09	890.38
515.45	897.95
515.81	904.02
516.17	911.05
516.53	917.69
516.89	923.31
517.25	930.00
517.61	937.17
517.97	942.95
518.33	948.71
518.69	955.81
519.05	962.60
519.41	969.05
519.77	976.74
520.13	982.07
520.49	987.88
520.85	992.83
521.21	999.45
521.57	1005.07
521.93	1010.21
522.29	1016.64
522.65	1021.45
523.01	1025.98
523.37	1031.74
523.73	1036.76
524.09	1042.52
524.45	1047.14
524.81	1052.07
525.17	1057.02
525.53	1062.45
525.89	1067.74
526.25	1071.76
526.61	1075.45
526.97	1079.71
527.33	1082.86
527.68	1088.95
528.04	1092.71
528.40	1096.76
528.76	1100.00
529.12	1104.31
529.48	1108.98
529.84	1112.43
530.20	1117.05
530.56	1121.71
530.91	1126.12
531.27	1130.26
531.63	1133.90
531.99	1137.48
532.35	1140.69
532.71	1144.07
533.07	1148.26
533.42	1154.62
533.78	1159.62
534.14	1164.98
534.50	1169.36
534.86	1174.45
535.21	1177.31
535.57	1182.69
535.93	1186.26
536.29	1191.86
536.65	1196.36
537.00	1199.76
537.36	1203.62
537.72	1207.52
538.08	1211.79
538.44	1214.86
538.79	1219.07
539.15	1222.21
539.51	1226.62
539.87	1231.00
540.22	1234.19
540.58	1237.38
540.94	1237.83
541.29	1241.14
541.65	1243.19
542.01	1246.33
542.37	1247.86
542.72	1249.64
543.08	1250.95
543.44	1254.24
543.79	1254.64
544.15	1256.83
544.51	1260.10
544.87	1263.24
545.22	1266.02
545.58	1268.12
545.94	1270.60
546.29	1272.74
546.65	1275.60
547.01	1278.10
547.36	1280.52
547.72	1284.02
548.07	1286.62
548.43	1289.00
548.79	1290.88
549.14	1293.62
549.50	1296.62
549.86	1298.88
550.21	1301.79
550.57	1305.81
550.92	1308.36
551.28	1312.21
551.64	1315.07
551.99	1318.21
552.35	1320.93
552.70	1323.36
553.06	1325.90
553.41	1329.24
553.77	1333.76
554.13	1337.05
554.48	1341.55
554.84	1346.24
555.19	1350.52
555.55	1354.76
555.90	1359.10
556.26	1363.67
556.61	1366.90
556.97	1369.76
557.32	1374.10
557.68	1378.79
558.03	1382.24
558.39	1386.52
558.74	1389.90
559.10	1394.21
559.45	1398.05
559.81	1402.26
560.16	1406.40
560.52	1411.10
560.87	1416.36
561.23	1418.57
561.58	1424.38
561.94	1427.24
562.29	1429.98
562.64	1433.71
563.00	1437.76
563.35	1442.45
563.71	1446.05
564.06	1451.88
564.42	1456.93
564.77	1462.67
565.12	1468.43
565.48	1475.36
565.83	1481.40
566.19	1487.21
566.54	1491.52
566.89	1497.64
567.25	1503.81
567.60	1511.26
567.96	1518.64
568.31	1524.83
568.66	1531.83
569.02	1537.00
569.37	1542.69
569.72	1548.98
570.08	1554.50
570.43	1560.00
570.78	1565.45
571.14	1571.60
571.49	1576.40
571.84	1581.67
572.20	1586.69
572.55	1591.43
572.90	1594.48
573.26	1598.71
573.61	1603.43
573.96	1608.64
574.31	1612.52
574.67	1616.02
575.02	1618.98
575.37	1622.12
575.72	1623.83
576.08	1627.88
576.43	1631.05
576.78	1635.55
577.13	1638.60
577.49	1642.24
577.84	1645.24
578.19	1648.95
578.54	1652.45
578.90	1656.12
579.25	1659.69
579.60	1662.48
579.95	1665.00
580.30	1668.83
580.66	1673.43
581.01	1676.98
581.36	1680.26
581.71	1683.90
582.06	1688.71
582.42	1692.90
582.77	1694.60
583.12	1698.88
583.47	1702.24
583.82	1705.40
584.17	1708.33
584.53	1713.48
584.88	1715.62
585.23	1719.36
585.58	1721.90
585.93	1723.69
586.28	1726.55
586.63	1730.10
586.98	1732.79
587.34	1736.21
587.69	1739.12
588.04	1740.93
588.39	1743.57
588.74	1745.71
589.09	1747.90
589.44	1748.33
589.79	1750.14
590.14	1753.43
590.49	1755.43
590.84	1755.90
591.19	1757.50
591.54	1759.57
591.89	1759.55
592.25	1763.36
592.60	1764.14
592.95	1765.60
593.30	1768.48
593.65	1769.98
594.00	1770.24
594.35	1776.62
594.70	1776.93
595.05	1777.52
595.40	1777.98
595.75	1777.76
596.10	1778.26
596.45	1778.62
596.80	1779.33
597.15	1779.71
597.50	1780.10
597.85	1781.29
598.19	1781.90
598.54	1782.12
598.89	1782.07
599.24	1783.12
599.59	1782.43
599.94	1782.26
600.29	1782.86
600.64	1782.38
600.99	1782.40
601.34	1783.67
601.69	1778.40
602.04	1778.57
602.39	1778.24
602.74	1777.55
603.08	1778.10
603.43	1779.64
603.78	1779.21
604.13	1778.98
604.48	1777.64
604.83	1777.43
605.18	1777.05
605.53	1776.38
605.87	1775.76
606.22	1774.24
606.57	1771.93
606.92	1770.29
607.27	1769.71
607.62	1768.76
607.96	1767.74
608.31	1767.26
608.66	1765.24
609.01	1763.95
609.36	1762.67
609.70	1760.10
610.05	1758.62
610.40	1756.29
610.75	1752.48
611.10	1751.48
611.44	1749.90
611.79	1747.55
612.14	1744.81
612.49	1740.64
612.83	1738.29
613.18	1735.52
613.53	1733.38
613.88	1730.67
614.22	1727.43
614.57	1724.57
614.92	1720.29
615.27	1718.14
615.61	1713.24
615.96	1708.33
616.31	1704.60
616.65	1701.62
617.00	1699.71
617.35	1697.26
617.70	1694.48
618.04	1691.60
618.39	1687.24
618.74	1683.62
619.08	1679.52
619.43	1675.79
619.78	1672.74
620.12	1669.48
620.47	1665.93
620.82	1660.64
621.16	1656.10
621.51	1653.40
621.85	1647.90
622.20	1643.69
622.55	1638.36
622.89	1635.12
623.24	1632.26
623.59	1628.48
623.93	1624.24
624.28	1619.40
624.62	1617.29
624.97	1614.14
625.32	1610.40
625.66	1607.24
626.01	1602.31
626.35	1599.26
626.70	1595.67
627.04	1592.69
627.39	1588.17
627.73	1585.45
628.08	1583.38
628.43	1580.52
628.77	1575.17
629.12	1573.43
629.46	1569.71
629.81	1565.10
630.15	1560.24
630.50	1555.86
630.84	1551.45
631.19	1546.14
631.53	1541.29
631.88	1533.33
632.22	1526.88
632.57	1522.55
632.91	1516.43
633.26	1512.33
633.60	1507.10
633.95	1501.19
634.29	1495.02
634.64	1490.88
634.98	1484.79
635.32	1479.79
635.67	1476.38
636.01	1472.05
636.36	1466.29
636.70	1462.71
637.05	1458.14
637.39	1454.05
637.73	1449.93
638.08	1446.24
638.42	1442.07
638.77	1437.88
639.11	1433.31
639.45	1428.90
639.80	1422.67
640.14	1417.74
640.49	1412.43
640.83	1406.86
641.17	1402.48
641.52	1397.05
641.86	1391.21
642.20	1387.07
642.55	1380.98
642.89	1374.19
643.23	1368.57
643.58	1364.00
643.92	1357.07
644.26	1352.17
644.61	1347.17
644.95	1340.71
645.29	1333.64
645.64	1328.76
645.98	1323.05
646.32	1317.55
646.66	1310.60
647.01	1304.50
647.35	1298.86
647.69	1292.86
648.04	1287.90
648.38	1281.38
648.72	1276.07
649.06	1269.60
649.41	1262.26
649.75	1255.60
650.09	1249.14
650.43	1243.26
650.78	1235.81
651.12	1229.48
651.46	1222.38
651.80	1215.45
652.14	1209.29
652.49	1203.48
652.83	1196.02
653.17	1189.00
653.51	1181.93
653.85	1176.69
654.20	1170.86
654.54	1164.38
654.88	1157.43
655.22	1151.02
655.56	1144.10
655.90	1137.29
656.25	1131.19
656.59	1124.86
656.93	1118.38
657.27	1112.88
657.61	1105.86
657.95	1100.17
658.29	1094.36
658.64	1088.83
658.98	1081.98
659.32	1075.21
659.66	1069.10
660.00	1062.74
660.34	1056.88
660.68	1050.81
661.02	1043.50
661.36	1037.50
661.70	1031.45
662.05	1025.62
662.39	1019.17
662.73	1013.88
663.07	1009.40
663.41	1003.21
663.75	996.93
664.09	992.14
664.43	985.60
664.77	979.26
665.11	972.86
665.45	967.14
665.79	960.88
666.13	955.00
666.47	949.45
666.81	942.83
667.15	936.79
667.49	931.21
667.83	926.69
668.17	921.90
668.51	916.26
668.85	910.62
669.19	905.64
669.53	899.93
669.87	893.86
670.21	887.50
670.55	881.62
670.89	877.10
671.23	871.07
671.57	865.50
671.91	860.79
672.25	854.71
672.58	849.55
672.92	843.74
673.26	838.55
673.60	833.07
673.94	828.36
674.28	823.79
674.62	818.50
674.96	812.02
675.30	806.76
675.64	800.93
675.97	795.76
676.31	789.98
676.65	784.95
676.99	781.17
677.33	775.83
677.67	771.57
678.01	766.02
678.34	761.17
678.68	756.79
679.02	750.98
679.36	746.43
679.70	741.26
680.04	736.52
680.37	731.21
680.71	726.52
681.05	721.83
681.39	717.00
681.73	712.33
682.06	708.24
682.40	703.55
682.74	699.90
683.08	695.79
683.42	691.24
683.75	686.60
684.09	680.95
684.43	676.38
684.77	671.33
685.10	666.90
685.44	662.40
685.78	657.60
686.12	653.52
686.45	649.00
686.79	644.00
687.13	640.26
687.46	636.36
687.80	632.31
688.14	627.21
688.48	622.57
688.81	618.24
689.15	614.57
689.49	610.79
689.82	605.88
690.16	600.67
690.50	596.38
690.83	592.31
691.17	587.52
691.51	582.55
691.84	578.71
692.18	574.33
692.52	570.43
692.85	566.90
693.19	563.64
693.52	559.81
693.86	556.52
694.20	552.19
694.53	547.93
694.87	544.10
695.21	540.50
695.54	537.12
695.88	533.02
696.21	528.45
696.55	524.07
696.88	520.50
697.22	516.81
697.56	514.00
697.89	510.21
698.23	507.14
698.56	504.17
698.90	501.02
699.23	497.48
699.57	493.60
699.90	489.45
700.24	485.88
700.58	482.88
700.91	479.29
701.25	477.74
701.58	475.79
701.92	472.95
702.25	469.86
702.59	466.62
702.92	463.83
703.26	461.10
703.59	458.33
703.93	457.29
704.26	454.81
704.60	451.76
704.93	449.05
705.26	446.12
705.60	443.64
705.93	440.24
706.27	438.10
706.60	436.07
706.94	434.19
707.27	431.43
707.61	428.67
707.94	425.93
708.27	421.64
708.61	417.90
708.94	415.05
709.28	413.02
709.61	410.40
709.94	407.88
710.28	405.19
710.61	403.05
710.95	398.86
711.28	397.95
711.61	395.55
711.95	393.62
712.28	391.62
712.61	389.33
712.95	388.55
713.28	387.12
713.61	384.71
713.95	382.43
714.28	380.55
714.61	378.76
714.95	377.02
715.28	374.98
715.61	373.48
715.95	371.74
716.28	369.50
716.61	368.05
716.95	365.83
717.28	364.17
717.61	362.05
717.94	360.10
718.28	356.79
718.61	354.81
718.94	352.52
719.27	350.81
719.61	348.88
719.94	346.10
720.27	343.33
720.60	341.24
720.94	339.50
721.27	337.55
721.60	336.29
721.93	334.48
722.27	333.67
722.60	332.31
722.93	330.76
723.26	329.45
723.59	327.45
723.93	326.48
724.26	325.38
724.59	323.86
724.92	322.67
725.25	322.24
725.59	320.88
725.92	319.98
726.25	318.38
726.58	317.38
726.91	316.26
727.24	315.33
727.57	314.50
727.91	313.07
728.24	312.38
728.57	310.81
728.90	309.98
729.23	308.26
729.56	307.86
729.89	306.88
730.22	305.57
730.55	304.57
730.89	303.24
731.22	301.69
731.55	300.71
731.88	299.88
732.21	298.05
732.54	296.81
732.87	295.67
733.20	295.10
733.53	294.00
733.86	293.14
734.19	292.12
734.52	291.43
734.85	291.83
735.18	290.71
735.51	290.31
735.84	289.55
736.17	289.38
736.50	287.67
736.83	289.05
737.16	288.29
737.49	287.62
737.82	286.81
738.15	286.33
738.48	285.52
738.81	284.43
739.14	283.67
739.47	282.95
739.80	282.17
740.13	281.45
740.46	280.64
740.79	279.48
741.12	278.57
741.45	277.60
741.78	275.64
742.11	275.43
742.44	274.52
742.77	274.05
743.10	272.95
743.43	271.95
743.75	268.71
744.08	270.52
744.41	269.55
744.74	268.62
745.07	267.67
745.40	267.36
745.73	267.60
746.06	266.81
746.39	266.48
746.71	265.60
747.04	264.64
747.37	264.00
747.70	263.90
748.03	263.45
748.36	263.12
748.68	262.67
749.01	261.33
749.34	260.60
749.67	259.86
750.00	259.64
750.33	260.48
750.65	260.21
750.98	257.31
751.31	256.93
751.64	256.71
751.97	257.38
752.29	256.76
752.62	255.31
752.95	254.93
753.28	254.33
753.60	254.02
753.93	254.12
754.26	253.43
754.59	252.64
754.91	251.81
755.24	251.33
755.57	250.81
755.90	250.24
756.22	249.60
756.55	248.83
756.88	247.88
757.20	246.36
757.53	245.24
757.86	244.86
758.19	244.67
758.51	244.19
758.84	242.55
759.17	242.05
759.49	241.88
759.82	242.40
760.15	242.05
760.47	241.43
760.80	240.64
761.13	240.71
761.45	240.19
761.78	240.10
762.11	239.57
762.43	239.17
762.76	239.12
763.08	239.07
763.41	239.17
763.74	238.76
764.06	238.38
764.39	238.31
764.71	237.95
765.04	237.31
765.37	236.81
765.69	236.43
766.02	236.07
766.34	235.62
766.67	234.69
767.00	234.69
767.32	235.71
767.65	236.69
767.97	236.26
768.30	236.12
768.62	235.93
768.95	235.67
769.27	235.38
769.60	235.19
769.92	234.48
770.25	233.60
770.57	233.14
770.90	232.93
771.22	232.67
771.55	232.26
771.87	232.14
772.20	231.86
772.52	233.57
772.85	235.88
773.17	235.81
773.50	235.26
773.82	234.88
774.15	233.60
774.47	232.17
774.80	231.90
775.12	231.79
775.45	231.50
775.77	231.21
776.09	231.14
776.42	231.02
776.74	231.67
777.07	231.48
777.39	231.45
777.72	231.05
778.04	231.12
778.36	230.88
778.69	230.76
779.01	230.83
779.33	228.90
779.66	226.12
779.98	225.81
780.31	225.81
780.63	226.24
780.95	226.48
781.28	226.26
781.60	225.88
781.92	225.81
782.25	225.45
782.57	225.17
782.89	224.90
783.22	224.60
783.54	224.00
783.86	224.14
784.19	224.02
784.51	224.48
784.83	224.17
785.16	224.02
