SpectraSuite Data File
++++++++++++++++++++++++++++++++++++
Date: Tue Apr 02 18:38:09 EDT 2013
User: group
Dark Spectrum Present: No
Reference Spectrum Present: No
Number of Sampled Component Spectra: 1
Spectrometers: USB2E7196
Integration Time (usec): 580000 (USB2E7196)
Spectra Averaged: 2 (USB2E7196)
Boxcar Smoothing: 10 (USB2E7196)
Correct for Electrical Dark: No (USB2E7196)
Strobe/Lamp Enabled: No (USB2E7196)
Correct for Detector Non-linearity: No (USB2E7196)
Correct for Stray Light: No (USB2E7196)
Number of Pixels in Processed Spectrum: 2048
>>>>>Begin Processed Spectral Data<<<<<
339.09	0.00
339.48	192.50
339.86	194.50
340.24	196.00
340.63	200.00
341.01	232.50
341.39	202.50
341.78	202.50
342.16	209.50
342.54	210.00
342.93	198.38
343.31	208.12
343.69	208.69
344.07	209.19
344.46	209.90
344.84	210.38
345.22	209.24
345.60	209.79
345.99	210.10
346.37	210.05
346.75	209.90
347.13	210.00
347.52	209.88
347.90	210.52
348.28	210.38
348.66	210.95
349.05	210.50
349.43	210.81
349.81	210.86
350.19	210.88
350.57	210.90
350.96	211.12
351.34	211.60
351.72	211.83
352.10	211.83
352.48	211.79
352.87	211.79
353.25	211.86
353.63	211.69
354.01	211.81
354.39	211.83
354.77	212.12
355.15	212.60
355.54	212.64
355.92	212.24
356.30	212.26
356.68	213.62
357.06	213.67
357.44	213.31
357.82	213.52
358.20	214.38
358.58	214.38
358.97	214.43
359.35	214.48
359.73	214.71
360.11	214.98
360.49	215.07
360.87	215.19
361.25	215.45
361.63	216.05
362.01	216.31
362.39	216.43
362.77	216.57
363.15	216.55
363.53	216.50
363.91	216.71
364.29	216.88
364.67	215.00
365.05	215.12
365.43	215.43
365.81	215.57
366.19	215.74
366.57	216.64
366.95	216.57
367.33	216.26
367.71	216.60
368.09	216.81
368.47	216.95
368.85	217.02
369.23	217.62
369.61	217.02
369.99	217.64
370.37	217.95
370.75	218.55
371.13	218.19
371.51	217.95
371.89	217.98
372.27	218.31
372.65	218.40
373.03	218.45
373.41	218.43
373.78	218.24
374.16	217.19
374.54	216.40
374.92	216.12
375.30	216.05
375.68	215.48
376.06	215.55
376.44	215.17
376.82	215.05
377.19	214.71
377.57	214.57
377.95	213.74
378.33	213.55
378.71	212.50
379.09	212.86
379.47	213.07
379.84	212.74
380.22	212.38
380.60	212.10
380.98	212.26
381.36	212.02
381.73	211.79
382.11	212.31
382.49	212.55
382.87	212.45
383.25	212.76
383.62	215.21
384.00	215.14
384.38	215.38
384.76	215.86
385.13	216.62
385.51	216.57
385.89	216.38
386.27	216.38
386.64	216.98
387.02	216.71
387.40	216.67
387.78	216.95
388.15	217.24
388.53	217.12
388.91	217.05
389.29	216.90
389.66	217.12
390.04	216.98
390.42	217.19
390.79	217.33
391.17	217.19
391.55	214.90
391.92	214.69
392.30	214.88
392.68	214.40
393.05	214.00
393.43	214.40
393.81	214.52
394.18	214.26
394.56	214.12
394.94	214.71
395.31	214.60
395.69	215.31
396.06	215.38
396.44	215.50
396.82	215.36
397.19	216.26
397.57	216.21
397.95	216.38
398.32	215.81
398.70	216.17
399.07	216.74
399.45	216.81
399.82	216.90
400.20	216.93
400.58	216.86
400.95	216.33
401.33	216.52
401.70	218.24
402.08	218.52
402.45	218.48
402.83	219.00
403.20	219.10
403.58	218.71
403.95	219.19
404.33	219.79
404.71	220.21
405.08	221.76
405.46	222.12
405.83	222.55
406.21	223.19
406.58	223.52
406.96	223.71
407.33	224.33
407.70	225.21
408.08	227.02
408.45	228.33
408.83	229.69
409.20	230.38
409.58	229.93
409.95	231.19
410.33	232.57
410.70	232.79
411.08	234.26
411.45	235.79
411.82	236.52
412.20	238.29
412.57	240.71
412.95	240.50
413.32	242.50
413.69	244.26
414.07	246.17
414.44	248.14
414.82	250.48
415.19	253.33
415.56	255.90
415.94	257.69
416.31	260.95
416.68	263.76
417.06	267.45
417.43	271.26
417.81	275.19
418.18	279.24
418.55	283.64
418.93	288.38
419.30	292.93
419.67	298.38
420.04	303.57
420.42	308.50
420.79	316.64
421.16	323.21
421.54	331.05
421.91	338.43
422.28	345.57
422.66	353.14
423.03	361.81
423.40	369.57
423.77	378.07
424.15	385.98
424.52	395.19
424.89	405.33
425.26	414.55
425.64	423.45
426.01	433.26
426.38	443.83
426.75	454.83
427.13	466.00
427.50	476.95
427.87	488.57
428.24	500.81
428.61	511.10
428.99	523.98
429.36	536.50
429.73	549.74
430.10	563.50
430.47	577.71
430.85	590.40
431.22	605.52
431.59	623.05
431.96	638.36
432.33	654.81
432.70	670.62
433.08	689.98
433.45	708.48
433.82	726.83
434.19	746.95
434.56	766.93
434.93	785.74
435.30	805.24
435.68	826.55
436.05	846.93
436.42	867.40
436.79	886.71
437.16	907.29
437.53	928.67
437.90	949.93
438.27	970.93
438.64	992.93
439.01	1013.38
439.38	1030.19
439.75	1049.33
440.13	1069.79
440.50	1090.07
440.87	1105.79
441.24	1121.95
441.61	1140.02
441.98	1153.69
442.35	1168.17
442.72	1183.90
443.09	1200.00
443.46	1209.52
443.83	1216.50
444.20	1222.64
444.57	1230.36
444.94	1234.33
445.31	1239.00
445.68	1245.55
446.05	1247.74
446.42	1246.55
446.79	1245.33
447.16	1243.10
447.53	1241.64
447.90	1234.31
448.27	1226.43
448.64	1216.40
449.01	1208.83
449.37	1195.21
449.74	1182.48
450.11	1169.67
450.48	1152.21
450.85	1133.60
451.22	1118.50
451.59	1103.98
451.96	1090.07
452.33	1071.38
452.70	1055.10
453.07	1034.98
453.43	1012.48
453.80	993.07
454.17	973.95
454.54	955.76
454.91	936.81
455.28	917.02
455.65	899.50
456.02	884.98
456.38	869.29
456.75	851.38
457.12	835.93
457.49	819.88
457.86	802.57
458.23	790.24
458.59	776.33
458.96	761.95
459.33	749.43
459.70	736.62
460.07	726.76
460.43	714.43
460.80	703.38
461.17	694.69
461.54	684.67
461.91	675.71
462.27	666.36
462.64	658.00
463.01	649.36
463.38	640.98
463.74	628.45
464.11	621.12
464.48	614.02
464.85	606.21
465.21	601.00
465.58	595.36
465.95	587.62
466.32	581.69
466.68	575.55
467.05	569.38
467.42	563.21
467.78	556.52
468.15	551.57
468.52	547.50
468.88	540.57
469.25	534.76
469.62	530.38
469.98	524.93
470.35	521.05
470.72	516.67
471.08	511.79
471.45	508.83
471.82	505.19
472.18	501.14
472.55	498.45
472.92	494.26
473.28	490.57
473.65	487.69
474.02	484.38
474.38	482.45
474.75	480.60
475.11	478.24
475.48	476.67
475.85	474.43
476.21	472.50
476.58	471.12
476.94	470.07
477.31	468.88
477.67	468.19
478.04	466.62
478.41	465.90
478.77	467.33
479.14	466.00
479.50	465.31
479.87	465.05
480.23	464.50
480.60	464.50
480.96	464.31
481.33	465.50
481.69	465.74
482.06	465.52
482.42	465.57
482.79	465.98
483.15	466.50
483.52	467.67
483.88	468.62
484.25	469.83
484.61	471.12
484.98	472.05
485.34	474.50
485.71	476.31
486.07	478.17
486.44	478.05
486.80	480.21
487.17	482.40
487.53	484.86
487.90	487.88
488.26	491.57
488.62	495.29
488.99	497.81
489.35	501.57
489.72	505.05
490.08	508.76
490.44	512.55
490.81	517.19
491.17	521.29
491.54	525.48
491.90	530.33
492.26	534.95
492.63	540.12
492.99	544.48
493.36	549.79
493.72	555.50
494.08	561.71
494.45	568.00
494.81	574.48
495.17	581.29
495.54	587.90
495.90	594.33
496.26	600.76
496.63	607.52
496.99	614.43
497.35	622.48
497.72	630.50
498.08	637.98
498.44	645.60
498.80	653.98
499.17	662.14
499.53	670.02
499.89	679.52
500.26	688.52
500.62	697.02
500.98	706.64
501.34	715.90
501.71	725.26
502.07	734.43
502.43	743.83
502.79	752.71
503.16	761.95
503.52	770.83
503.88	780.38
504.24	790.50
504.60	800.48
504.97	810.05
505.33	819.55
505.69	830.90
506.05	841.40
506.41	850.83
506.78	861.24
507.14	871.57
507.50	881.69
507.86	891.81
508.22	901.67
508.59	910.79
508.95	921.10
509.31	932.36
509.67	943.14
510.03	953.00
510.39	962.93
510.75	973.29
511.12	984.05
511.48	994.38
511.84	1004.00
512.20	1014.00
512.56	1023.74
512.92	1033.79
513.28	1043.14
513.64	1052.74
514.00	1063.05
514.37	1072.19
514.73	1082.10
515.09	1091.00
515.45	1099.83
515.81	1109.76
516.17	1119.10
516.53	1127.33
516.89	1134.05
517.25	1142.10
517.61	1150.57
517.97	1158.86
518.33	1166.79
518.69	1174.74
519.05	1182.36
519.41	1190.21
519.77	1199.50
520.13	1207.95
520.49	1214.67
520.85	1221.95
521.21	1229.86
521.57	1237.43
521.93	1243.62
522.29	1250.67
522.65	1256.17
523.01	1263.60
523.37	1269.31
523.73	1275.36
524.09	1281.00
524.45	1287.69
524.81	1293.45
525.17	1299.38
525.53	1304.95
525.89	1310.60
526.25	1315.71
526.61	1321.19
526.97	1325.88
527.33	1329.50
527.68	1335.38
528.04	1340.81
528.40	1344.48
528.76	1347.31
529.12	1350.57
529.48	1356.67
529.84	1360.17
530.20	1364.93
530.56	1367.98
530.91	1372.24
531.27	1376.43
531.63	1381.21
531.99	1384.10
532.35	1387.76
532.71	1390.83
533.07	1394.90
533.42	1400.24
533.78	1404.45
534.14	1407.67
534.50	1411.29
534.86	1414.88
535.21	1415.76
535.57	1418.74
535.93	1421.52
536.29	1425.38
536.65	1428.60
537.00	1429.74
537.36	1432.93
537.72	1435.57
538.08	1437.24
538.44	1439.26
538.79	1441.43
539.15	1442.33
539.51	1445.17
539.87	1446.48
540.22	1448.69
540.58	1450.19
540.94	1449.67
541.29	1449.21
541.65	1449.38
542.01	1450.10
542.37	1450.62
542.72	1451.00
543.08	1450.40
543.44	1452.36
543.79	1451.36
544.15	1452.05
544.51	1453.12
544.87	1452.33
545.22	1451.67
545.58	1451.93
545.94	1451.64
546.29	1450.38
546.65	1449.83
547.01	1448.52
547.36	1447.93
547.72	1447.00
548.07	1446.26
548.43	1444.76
548.79	1444.26
549.14	1443.88
549.50	1443.57
549.86	1441.10
550.21	1440.40
550.57	1439.52
550.92	1437.10
551.28	1436.07
551.64	1433.95
551.99	1432.12
552.35	1430.10
552.70	1428.81
553.06	1428.12
553.41	1426.26
553.77	1427.31
554.13	1426.19
554.48	1425.17
554.84	1425.17
555.19	1423.38
555.55	1423.14
555.90	1421.74
556.26	1420.24
556.61	1417.86
556.97	1414.60
557.32	1412.88
557.68	1411.48
558.03	1410.29
558.39	1409.00
558.74	1407.62
559.10	1405.79
559.45	1404.43
559.81	1403.93
560.16	1402.05
560.52	1400.12
560.87	1399.02
561.23	1394.93
561.58	1395.19
561.94	1393.12
562.29	1390.05
562.64	1389.50
563.00	1385.76
563.35	1384.05
563.71	1382.62
564.06	1382.12
564.42	1381.19
564.77	1380.98
565.12	1379.76
565.48	1379.98
565.83	1379.64
566.19	1378.76
566.54	1377.48
566.89	1375.93
567.25	1374.45
567.60	1375.12
567.96	1376.12
568.31	1375.21
568.66	1375.05
569.02	1371.36
569.37	1369.29
569.72	1367.86
570.08	1365.14
570.43	1363.88
570.78	1362.45
571.14	1360.86
571.49	1358.26
571.84	1357.24
572.20	1354.00
572.55	1351.74
572.90	1348.12
573.26	1344.79
573.61	1342.14
573.96	1339.71
574.31	1336.43
574.67	1332.95
575.02	1328.88
575.37	1323.40
575.72	1319.38
576.08	1316.02
576.43	1313.14
576.78	1309.86
577.13	1306.05
577.49	1302.48
577.84	1298.81
578.19	1295.90
578.54	1292.40
578.90	1288.95
579.25	1284.98
579.60	1281.29
579.95	1276.29
580.30	1272.17
580.66	1267.98
581.01	1263.40
581.36	1259.31
581.71	1255.90
582.06	1252.93
582.42	1249.10
582.77	1244.74
583.12	1240.71
583.47	1236.17
583.82	1231.83
584.17	1228.26
584.53	1225.38
584.88	1221.48
585.23	1218.29
585.58	1212.86
585.93	1208.12
586.28	1204.40
586.63	1200.40
586.98	1197.21
587.34	1194.67
587.69	1189.60
588.04	1185.31
588.39	1181.24
588.74	1176.17
589.09	1171.95
589.44	1166.19
589.79	1161.19
590.14	1157.14
590.49	1152.62
590.84	1148.10
591.19	1144.38
591.54	1140.31
591.89	1134.40
592.25	1131.95
592.60	1127.19
592.95	1123.76
593.30	1119.71
593.65	1115.36
594.00	1110.14
594.35	1111.14
594.70	1105.67
595.05	1102.29
595.40	1097.74
595.75	1093.00
596.10	1089.43
596.45	1085.07
596.80	1081.17
597.15	1077.24
597.50	1072.24
597.85	1068.98
598.19	1065.02
598.54	1060.48
598.89	1055.69
599.24	1052.29
599.59	1046.14
599.94	1040.83
600.29	1036.26
600.64	1032.19
600.99	1027.55
601.34	1024.14
601.69	1014.14
602.04	1009.55
602.39	1005.02
602.74	1001.24
603.08	996.98
603.43	993.50
603.78	989.36
604.13	984.76
604.48	979.71
604.83	975.98
605.18	971.14
605.53	966.81
605.87	962.24
606.22	957.98
606.57	953.21
606.92	948.40
607.27	944.76
607.62	940.00
607.96	935.62
608.31	931.31
608.66	926.71
609.01	921.98
609.36	918.33
609.70	914.38
610.05	909.93
610.40	906.19
610.75	901.12
611.10	896.33
611.44	892.19
611.79	888.33
612.14	883.93
612.49	879.21
612.83	874.33
613.18	870.21
613.53	865.93
613.88	860.93
614.22	855.98
614.57	850.95
614.92	846.52
615.27	841.86
615.61	837.24
615.96	832.19
616.31	827.83
616.65	823.62
617.00	819.10
617.35	814.38
617.70	809.48
618.04	805.19
618.39	800.62
618.74	796.88
619.08	792.33
619.43	788.14
619.78	783.90
620.12	779.55
620.47	775.19
620.82	770.02
621.16	766.50
621.51	764.24
621.85	760.24
622.20	756.90
622.55	752.24
622.89	748.71
623.24	745.33
623.59	740.95
623.93	737.26
624.28	733.19
624.62	731.74
624.97	729.88
625.32	726.05
625.66	722.60
626.01	718.02
626.35	714.86
626.70	710.98
627.04	707.98
627.39	704.76
627.73	701.81
628.08	699.62
628.43	696.02
628.77	691.69
629.12	688.71
629.46	685.33
629.81	682.29
630.15	677.93
630.50	673.95
630.84	671.12
631.19	666.88
631.53	663.21
631.88	657.64
632.22	652.62
632.57	649.67
632.91	646.24
633.26	643.57
633.60	639.90
633.95	636.57
634.29	632.62
634.64	629.52
634.98	625.60
635.32	622.60
635.67	619.36
636.01	615.81
636.36	612.67
636.70	609.48
637.05	606.36
637.39	603.81
637.73	601.26
638.08	598.93
638.42	596.10
638.77	594.05
639.11	591.02
639.45	587.95
639.80	584.10
640.14	580.95
640.49	577.55
640.83	574.19
641.17	571.00
641.52	568.00
641.86	564.95
642.20	562.83
642.55	559.02
642.89	556.36
643.23	553.69
643.58	550.90
643.92	547.17
644.26	544.14
644.61	541.57
644.95	538.26
645.29	534.67
645.64	532.38
645.98	528.57
646.32	526.31
646.66	523.43
647.01	520.57
647.35	517.93
647.69	515.50
648.04	513.26
648.38	511.05
648.72	508.33
649.06	505.71
649.41	502.43
649.75	499.69
650.09	497.10
650.43	494.43
650.78	491.02
651.12	488.48
651.46	485.93
651.80	482.95
652.14	480.64
652.49	478.74
652.83	475.17
653.17	472.57
653.51	469.26
653.85	467.19
654.20	464.95
654.54	462.50
654.88	459.40
655.22	457.86
655.56	454.88
655.90	452.98
656.25	450.69
656.59	448.60
656.93	446.93
657.27	445.19
657.61	442.93
657.95	441.62
658.29	439.57
658.64	438.21
658.98	435.83
659.32	433.50
659.66	431.00
660.00	429.86
660.34	428.10
660.68	426.17
661.02	424.07
661.36	421.95
661.70	419.69
662.05	418.33
662.39	416.21
662.73	415.55
663.07	414.95
663.41	413.21
663.75	410.98
664.09	409.07
664.43	406.55
664.77	404.71
665.11	402.45
665.45	401.19
665.79	399.55
666.13	398.05
666.47	396.19
666.81	394.45
667.15	392.12
667.49	390.62
667.83	389.69
668.17	387.52
668.51	386.17
668.85	385.38
669.19	384.57
669.53	382.02
669.87	379.95
670.21	377.33
670.55	375.79
670.89	375.40
671.23	373.76
671.57	372.52
671.91	371.24
672.25	370.05
672.58	369.29
672.92	367.19
673.26	366.29
673.60	365.12
673.94	364.02
674.28	362.95
674.62	361.93
674.96	359.98
675.30	358.95
675.64	357.98
675.97	356.26
676.31	354.60
676.65	353.50
676.99	352.93
677.33	351.24
677.67	349.74
678.01	347.69
678.34	346.50
678.68	345.86
679.02	344.43
679.36	342.86
679.70	340.69
680.04	339.55
680.37	337.88
680.71	336.69
681.05	335.31
681.39	334.40
681.73	333.07
682.06	331.93
682.40	330.86
682.74	329.57
683.08	329.29
683.42	327.81
683.75	327.02
684.09	325.33
684.43	324.14
684.77	323.00
685.10	321.90
685.44	320.93
685.78	319.48
686.12	318.67
686.45	317.88
686.79	316.74
687.13	315.88
687.46	314.79
687.80	314.31
688.14	313.36
688.48	312.50
688.81	311.55
689.15	311.21
689.49	310.05
689.82	309.14
690.16	307.43
690.50	306.76
690.83	305.48
691.17	304.05
691.51	303.45
691.84	302.67
692.18	301.21
692.52	300.19
692.85	299.38
693.19	299.07
693.52	298.17
693.86	297.48
694.20	296.50
694.53	295.88
694.87	294.60
695.21	293.50
695.54	292.29
695.88	291.02
696.21	289.62
696.55	289.17
696.88	288.40
697.22	287.40
697.56	286.86
697.89	286.10
698.23	286.10
698.56	285.26
698.90	284.93
699.23	284.43
699.57	283.74
699.90	282.76
700.24	281.50
700.58	280.90
700.91	280.31
701.25	281.24
701.58	281.05
701.92	280.88
702.25	280.38
702.59	279.86
702.92	279.67
703.26	279.19
703.59	278.48
703.93	279.74
704.26	279.48
704.60	278.52
704.93	277.98
705.26	276.83
705.60	276.38
705.93	275.10
706.27	275.19
706.60	275.45
706.94	275.81
707.27	275.02
707.61	274.38
707.94	273.83
708.27	271.69
708.61	270.50
708.94	269.90
709.28	269.33
709.61	268.48
709.94	267.95
710.28	267.38
710.61	267.00
710.95	264.33
711.28	265.02
711.61	264.50
711.95	264.31
712.28	263.74
712.61	263.02
712.95	263.74
713.28	264.05
713.61	262.93
713.95	261.60
714.28	261.17
714.61	260.62
714.95	260.12
715.28	259.55
715.61	259.05
715.95	258.55
716.28	258.07
716.61	257.95
716.95	257.00
717.28	256.67
717.61	256.07
717.94	255.64
718.28	253.71
718.61	253.07
718.94	252.26
719.27	251.69
719.61	251.62
719.94	250.48
720.27	248.81
720.60	248.21
720.94	247.98
721.27	247.74
721.60	247.90
721.93	247.55
722.27	247.95
722.60	247.86
722.93	247.40
723.26	247.17
723.59	246.48
723.93	246.81
724.26	246.62
724.59	246.31
724.92	246.21
725.25	246.57
725.59	246.31
725.92	246.40
726.25	246.12
726.58	245.90
726.91	245.64
727.24	245.64
727.57	245.12
727.91	244.52
728.24	244.52
728.57	243.67
728.90	243.57
729.23	242.48
729.56	243.29
729.89	242.74
730.22	242.57
730.55	242.55
730.89	242.19
731.22	241.50
731.55	241.12
731.88	240.86
732.21	240.17
732.54	239.79
732.87	239.64
733.20	239.60
733.53	239.31
733.86	239.19
734.19	238.74
734.52	239.26
734.85	240.33
735.18	239.81
735.51	240.26
735.84	239.86
736.17	240.24
736.50	238.79
736.83	241.00
737.16	240.50
737.49	240.24
737.82	239.83
738.15	240.05
738.48	239.88
738.81	239.69
739.14	239.33
739.47	239.10
739.80	238.55
740.13	238.76
740.46	238.07
740.79	237.60
741.12	237.29
741.45	236.57
741.78	235.40
742.11	235.71
742.44	235.10
742.77	235.43
743.10	234.83
743.43	234.62
743.75	232.36
744.08	234.98
744.41	234.62
744.74	234.17
745.07	233.50
745.40	233.83
745.73	234.48
746.06	234.21
746.39	234.31
746.71	233.93
747.04	233.33
747.37	233.29
747.70	233.40
748.03	233.60
748.36	234.00
748.68	233.74
749.01	232.86
749.34	232.62
749.67	232.21
750.00	232.24
750.33	233.45
750.65	233.62
750.98	230.93
751.31	230.86
751.64	230.79
751.97	231.86
752.29	231.33
752.62	230.02
752.95	230.00
753.28	229.69
753.60	229.64
753.93	230.02
754.26	229.90
754.59	229.21
754.91	228.67
755.24	228.05
755.57	227.86
755.90	227.76
756.22	227.36
756.55	227.02
756.88	226.64
757.20	225.02
757.53	224.33
757.86	224.10
758.19	224.02
758.51	223.90
758.84	222.86
759.17	222.50
759.49	222.67
759.82	223.57
760.15	223.74
760.47	223.60
760.80	222.74
761.13	223.10
761.45	223.12
761.78	223.07
762.11	223.07
762.43	222.71
762.76	222.55
763.08	222.62
763.41	222.79
763.74	222.86
764.06	223.05
764.39	222.83
764.71	222.83
765.04	222.64
765.37	222.64
765.69	222.50
766.02	222.45
766.34	222.05
766.67	221.17
767.00	221.48
767.32	222.52
767.65	224.05
767.97	223.43
768.30	223.50
768.62	223.33
768.95	223.02
769.27	222.90
769.60	223.19
769.92	223.02
770.25	222.45
770.57	222.10
770.90	222.05
771.22	221.79
771.55	221.67
771.87	221.52
772.20	221.31
772.52	223.00
772.85	225.19
773.17	225.19
773.50	224.90
773.82	224.52
774.15	223.43
774.47	221.86
774.80	221.88
775.12	221.86
775.45	221.76
775.77	221.74
776.09	222.02
776.42	222.00
776.74	222.45
777.07	222.45
777.39	222.40
777.72	222.00
778.04	222.26
778.36	222.24
778.69	222.33
779.01	222.50
779.33	220.55
779.66	218.69
779.98	218.60
780.31	218.69
780.63	219.14
780.95	219.57
781.28	219.67
781.60	219.43
781.92	219.14
782.25	219.31
782.57	219.38
782.89	219.19
783.22	219.40
783.54	218.95
783.86	219.05
784.19	218.93
784.51	219.83
784.83	219.69
785.16	219.43
785.48	219.57
785.80	219.45
786.12	219.74
786.45	219.38
786.77	219.40
787.09	219.33
787.42	218.76
787.74	218.45
788.06	218.29
