SpectraSuite Data File
++++++++++++++++++++++++++++++++++++
Date: Tue Apr 02 18:38:34 EDT 2013
User: group
Dark Spectrum Present: No
Reference Spectrum Present: No
Number of Sampled Component Spectra: 1
Spectrometers: USB2E7196
Integration Time (usec): 580000 (USB2E7196)
Spectra Averaged: 2 (USB2E7196)
Boxcar Smoothing: 10 (USB2E7196)
Correct for Electrical Dark: No (USB2E7196)
Strobe/Lamp Enabled: No (USB2E7196)
Correct for Detector Non-linearity: No (USB2E7196)
Correct for Stray Light: No (USB2E7196)
Number of Pixels in Processed Spectrum: 2048
>>>>>Begin Processed Spectral Data<<<<<
339.09	0.00
339.48	195.50
339.86	192.50
340.24	191.00
340.63	193.00
341.01	228.00
341.39	199.50
341.78	210.00
342.16	212.50
342.54	207.50
342.93	198.26
343.31	208.14
343.69	208.69
344.07	209.55
344.46	210.69
344.84	211.43
345.22	210.45
345.60	211.19
345.99	211.33
346.37	211.19
346.75	211.43
347.13	211.38
347.52	211.52
347.90	212.05
348.28	212.12
348.66	212.62
349.05	211.93
349.43	211.98
349.81	212.19
350.19	212.10
350.57	212.21
350.96	212.33
351.34	212.67
351.72	212.81
352.10	212.76
352.48	212.48
352.87	212.48
353.25	212.55
353.63	212.29
354.01	212.07
354.39	212.12
354.77	212.00
355.15	212.64
355.54	212.55
355.92	211.95
356.30	211.95
356.68	212.93
357.06	213.19
357.44	213.19
357.82	213.17
358.20	214.10
358.58	214.05
358.97	213.71
359.35	214.12
359.73	214.57
360.11	214.60
360.49	214.62
360.87	214.50
361.25	215.00
361.63	215.86
362.01	216.05
362.39	215.83
362.77	216.05
363.15	215.93
363.53	216.10
363.91	216.38
364.29	216.38
364.67	214.48
365.05	214.67
365.43	214.74
365.81	214.88
366.19	214.83
366.57	215.64
366.95	215.76
367.33	215.12
367.71	214.81
368.09	215.05
368.47	214.95
368.85	215.19
369.23	215.21
369.61	214.19
369.99	215.10
370.37	215.69
370.75	216.50
371.13	216.10
371.51	215.76
371.89	215.74
372.27	215.79
372.65	216.17
373.03	215.95
373.41	215.90
373.78	215.88
374.16	214.74
374.54	214.19
374.92	214.14
375.30	214.29
375.68	214.17
376.06	214.50
376.44	214.55
376.82	214.79
377.19	214.64
377.57	214.79
377.95	213.81
378.33	213.48
378.71	212.38
379.09	212.67
379.47	212.69
379.84	212.43
380.22	212.38
380.60	212.19
380.98	212.10
381.36	212.12
381.73	211.93
382.11	212.62
382.49	212.69
382.87	212.57
383.25	212.57
383.62	215.00
384.00	214.26
384.38	214.60
384.76	214.86
385.13	215.64
385.51	215.79
385.89	215.83
386.27	215.98
386.64	216.38
387.02	216.24
387.40	216.12
387.78	216.38
388.15	216.45
388.53	216.43
388.91	216.64
389.29	216.64
389.66	216.79
390.04	216.52
390.42	216.98
390.79	217.26
391.17	217.19
391.55	214.95
391.92	215.38
392.30	215.55
392.68	215.36
393.05	215.38
393.43	215.36
393.81	215.12
394.18	214.81
394.56	214.60
394.94	215.31
395.31	215.19
395.69	215.69
396.06	216.00
396.44	216.14
396.82	215.95
397.19	217.10
397.57	217.00
397.95	217.40
398.32	216.81
398.70	216.93
399.07	217.62
399.45	217.57
399.82	217.38
400.20	217.14
400.58	217.12
400.95	216.40
401.33	216.90
401.70	218.71
402.08	219.07
402.45	219.17
402.83	219.40
403.20	219.71
403.58	219.79
403.95	220.48
404.33	220.88
404.71	221.12
405.08	222.21
405.46	222.69
405.83	223.14
406.21	223.62
406.58	224.19
406.96	224.21
407.33	224.81
407.70	225.67
408.08	227.81
408.45	228.57
408.83	229.79
409.20	230.24
409.58	229.86
409.95	231.26
410.33	232.69
410.70	233.38
411.08	235.00
411.45	236.14
411.82	236.90
412.20	238.60
412.57	241.52
412.95	241.29
413.32	243.07
413.69	244.71
414.07	246.62
414.44	248.69
414.82	251.02
415.19	253.86
415.56	256.33
415.94	257.98
416.31	261.40
416.68	264.29
417.06	268.07
417.43	272.38
417.81	276.19
418.18	280.52
418.55	284.81
418.93	289.57
419.30	294.50
419.67	299.60
420.04	304.55
420.42	309.17
420.79	317.45
421.16	323.95
421.54	332.02
421.91	339.29
422.28	346.36
422.66	354.26
423.03	363.07
423.40	371.29
423.77	379.38
424.15	387.79
424.52	396.86
424.89	407.17
425.26	416.12
425.64	424.86
426.01	434.45
426.38	444.55
426.75	454.98
427.13	466.14
427.50	477.64
427.87	489.76
428.24	501.88
428.61	511.98
428.99	525.55
429.36	537.88
429.73	551.19
430.10	565.21
430.47	579.24
430.85	591.95
431.22	607.12
431.59	625.36
431.96	640.43
432.33	657.36
432.70	673.05
433.08	691.90
433.45	710.57
433.82	728.71
434.19	748.67
434.56	769.14
434.93	787.62
435.30	806.26
435.68	827.48
436.05	848.00
436.42	868.93
436.79	887.71
437.16	908.43
437.53	929.29
437.90	949.90
438.27	970.95
438.64	992.88
439.01	1013.10
439.38	1029.45
439.75	1046.43
440.13	1066.00
440.50	1084.64
440.87	1100.17
441.24	1116.14
441.61	1133.55
441.98	1146.50
442.35	1160.90
442.72	1176.40
443.09	1192.38
443.46	1201.36
443.83	1208.19
444.20	1213.26
444.57	1219.76
444.94	1223.69
445.31	1228.00
445.68	1234.05
446.05	1236.12
446.42	1234.36
446.79	1233.00
447.16	1230.86
447.53	1229.79
447.90	1222.36
448.27	1215.12
448.64	1205.10
449.01	1197.69
449.37	1184.24
449.74	1171.38
450.11	1157.36
450.48	1139.31
450.85	1120.43
451.22	1105.29
451.59	1090.90
451.96	1076.88
452.33	1058.74
452.70	1041.69
453.07	1021.48
453.43	999.14
453.80	979.00
454.17	960.12
454.54	941.90
454.91	922.36
455.28	903.88
455.65	886.98
456.02	872.62
456.38	857.24
456.75	838.62
457.12	823.05
457.49	808.12
457.86	791.90
458.23	780.10
458.59	766.33
458.96	751.90
459.33	738.50
459.70	726.60
460.07	716.83
460.43	705.67
460.80	695.71
461.17	687.14
461.54	677.21
461.91	667.52
462.27	657.81
462.64	649.40
463.01	640.60
463.38	632.36
463.74	620.55
464.11	612.38
464.48	605.55
464.85	598.07
465.21	592.74
465.58	586.71
465.95	579.19
466.32	573.52
466.68	567.02
467.05	561.29
467.42	554.98
467.78	548.88
468.15	542.74
468.52	538.29
468.88	531.79
469.25	526.79
469.62	522.95
469.98	518.00
470.35	513.83
470.72	509.55
471.08	504.29
471.45	500.95
471.82	497.74
472.18	493.57
472.55	490.69
472.92	486.57
473.28	482.86
473.65	479.71
474.02	476.36
474.38	474.50
474.75	472.29
475.11	469.60
475.48	467.50
475.85	465.12
476.21	462.83
476.58	461.24
476.94	459.60
477.31	458.02
477.67	456.67
478.04	455.62
478.41	454.81
478.77	456.17
479.14	454.50
479.50	454.29
479.87	454.07
480.23	453.69
480.60	453.12
480.96	452.93
481.33	453.95
481.69	454.64
482.06	454.83
482.42	455.76
482.79	456.24
483.15	456.79
483.52	458.36
483.88	459.48
484.25	460.21
484.61	461.29
484.98	462.48
485.34	464.57
485.71	466.43
486.07	468.14
486.44	468.17
486.80	470.50
487.17	472.26
487.53	475.07
487.90	477.86
488.26	481.71
488.62	485.10
488.99	487.45
489.35	490.40
489.72	494.05
490.08	497.29
490.44	500.86
490.81	505.02
491.17	508.52
491.54	512.29
491.90	516.76
492.26	521.31
492.63	525.95
492.99	530.74
493.36	535.64
493.72	541.17
494.08	546.19
494.45	552.33
494.81	558.71
495.17	564.36
495.54	570.93
495.90	576.43
496.26	582.81
496.63	589.43
496.99	596.10
497.35	602.88
497.72	610.10
498.08	617.67
498.44	625.02
498.80	633.26
499.17	641.36
499.53	649.64
499.89	659.07
500.26	668.19
500.62	676.21
500.98	685.88
501.34	694.36
501.71	704.57
502.07	713.12
502.43	721.90
502.79	731.17
503.16	739.81
503.52	749.86
503.88	759.12
504.24	769.79
504.60	780.12
504.97	790.93
505.33	801.05
505.69	812.57
506.05	823.21
506.41	833.60
506.78	844.33
507.14	854.79
507.50	865.29
507.86	875.98
508.22	886.93
508.59	896.76
508.95	908.45
509.31	919.76
509.67	931.24
510.03	942.62
510.39	953.31
510.75	964.48
511.12	974.95
511.48	986.64
511.84	996.93
512.20	1007.81
512.56	1018.64
512.92	1029.48
513.28	1039.07
513.64	1049.83
514.00	1060.83
514.37	1071.71
514.73	1082.60
515.09	1093.12
515.45	1103.05
515.81	1114.12
516.17	1124.36
516.53	1133.52
516.89	1142.60
517.25	1152.71
517.61	1162.71
517.97	1172.86
518.33	1182.67
518.69	1193.38
519.05	1203.36
519.41	1213.31
519.77	1223.76
520.13	1232.62
520.49	1241.90
520.85	1252.07
521.21	1262.36
521.57	1271.40
521.93	1279.31
522.29	1288.69
522.65	1296.52
523.01	1306.74
523.37	1314.17
523.73	1323.00
524.09	1332.40
524.45	1340.74
524.81	1348.24
525.17	1356.57
525.53	1364.98
525.89	1373.60
526.25	1381.79
526.61	1388.50
526.97	1395.83
527.33	1403.55
527.68	1412.71
528.04	1420.00
528.40	1426.83
528.76	1433.33
529.12	1441.40
529.48	1450.00
529.84	1457.05
530.20	1464.98
530.56	1471.98
530.91	1479.67
531.27	1486.64
531.63	1493.60
531.99	1500.43
532.35	1506.93
532.71	1513.17
533.07	1519.90
533.42	1529.36
533.78	1535.74
534.14	1542.88
534.50	1548.83
534.86	1555.17
535.21	1560.40
535.57	1566.62
535.93	1572.60
536.29	1579.67
536.65	1584.74
537.00	1590.05
537.36	1595.50
537.72	1600.52
538.08	1605.31
538.44	1610.19
538.79	1615.48
539.15	1620.02
539.51	1625.95
539.87	1632.24
540.22	1637.93
540.58	1641.86
540.94	1643.33
541.29	1648.38
541.65	1651.67
542.01	1655.93
542.37	1659.57
542.72	1662.19
543.08	1665.33
543.44	1668.69
543.79	1670.52
544.15	1674.43
544.51	1679.10
544.87	1682.17
545.22	1686.02
545.58	1689.05
545.94	1691.60
546.29	1693.79
546.65	1697.02
547.01	1697.93
547.36	1700.31
547.72	1702.12
548.07	1705.60
548.43	1708.05
548.79	1708.90
549.14	1711.98
549.50	1714.93
549.86	1716.52
550.21	1719.57
550.57	1722.38
550.92	1724.05
551.28	1726.17
551.64	1727.55
551.99	1727.71
552.35	1729.10
552.70	1730.57
553.06	1732.69
553.41	1734.67
553.77	1738.29
554.13	1739.19
554.48	1742.86
554.84	1745.10
555.19	1747.00
555.55	1749.38
555.90	1751.57
556.26	1752.79
556.61	1754.26
556.97	1755.88
557.32	1757.57
557.68	1759.50
558.03	1760.29
558.39	1762.26
558.74	1763.79
559.10	1765.02
559.45	1766.98
559.81	1769.10
560.16	1769.95
560.52	1770.86
560.87	1772.98
561.23	1773.07
561.58	1776.29
561.94	1776.43
562.29	1775.79
562.64	1777.05
563.00	1777.05
563.35	1776.40
563.71	1777.62
564.06	1778.38
564.42	1778.79
564.77	1779.88
565.12	1780.48
565.48	1783.50
565.83	1785.36
566.19	1786.64
566.54	1788.45
566.89	1789.24
567.25	1789.95
567.60	1791.74
567.96	1793.86
568.31	1795.29
568.66	1795.95
569.02	1794.10
569.37	1794.14
569.72	1795.05
570.08	1794.67
570.43	1794.60
570.78	1795.29
571.14	1796.00
571.49	1796.12
571.84	1796.55
572.20	1795.64
572.55	1795.57
572.90	1792.98
573.26	1791.26
573.61	1790.36
573.96	1788.36
574.31	1786.50
574.67	1785.05
575.02	1782.62
575.37	1779.50
575.72	1775.83
576.08	1773.74
576.43	1771.76
576.78	1768.93
577.13	1767.05
577.49	1763.90
577.84	1760.95
578.19	1758.19
578.54	1754.48
578.90	1751.33
579.25	1747.67
579.60	1745.00
579.95	1740.29
580.30	1737.52
580.66	1733.83
581.01	1730.40
581.36	1725.71
581.71	1722.26
582.06	1719.17
582.42	1715.45
582.77	1710.60
583.12	1706.81
583.47	1702.45
583.82	1698.33
584.17	1694.81
584.53	1690.48
584.88	1685.33
585.23	1682.33
585.58	1678.00
585.93	1673.67
586.28	1669.55
586.63	1664.83
586.98	1660.50
587.34	1656.43
587.69	1651.21
588.04	1645.98
588.39	1640.45
588.74	1634.79
589.09	1629.79
589.44	1622.69
589.79	1617.45
590.14	1613.02
590.49	1608.21
590.84	1603.95
591.19	1599.31
591.54	1594.26
591.89	1588.79
592.25	1586.36
592.60	1580.40
592.95	1576.00
593.30	1571.05
593.65	1563.88
594.00	1557.36
594.35	1557.21
594.70	1551.45
595.05	1545.93
595.40	1540.86
595.75	1534.69
596.10	1529.76
596.45	1524.00
596.80	1519.50
597.15	1513.95
597.50	1507.29
597.85	1502.62
598.19	1495.79
598.54	1490.24
598.89	1483.95
599.24	1478.67
599.59	1471.29
599.94	1465.00
600.29	1458.26
600.64	1452.12
600.99	1447.83
601.34	1443.93
601.69	1431.62
602.04	1426.05
602.39	1421.26
602.74	1416.26
603.08	1410.69
603.43	1406.76
603.78	1401.48
604.13	1395.50
604.48	1389.38
604.83	1384.57
605.18	1377.62
605.53	1371.60
605.87	1365.98
606.22	1360.60
606.57	1355.02
606.92	1349.14
607.27	1343.86
607.62	1339.24
607.96	1333.81
608.31	1328.90
608.66	1322.48
609.01	1317.19
609.36	1311.50
609.70	1305.48
610.05	1299.21
610.40	1293.81
610.75	1287.31
611.10	1281.88
611.44	1275.69
611.79	1270.12
612.14	1264.24
612.49	1258.31
612.83	1252.12
613.18	1245.02
613.53	1238.76
613.88	1231.79
614.22	1225.33
614.57	1218.29
614.92	1210.12
615.27	1204.60
615.61	1197.17
615.96	1190.55
616.31	1184.95
616.65	1179.57
617.00	1172.52
617.35	1165.71
617.70	1159.81
618.04	1153.02
618.39	1145.71
618.74	1139.79
619.08	1133.05
619.43	1127.21
619.78	1121.64
620.12	1116.43
620.47	1111.29
620.82	1104.57
621.16	1098.57
621.51	1094.36
621.85	1088.24
622.20	1082.83
622.55	1075.69
622.89	1070.24
623.24	1065.19
623.59	1058.60
623.93	1052.31
624.28	1047.52
624.62	1044.67
624.97	1040.05
625.32	1035.12
625.66	1030.14
626.01	1024.90
626.35	1019.43
626.70	1013.52
627.04	1008.36
627.39	1002.60
627.73	998.14
628.08	993.79
628.43	988.45
628.77	981.64
629.12	976.64
629.46	972.60
629.81	967.95
630.15	962.17
630.50	956.57
630.84	950.79
631.19	944.95
631.53	938.95
631.88	931.14
632.22	924.12
632.57	918.83
632.91	913.10
633.26	907.67
633.60	901.98
633.95	896.64
634.29	890.00
634.64	884.93
634.98	878.31
635.32	873.45
635.67	868.29
636.01	862.98
636.36	857.67
636.70	852.52
637.05	846.86
637.39	841.88
637.73	836.62
638.08	832.21
638.42	826.98
638.77	822.45
639.11	817.17
639.45	812.64
639.80	806.93
640.14	802.45
640.49	796.55
640.83	791.90
641.17	787.33
641.52	782.31
641.86	777.55
642.20	773.21
642.55	767.52
642.89	762.64
643.23	758.24
643.58	754.14
643.92	747.98
644.26	743.31
644.61	738.74
644.95	734.36
645.29	728.76
645.64	724.93
645.98	719.52
646.32	714.88
646.66	709.19
647.01	704.36
647.35	699.33
647.69	695.52
648.04	691.38
648.38	686.14
648.72	682.21
649.06	677.24
649.41	671.83
649.75	666.93
650.09	662.19
650.43	657.55
650.78	652.00
651.12	647.81
651.46	642.95
651.80	638.19
652.14	632.93
652.49	629.24
652.83	624.43
653.17	620.14
653.51	615.48
653.85	611.88
654.20	607.98
654.54	603.57
654.88	598.93
655.22	595.05
655.56	590.52
655.90	585.86
656.25	581.86
656.59	578.38
656.93	574.57
657.27	571.88
657.61	567.93
657.95	564.81
658.29	560.74
658.64	557.40
658.98	553.48
659.32	549.48
659.66	545.76
660.00	541.95
660.34	538.71
660.68	535.26
661.02	531.86
661.36	528.48
661.70	525.21
662.05	521.90
662.39	518.69
662.73	516.81
663.07	515.00
663.41	511.93
663.75	508.43
664.09	505.62
664.43	501.10
664.77	497.90
665.11	494.45
665.45	492.00
665.79	489.45
666.13	486.24
666.47	483.90
666.81	480.88
667.15	477.55
667.49	475.00
667.83	473.05
668.17	470.38
668.51	467.55
668.85	465.05
669.19	463.07
669.53	459.69
669.87	455.98
670.21	452.71
670.55	449.95
670.89	448.21
671.23	445.29
671.57	443.05
671.91	440.79
672.25	438.52
672.58	436.98
672.92	433.60
673.26	431.86
673.60	429.50
673.94	427.52
674.28	425.50
674.62	423.31
674.96	420.57
675.30	417.90
675.64	415.69
675.97	413.36
676.31	410.81
676.65	408.83
676.99	407.33
677.33	405.10
677.67	403.31
678.01	400.64
678.34	399.14
678.68	397.76
679.02	395.83
679.36	393.79
679.70	390.93
680.04	389.50
680.37	387.71
680.71	385.48
681.05	383.76
681.39	382.07
681.73	379.88
682.06	378.05
682.40	376.62
682.74	375.10
683.08	373.93
683.42	371.74
683.75	370.10
684.09	367.95
684.43	366.07
684.77	364.21
685.10	362.57
685.44	360.69
685.78	358.62
686.12	356.60
686.45	354.90
686.79	353.36
687.13	351.90
687.46	349.79
687.80	348.93
688.14	347.05
688.48	345.60
688.81	344.21
689.15	343.21
689.49	341.19
689.82	339.62
690.16	337.29
690.50	336.31
690.83	334.62
691.17	333.07
691.51	331.86
691.84	330.79
692.18	329.26
692.52	327.71
692.85	326.81
693.19	326.62
693.52	325.33
693.86	323.60
694.20	322.24
694.53	321.57
694.87	319.83
695.21	318.52
695.54	317.48
695.88	315.64
696.21	313.74
696.55	312.81
696.88	311.79
697.22	310.83
697.56	309.69
697.89	308.38
698.23	307.62
698.56	306.31
698.90	305.17
699.23	303.95
699.57	303.17
699.90	301.57
700.24	299.81
700.58	299.07
700.91	298.74
701.25	299.38
701.58	298.74
701.92	298.40
702.25	297.36
702.59	296.31
702.92	295.98
703.26	295.14
703.59	294.69
703.93	295.14
704.26	294.40
704.60	293.86
704.93	292.95
705.26	292.05
705.60	291.95
705.93	290.45
706.27	290.38
706.60	289.86
706.94	290.31
707.27	289.05
707.61	288.14
707.94	287.17
708.27	284.74
708.61	283.36
708.94	282.67
709.28	282.21
709.61	281.33
709.94	280.55
710.28	279.98
710.61	279.05
710.95	276.81
711.28	277.60
711.61	276.64
711.95	276.62
712.28	275.71
712.61	274.74
712.95	275.55
713.28	275.83
713.61	274.71
713.95	273.36
714.28	273.02
714.61	272.38
714.95	271.67
715.28	270.62
715.61	269.79
715.95	269.12
716.28	268.29
716.61	267.90
716.95	266.74
717.28	266.31
717.61	265.74
717.94	265.36
718.28	263.19
718.61	262.50
718.94	261.64
719.27	260.95
719.61	260.40
719.94	259.26
720.27	257.45
720.60	256.81
720.94	256.00
721.27	255.62
721.60	255.60
721.93	255.21
722.27	255.79
722.60	255.57
722.93	254.74
723.26	254.36
723.59	253.67
723.93	253.71
724.26	253.24
724.59	252.64
724.92	252.38
725.25	252.45
725.59	252.17
725.92	251.98
726.25	251.69
726.58	251.33
726.91	250.86
727.24	250.69
727.57	250.40
727.91	249.86
728.24	249.38
728.57	248.55
728.90	248.19
729.23	247.14
729.56	247.76
729.89	247.40
730.22	247.10
730.55	246.62
730.89	246.67
731.22	246.26
731.55	245.90
731.88	245.31
732.21	244.76
732.54	244.10
732.87	243.60
733.20	243.48
733.53	243.17
733.86	242.90
734.19	242.26
734.52	242.43
734.85	243.60
735.18	243.29
735.51	243.67
735.84	243.50
736.17	243.86
736.50	242.48
736.83	244.40
737.16	244.10
737.49	244.14
737.82	243.26
738.15	243.19
738.48	243.19
738.81	242.90
739.14	242.45
739.47	242.21
739.80	241.81
740.13	241.74
740.46	241.07
740.79	240.36
741.12	240.14
741.45	239.33
741.78	237.93
742.11	238.29
742.44	237.50
742.77	237.79
743.10	237.19
743.43	236.93
743.75	234.79
744.08	237.12
744.41	236.33
744.74	236.19
745.07	235.45
745.40	235.36
745.73	236.00
746.06	235.74
746.39	235.74
746.71	235.52
747.04	234.88
747.37	234.71
747.70	235.24
748.03	235.02
748.36	235.29
748.68	235.24
749.01	234.26
749.34	234.19
749.67	233.62
750.00	233.45
750.33	234.83
750.65	234.86
750.98	232.19
751.31	232.36
751.64	232.50
751.97	233.57
752.29	233.24
752.62	232.26
752.95	232.02
753.28	231.86
753.60	231.76
753.93	232.21
754.26	232.29
754.59	231.40
754.91	231.17
755.24	230.83
755.57	230.38
755.90	230.38
756.22	230.07
756.55	229.69
756.88	229.33
757.20	227.83
757.53	227.12
757.86	226.86
758.19	226.90
758.51	226.74
758.84	225.48
759.17	224.98
759.49	224.90
759.82	225.62
760.15	225.57
760.47	225.17
760.80	224.31
761.13	224.52
761.45	224.36
761.78	224.24
762.11	224.19
762.43	223.86
762.76	223.79
763.08	223.74
763.41	223.62
763.74	223.69
764.06	223.45
764.39	223.43
764.71	223.38
765.04	222.98
765.37	222.50
765.69	222.50
766.02	222.55
766.34	222.21
766.67	221.55
767.00	221.98
767.32	223.29
767.65	224.57
767.97	224.24
768.30	224.12
768.62	223.81
768.95	223.45
769.27	223.48
769.60	223.50
769.92	223.24
770.25	222.76
770.57	222.45
770.90	222.26
771.22	222.00
771.55	222.21
771.87	222.69
772.20	222.62
772.52	224.14
772.85	226.60
773.17	226.79
773.50	226.81
773.82	226.19
774.15	224.88
774.47	223.64
774.80	223.36
775.12	223.36
775.45	223.50
775.77	223.55
776.09	223.76
776.42	223.64
776.74	224.14
777.07	224.17
777.39	224.19
777.72	224.17
778.04	224.31
778.36	223.86
778.69	223.55
779.01	223.69
779.33	222.05
779.66	219.69
779.98	219.36
780.31	219.17
780.63	219.86
780.95	220.31
781.28	220.24
781.60	219.86
781.92	219.86
782.25	219.64
782.57	219.60
782.89	219.52
783.22	219.43
783.54	218.76
783.86	219.00
784.19	218.64
784.51	219.31
784.83	218.76
785.16	218.74
785.48	218.71
785.80	218.40
786.12	218.60
786.45	218.60
