SpectraSuite Data File
++++++++++++++++++++++++++++++++++++
Date: Tue Apr 02 18:46:44 EDT 2013
User: group
Dark Spectrum Present: No
Reference Spectrum Present: No
Number of Sampled Component Spectra: 1
Spectrometers: USB2E7196
Integration Time (usec): 580000 (USB2E7196)
Spectra Averaged: 2 (USB2E7196)
Boxcar Smoothing: 10 (USB2E7196)
Correct for Electrical Dark: No (USB2E7196)
Strobe/Lamp Enabled: No (USB2E7196)
Correct for Detector Non-linearity: No (USB2E7196)
Correct for Stray Light: No (USB2E7196)
Number of Pixels in Processed Spectrum: 2048
>>>>>Begin Processed Spectral Data<<<<<
339.09	0.00
339.48	196.00
339.86	197.50
340.24	195.00
340.63	201.00
341.01	233.00
341.39	206.00
341.78	206.00
342.16	207.50
342.54	205.00
342.93	198.62
343.31	208.43
343.69	208.98
344.07	209.55
344.46	210.50
344.84	211.02
345.22	210.07
345.60	210.17
345.99	210.55
346.37	210.88
346.75	210.93
347.13	211.24
347.52	211.17
347.90	211.79
348.28	211.71
348.66	212.07
349.05	211.57
349.43	211.98
349.81	212.07
350.19	212.07
350.57	212.21
350.96	212.10
351.34	212.50
351.72	212.71
352.10	212.71
352.48	212.31
352.87	212.00
353.25	211.81
353.63	211.81
354.01	211.52
354.39	211.50
354.77	211.60
355.15	212.05
355.54	211.83
355.92	211.02
356.30	211.21
356.68	212.45
357.06	212.50
357.44	211.83
357.82	211.76
358.20	212.81
358.58	212.81
358.97	213.24
359.35	213.45
359.73	213.50
360.11	213.38
360.49	213.71
360.87	213.79
361.25	213.93
361.63	214.64
362.01	214.76
362.39	214.43
362.77	214.38
363.15	214.12
363.53	214.19
363.91	214.26
364.29	214.24
364.67	212.38
365.05	212.45
365.43	212.98
365.81	213.17
366.19	213.12
366.57	213.90
366.95	213.79
367.33	213.26
367.71	213.36
368.09	213.60
368.47	213.29
368.85	213.50
369.23	213.83
369.61	213.17
369.99	213.86
370.37	214.24
370.75	215.43
371.13	215.14
371.51	214.76
371.89	215.05
372.27	215.10
372.65	215.17
373.03	215.14
373.41	214.90
373.78	214.79
374.16	213.86
374.54	213.19
374.92	213.02
375.30	213.19
375.68	212.76
376.06	212.90
376.44	213.19
376.82	213.29
377.19	213.33
377.57	213.31
377.95	212.83
378.33	212.57
378.71	211.60
379.09	211.95
379.47	212.43
379.84	212.26
380.22	212.05
380.60	211.60
380.98	211.60
381.36	211.60
381.73	211.26
382.11	211.83
382.49	211.88
382.87	211.69
383.25	211.57
383.62	214.05
384.00	213.88
384.38	214.05
384.76	214.43
385.13	215.38
385.51	215.62
385.89	215.14
386.27	215.31
386.64	215.45
387.02	215.50
387.40	215.55
387.78	215.81
388.15	216.02
388.53	216.36
388.91	216.29
389.29	216.00
389.66	216.52
390.04	216.29
390.42	216.69
390.79	216.93
391.17	217.14
391.55	214.93
391.92	214.88
392.30	215.02
392.68	214.60
393.05	214.24
393.43	213.88
393.81	214.21
394.18	214.10
394.56	214.17
394.94	214.33
395.31	214.10
395.69	214.64
396.06	214.86
396.44	215.00
396.82	214.88
397.19	216.12
397.57	216.10
397.95	216.24
398.32	215.50
398.70	215.88
399.07	216.36
399.45	216.19
399.82	216.29
400.20	215.90
400.58	215.88
400.95	215.02
401.33	215.50
401.70	216.90
402.08	216.95
402.45	216.95
402.83	217.48
403.20	217.60
403.58	217.26
403.95	217.67
404.33	218.14
404.71	218.62
405.08	219.98
405.46	220.43
405.83	221.00
406.21	221.48
406.58	221.81
406.96	221.79
407.33	222.62
407.70	223.38
408.08	225.57
408.45	226.52
408.83	227.57
409.20	228.17
409.58	227.64
409.95	228.67
410.33	229.48
410.70	229.86
411.08	230.95
411.45	232.12
411.82	232.74
412.20	234.29
412.57	236.71
412.95	236.05
413.32	237.69
413.69	238.60
414.07	240.29
414.44	242.19
414.82	244.21
415.19	246.50
415.56	248.71
415.94	250.00
416.31	253.02
416.68	255.81
417.06	259.17
417.43	262.76
417.81	266.33
418.18	269.86
418.55	273.69
418.93	277.83
419.30	281.74
419.67	286.24
420.04	290.36
420.42	294.38
420.79	301.48
421.16	307.17
421.54	314.02
421.91	320.31
422.28	326.21
422.66	332.81
423.03	340.52
423.40	347.00
423.77	354.02
424.15	360.88
424.52	368.48
424.89	377.05
425.26	384.69
425.64	392.45
426.01	401.24
426.38	409.83
426.75	419.38
427.13	428.81
427.50	438.36
427.87	447.95
428.24	457.64
428.61	465.93
428.99	476.76
429.36	487.21
429.73	498.43
430.10	509.81
430.47	521.67
430.85	532.24
431.22	545.33
431.59	559.76
431.96	572.50
432.33	586.81
432.70	600.17
433.08	616.31
433.45	631.19
433.82	646.07
434.19	663.43
434.56	680.05
434.93	695.81
435.30	711.62
435.68	729.21
436.05	746.57
436.42	763.95
436.79	779.12
437.16	796.29
437.53	813.81
437.90	831.17
438.27	848.90
438.64	866.88
439.01	883.14
439.38	897.33
439.75	911.98
440.13	928.60
440.50	944.81
440.87	957.50
441.24	970.60
441.61	985.36
441.98	995.48
442.35	1006.93
442.72	1019.07
443.09	1032.33
443.46	1040.50
443.83	1045.71
444.20	1049.55
444.57	1055.60
444.94	1059.21
445.31	1062.40
445.68	1068.50
446.05	1070.12
446.42	1068.93
446.79	1068.10
447.16	1066.12
447.53	1065.21
447.90	1058.98
448.27	1052.19
448.64	1043.17
449.01	1037.43
449.37	1026.40
449.74	1015.71
450.11	1004.40
450.48	990.69
450.85	974.86
451.22	961.79
451.59	949.90
451.96	938.55
452.33	923.52
452.70	908.95
453.07	892.29
453.43	872.45
453.80	856.29
454.17	840.79
454.54	825.21
454.91	809.05
455.28	792.55
455.65	777.10
456.02	765.48
456.38	753.26
456.75	737.71
457.12	724.21
457.49	711.33
457.86	697.71
458.23	687.67
458.59	676.38
458.96	664.67
459.33	653.79
459.70	643.98
460.07	635.83
460.43	626.45
460.80	618.38
461.17	611.24
461.54	602.40
461.91	594.12
462.27	585.98
462.64	578.98
463.01	571.98
463.38	565.43
463.74	554.76
464.11	548.29
464.48	542.76
464.85	536.69
465.21	532.55
465.58	527.14
465.95	520.62
466.32	515.69
466.68	510.45
467.05	505.69
467.42	500.64
467.78	495.02
468.15	490.10
468.52	485.76
468.88	480.19
469.25	475.40
469.62	472.10
469.98	468.43
470.35	464.69
470.72	461.38
471.08	457.26
471.45	454.40
471.82	451.40
472.18	447.86
472.55	445.55
472.92	441.93
473.28	439.52
473.65	436.79
474.02	434.24
474.38	432.48
474.75	430.48
475.11	427.93
475.48	426.74
475.85	425.02
476.21	423.33
476.58	422.05
476.94	420.93
477.31	419.52
477.67	418.17
478.04	417.36
478.41	416.64
478.77	417.95
479.14	416.88
479.50	416.17
479.87	415.81
480.23	415.26
480.60	414.79
480.96	414.31
481.33	414.95
481.69	414.81
482.06	414.74
482.42	415.26
482.79	415.86
483.15	415.90
483.52	416.83
483.88	417.05
484.25	417.69
484.61	418.79
484.98	419.57
485.34	421.52
485.71	422.95
486.07	424.00
486.44	423.45
486.80	424.98
487.17	426.62
487.53	429.02
487.90	430.93
488.26	433.98
488.62	437.14
488.99	439.17
489.35	441.83
489.72	444.57
490.08	447.12
490.44	449.83
490.81	453.33
491.17	456.19
491.54	460.17
491.90	464.33
492.26	467.74
492.63	471.88
492.99	475.38
493.36	479.33
493.72	483.86
494.08	488.26
494.45	493.40
494.81	498.64
495.17	502.95
495.54	508.19
495.90	512.98
496.26	517.48
496.63	522.31
496.99	527.64
497.35	533.38
497.72	539.29
498.08	545.05
498.44	550.64
498.80	557.52
499.17	563.52
499.53	569.69
499.89	576.19
500.26	583.12
500.62	590.00
500.98	597.45
501.34	604.31
501.71	611.83
502.07	618.40
502.43	625.21
502.79	632.10
503.16	639.69
503.52	647.21
503.88	654.31
504.24	661.93
504.60	669.24
504.97	676.86
505.33	684.26
505.69	692.76
506.05	700.83
506.41	707.79
506.78	715.50
507.14	723.00
507.50	731.14
507.86	738.67
508.22	746.19
508.59	752.76
508.95	760.76
509.31	769.83
509.67	778.14
510.03	785.64
510.39	793.60
510.75	801.10
511.12	808.40
511.48	816.69
511.84	824.69
512.20	832.57
512.56	840.10
512.92	848.60
513.28	855.62
513.64	863.29
514.00	870.95
514.37	878.05
514.73	885.14
515.09	892.45
515.45	898.31
515.81	905.48
516.17	913.26
516.53	920.07
516.89	925.31
517.25	931.12
517.61	938.17
517.97	944.52
518.33	950.43
518.69	956.69
519.05	963.17
519.41	969.17
519.77	976.45
520.13	982.62
520.49	987.95
520.85	993.79
521.21	1000.02
521.57	1006.52
521.93	1011.81
522.29	1017.93
522.65	1023.21
523.01	1029.83
523.37	1034.67
523.73	1039.93
524.09	1044.21
524.45	1048.95
524.81	1053.69
525.17	1058.00
525.53	1062.67
525.89	1067.29
526.25	1072.19
526.61	1075.88
526.97	1080.00
527.33	1084.10
527.68	1090.05
528.04	1094.00
528.40	1098.00
528.76	1101.48
529.12	1105.24
529.48	1110.50
529.84	1114.26
530.20	1118.43
530.56	1122.55
530.91	1126.55
531.27	1130.40
531.63	1134.76
531.99	1138.40
532.35	1143.05
532.71	1147.21
533.07	1152.14
533.42	1159.00
533.78	1163.05
534.14	1167.64
534.50	1171.17
534.86	1175.60
535.21	1177.55
535.57	1182.17
535.93	1186.62
536.29	1191.45
536.65	1194.52
537.00	1197.69
537.36	1201.45
537.72	1204.21
538.08	1207.90
538.44	1211.38
538.79	1215.17
539.15	1218.14
539.51	1222.21
539.87	1226.14
540.22	1229.79
540.58	1232.79
540.94	1234.26
541.29	1237.14
541.65	1239.05
542.01	1243.07
542.37	1244.76
542.72	1246.74
543.08	1248.57
543.44	1250.95
543.79	1252.21
544.15	1256.21
544.51	1259.64
544.87	1262.62
545.22	1266.67
545.58	1268.76
545.94	1271.86
546.29	1274.21
546.65	1277.64
547.01	1280.31
547.36	1282.29
547.72	1284.79
548.07	1286.50
548.43	1288.10
548.79	1289.69
549.14	1292.02
549.50	1294.52
549.86	1296.93
550.21	1300.62
550.57	1303.62
550.92	1306.17
551.28	1309.64
551.64	1311.79
551.99	1313.98
552.35	1316.07
552.70	1317.71
553.06	1321.17
553.41	1323.93
553.77	1328.17
554.13	1331.57
554.48	1335.48
554.84	1339.60
555.19	1342.98
555.55	1348.64
555.90	1352.43
556.26	1357.17
556.61	1361.33
556.97	1364.07
557.32	1367.69
557.68	1370.74
558.03	1374.40
558.39	1377.60
558.74	1380.98
559.10	1384.76
559.45	1388.98
559.81	1393.31
560.16	1397.71
560.52	1400.74
560.87	1405.21
561.23	1408.21
561.58	1413.55
561.94	1416.83
562.29	1420.60
562.64	1425.74
563.00	1428.05
563.35	1432.98
563.71	1437.67
564.06	1442.81
564.42	1448.10
564.77	1454.05
565.12	1460.52
565.48	1467.76
565.83	1474.07
566.19	1479.76
566.54	1484.62
566.89	1489.48
567.25	1495.50
567.60	1502.26
567.96	1510.12
568.31	1516.74
568.66	1522.81
569.02	1526.76
569.37	1532.45
569.72	1538.07
570.08	1542.74
570.43	1548.83
570.78	1554.19
571.14	1559.64
571.49	1564.55
571.84	1570.55
572.20	1574.95
572.55	1579.81
572.90	1582.40
573.26	1586.38
573.61	1590.86
573.96	1596.43
574.31	1601.50
574.67	1605.02
575.02	1608.21
575.37	1610.64
575.72	1612.95
576.08	1616.83
576.43	1621.07
576.78	1625.00
577.13	1628.86
577.49	1632.64
577.84	1637.24
578.19	1641.12
578.54	1645.00
578.90	1649.52
579.25	1652.86
579.60	1656.02
579.95	1658.60
580.30	1663.45
580.66	1668.33
581.01	1671.40
581.36	1673.81
581.71	1677.50
582.06	1682.52
582.42	1687.02
582.77	1691.00
583.12	1695.07
583.47	1698.69
583.82	1702.00
584.17	1705.74
584.53	1709.71
584.88	1713.10
585.23	1715.93
585.58	1718.88
585.93	1721.14
586.28	1724.19
586.63	1727.60
586.98	1731.83
587.34	1735.62
587.69	1737.48
588.04	1740.24
588.39	1743.71
588.74	1745.98
589.09	1747.79
589.44	1748.76
589.79	1750.14
590.14	1752.31
590.49	1753.26
590.84	1754.24
591.19	1755.43
591.54	1756.50
591.89	1756.81
592.25	1759.98
592.60	1761.07
592.95	1762.36
593.30	1765.43
593.65	1767.00
594.00	1767.88
594.35	1774.71
594.70	1775.29
595.05	1776.29
595.40	1776.33
595.75	1777.00
596.10	1779.07
596.45	1780.81
596.80	1782.93
597.15	1784.21
597.50	1784.71
597.85	1788.24
598.19	1789.57
598.54	1791.05
598.89	1791.79
599.24	1793.81
599.59	1793.33
599.94	1794.31
600.29	1795.71
600.64	1794.88
600.99	1796.00
601.34	1796.67
601.69	1790.86
602.04	1790.57
602.39	1790.83
602.74	1792.31
603.08	1790.88
603.43	1791.29
603.78	1790.31
604.13	1789.26
604.48	1788.33
604.83	1788.83
605.18	1787.14
605.53	1786.33
605.87	1785.52
606.22	1785.02
606.57	1784.05
606.92	1782.40
607.27	1781.62
607.62	1780.07
607.96	1780.02
608.31	1778.10
608.66	1776.45
609.01	1774.90
609.36	1774.71
609.70	1774.05
610.05	1771.60
610.40	1771.45
610.75	1769.69
611.10	1768.69
611.44	1765.86
611.79	1764.26
612.14	1761.95
612.49	1759.45
612.83	1757.38
613.18	1754.83
613.53	1751.90
613.88	1748.90
614.22	1746.29
614.57	1742.21
614.92	1738.71
615.27	1734.40
615.61	1730.62
615.96	1727.10
616.31	1724.14
616.65	1720.95
617.00	1718.10
617.35	1715.12
617.70	1712.17
618.04	1708.02
618.39	1705.24
618.74	1702.33
619.08	1697.83
619.43	1693.55
619.78	1690.10
620.12	1686.76
620.47	1683.50
620.82	1679.52
621.16	1674.95
621.51	1672.33
621.85	1668.17
622.20	1664.29
622.55	1660.45
622.89	1657.00
623.24	1654.71
623.59	1650.17
623.93	1645.36
624.28	1640.79
624.62	1638.38
624.97	1634.93
625.32	1630.45
625.66	1625.57
626.01	1621.88
626.35	1620.21
626.70	1617.19
627.04	1614.38
627.39	1609.50
627.73	1605.83
628.08	1602.57
628.43	1598.98
628.77	1593.62
629.12	1591.17
629.46	1588.24
629.81	1584.79
630.15	1580.26
630.50	1574.55
630.84	1570.45
631.19	1566.45
631.53	1561.76
631.88	1554.29
632.22	1547.86
632.57	1545.07
632.91	1539.81
633.26	1534.64
633.60	1528.10
633.95	1522.43
634.29	1515.98
634.64	1512.12
634.98	1507.10
635.32	1502.90
635.67	1498.50
636.01	1494.71
636.36	1489.31
636.70	1484.45
637.05	1479.10
637.39	1473.83
637.73	1469.79
638.08	1466.57
638.42	1461.38
638.77	1456.40
639.11	1452.60
639.45	1448.55
639.80	1442.64
640.14	1437.95
640.49	1432.62
640.83	1428.19
641.17	1424.45
641.52	1419.88
641.86	1414.26
642.20	1410.26
642.55	1404.79
642.89	1399.55
643.23	1393.81
643.58	1389.26
643.92	1382.67
644.26	1378.31
644.61	1374.55
644.95	1368.79
645.29	1361.43
645.64	1357.21
645.98	1353.02
646.32	1348.88
646.66	1343.24
647.01	1336.93
647.35	1331.81
647.69	1327.43
648.04	1321.62
648.38	1315.29
648.72	1309.90
649.06	1304.60
649.41	1297.90
649.75	1291.71
650.09	1285.55
650.43	1279.50
650.78	1273.07
651.12	1267.29
651.46	1261.07
651.80	1254.71
652.14	1248.50
652.49	1243.67
652.83	1236.95
653.17	1229.62
653.51	1222.64
653.85	1217.29
654.20	1211.48
654.54	1204.43
654.88	1197.55
655.22	1192.12
655.56	1185.76
655.90	1178.95
656.25	1172.67
656.59	1166.81
656.93	1160.98
657.27	1155.57
657.61	1149.60
657.95	1144.19
658.29	1138.29
658.64	1131.93
658.98	1125.21
659.32	1118.95
659.66	1111.88
660.00	1105.50
660.34	1099.14
660.68	1092.24
661.02	1086.05
661.36	1080.79
661.70	1075.52
662.05	1070.07
662.39	1064.07
662.73	1058.76
663.07	1054.02
663.41	1048.71
663.75	1041.88
664.09	1036.88
664.43	1030.83
664.77	1025.33
665.11	1018.26
665.45	1013.17
665.79	1007.19
666.13	1001.21
666.47	996.00
666.81	991.14
667.15	985.79
667.49	981.50
667.83	976.93
668.17	970.74
668.51	964.86
668.85	959.48
669.19	954.76
669.53	948.74
669.87	942.38
670.21	936.24
670.55	930.10
670.89	926.05
671.23	919.79
671.57	915.00
671.91	909.57
672.25	905.07
672.58	899.79
672.92	894.33
673.26	889.62
673.60	884.55
673.94	878.67
674.28	874.10
674.62	869.02
674.96	863.57
675.30	859.31
675.64	854.52
675.97	849.98
676.31	844.67
676.65	839.60
676.99	836.31
677.33	830.90
677.67	826.24
678.01	820.29
678.34	815.95
678.68	810.60
679.02	805.55
679.36	799.95
679.70	794.93
680.04	790.43
680.37	785.52
680.71	780.24
681.05	775.69
681.39	770.64
681.73	765.38
682.06	760.67
682.40	755.29
682.74	750.79
683.08	746.33
683.42	741.05
683.75	736.26
684.09	730.21
684.43	725.69
684.77	720.90
685.10	716.60
685.44	711.45
685.78	706.79
686.12	702.02
686.45	697.64
686.79	692.17
687.13	687.95
687.46	683.12
687.80	679.48
688.14	675.21
688.48	671.02
688.81	666.57
689.15	662.55
689.49	658.00
689.82	653.10
690.16	647.67
690.50	642.88
690.83	638.19
691.17	633.40
691.51	629.00
691.84	624.83
692.18	620.21
692.52	615.74
692.85	611.98
693.19	608.86
693.52	604.83
693.86	600.90
694.20	596.31
694.53	592.40
694.87	587.52
695.21	583.10
695.54	578.60
695.88	573.93
696.21	568.90
696.55	565.05
696.88	561.19
697.22	557.79
697.56	554.55
697.89	551.02
698.23	547.93
698.56	544.26
698.90	540.90
699.23	537.21
699.57	534.19
699.90	530.02
700.24	525.67
700.58	521.60
700.91	518.69
701.25	516.71
701.58	513.95
701.92	511.24
702.25	507.74
702.59	503.98
702.92	500.81
703.26	498.12
703.59	494.95
703.93	493.50
704.26	490.12
704.60	487.02
704.93	483.76
705.26	480.07
705.60	477.21
705.93	473.48
706.27	470.90
706.60	467.81
706.94	465.52
707.27	462.07
707.61	460.05
707.94	457.00
708.27	452.74
708.61	449.12
708.94	445.86
709.28	443.64
709.61	441.43
709.94	439.05
710.28	436.17
710.61	433.62
710.95	429.14
711.28	428.00
711.61	425.57
711.95	423.86
712.28	421.40
712.61	419.00
712.95	417.71
713.28	416.24
713.61	413.45
713.95	410.43
714.28	408.45
714.61	405.67
714.95	403.45
715.28	401.19
715.61	399.24
715.95	397.10
716.28	394.52
716.61	392.33
716.95	389.95
717.28	387.95
717.61	385.62
717.94	383.43
718.28	379.83
718.61	377.29
718.94	374.48
719.27	372.69
719.61	370.90
719.94	368.43
720.27	365.14
720.60	363.00
720.94	361.17
721.27	359.24
721.60	357.83
721.93	355.71
722.27	354.36
722.60	352.52
722.93	350.67
723.26	349.17
723.59	347.02
723.93	345.90
724.26	344.21
724.59	342.57
724.92	341.48
725.25	340.43
725.59	339.14
725.92	337.98
726.25	336.33
726.58	334.71
726.91	333.14
727.24	332.19
727.57	331.05
727.91	329.31
728.24	328.10
728.57	326.36
728.90	325.43
729.23	323.60
729.56	323.12
729.89	321.93
730.22	320.36
730.55	319.12
730.89	317.29
731.22	315.95
731.55	314.88
731.88	313.50
732.21	312.12
732.54	310.88
732.87	309.79
733.20	309.07
733.53	308.00
733.86	306.88
734.19	305.81
734.52	305.10
734.85	305.69
735.18	304.52
735.51	304.45
735.84	303.60
736.17	303.14
736.50	301.50
736.83	302.95
737.16	302.17
737.49	301.45
737.82	300.55
738.15	299.81
738.48	298.95
738.81	297.88
739.14	296.71
739.47	295.55
739.80	294.64
740.13	293.55
740.46	292.57
740.79	291.38
741.12	290.43
741.45	289.14
741.78	287.00
742.11	286.88
742.44	285.29
742.77	284.79
743.10	283.90
743.43	282.67
743.75	279.57
744.08	281.62
744.41	280.57
744.74	279.55
745.07	278.38
745.40	277.90
745.73	277.83
746.06	277.00
746.39	276.69
746.71	275.43
747.04	274.50
747.37	273.67
747.70	273.48
748.03	272.64
748.36	272.48
748.68	271.81
749.01	270.48
749.34	270.00
749.67	269.31
750.00	269.05
750.33	270.07
750.65	269.71
750.98	266.50
751.31	266.07
751.64	265.81
751.97	266.55
752.29	265.67
752.62	264.19
752.95	263.60
753.28	262.52
753.60	262.21
753.93	262.36
754.26	261.81
754.59	260.64
754.91	259.90
755.24	259.00
755.57	258.62
755.90	257.88
756.22	257.07
756.55	256.00
756.88	254.57
757.20	252.67
757.53	251.36
757.86	250.57
758.19	250.21
758.51	249.48
758.84	247.98
759.17	247.38
759.49	247.10
759.82	247.55
760.15	247.43
760.47	246.69
760.80	245.50
761.13	245.52
761.45	245.07
761.78	244.45
762.11	243.90
762.43	243.40
762.76	242.86
763.08	242.45
763.41	242.33
763.74	242.17
764.06	241.71
764.39	241.43
764.71	241.14
765.04	240.67
765.37	240.33
765.69	240.00
766.02	239.83
766.34	239.29
766.67	238.24
767.00	238.29
767.32	239.57
767.65	240.50
767.97	239.88
768.30	239.52
768.62	239.45
768.95	238.93
769.27	238.67
769.60	238.90
769.92	238.40
770.25	237.79
770.57	237.12
770.90	236.81
771.22	236.40
771.55	236.43
771.87	236.10
772.20	235.95
772.52	237.26
772.85	239.36
773.17	239.02
773.50	238.79
773.82	238.31
774.15	236.69
774.47	235.26
774.80	234.71
775.12	234.48
775.45	234.19
775.77	234.33
776.09	234.14
776.42	233.90
776.74	234.60
777.07	234.50
777.39	234.64
777.72	234.17
778.04	234.26
778.36	233.57
778.69	233.38
779.01	233.10
779.33	230.95
779.66	228.29
779.98	228.19
780.31	227.98
780.63	228.45
780.95	228.67
781.28	228.50
781.60	228.38
781.92	228.48
782.25	228.19
782.57	228.00
782.89	227.71
783.22	227.62
783.54	226.81
783.86	226.57
784.19	226.26
784.51	226.90
784.83	226.50
