SpectraSuite Data File
++++++++++++++++++++++++++++++++++++
Date: Tue Apr 02 18:41:58 EDT 2013
User: group
Dark Spectrum Present: No
Reference Spectrum Present: No
Number of Sampled Component Spectra: 1
Spectrometers: USB2E7196
Integration Time (usec): 580000 (USB2E7196)
Spectra Averaged: 2 (USB2E7196)
Boxcar Smoothing: 10 (USB2E7196)
Correct for Electrical Dark: No (USB2E7196)
Strobe/Lamp Enabled: No (USB2E7196)
Correct for Detector Non-linearity: No (USB2E7196)
Correct for Stray Light: No (USB2E7196)
Number of Pixels in Processed Spectrum: 2048
>>>>>Begin Processed Spectral Data<<<<<
339.09	0.00
339.48	199.00
339.86	194.00
340.24	200.00
340.63	198.00
341.01	232.00
341.39	201.00
341.78	204.00
342.16	213.00
342.54	208.00
342.93	199.05
343.31	208.88
343.69	209.19
344.07	209.67
344.46	210.48
344.84	211.10
345.22	209.93
345.60	210.40
345.99	210.93
346.37	210.81
346.75	210.83
347.13	210.83
347.52	210.74
347.90	211.31
348.28	211.19
348.66	211.69
349.05	211.02
349.43	211.48
349.81	211.48
350.19	211.45
350.57	211.43
350.96	211.52
351.34	211.76
351.72	212.07
352.10	212.14
352.48	211.60
352.87	211.57
353.25	211.45
353.63	211.02
354.01	210.83
354.39	211.02
354.77	211.07
355.15	211.48
355.54	211.36
355.92	210.74
356.30	210.81
356.68	211.86
357.06	212.07
357.44	211.57
357.82	211.52
358.20	212.36
358.58	212.26
358.97	212.36
359.35	212.60
359.73	212.76
360.11	212.76
360.49	212.98
360.87	212.90
361.25	213.36
361.63	214.33
362.01	214.45
362.39	214.19
362.77	214.10
363.15	213.90
363.53	213.83
363.91	214.02
364.29	213.64
364.67	211.69
365.05	211.55
365.43	211.81
365.81	211.90
366.19	212.12
366.57	212.67
366.95	212.62
367.33	212.36
367.71	212.24
368.09	212.71
368.47	212.62
368.85	212.55
369.23	212.83
369.61	212.14
369.99	212.57
370.37	212.79
370.75	213.83
371.13	213.62
371.51	213.40
371.89	213.64
372.27	213.90
372.65	214.14
373.03	214.31
373.41	213.98
373.78	214.17
374.16	213.07
374.54	212.69
374.92	212.48
375.30	212.36
375.68	212.10
376.06	212.14
376.44	212.02
376.82	212.26
377.19	212.10
377.57	211.88
377.95	211.38
378.33	211.10
378.71	210.07
379.09	210.24
379.47	210.57
379.84	210.38
380.22	210.52
380.60	210.14
380.98	210.29
381.36	210.50
381.73	209.98
382.11	210.67
382.49	210.90
382.87	210.60
383.25	210.69
383.62	213.10
384.00	212.69
384.38	212.81
384.76	213.07
385.13	214.14
385.51	214.36
385.89	214.07
386.27	214.38
386.64	214.90
387.02	214.83
387.40	214.52
387.78	214.83
388.15	214.79
388.53	215.07
388.91	215.02
389.29	214.93
389.66	215.48
390.04	214.93
390.42	215.02
390.79	215.36
391.17	215.38
391.55	213.10
391.92	213.26
392.30	213.45
392.68	213.02
393.05	212.62
393.43	212.76
393.81	212.90
394.18	212.74
394.56	212.57
394.94	213.19
395.31	213.36
395.69	213.67
396.06	213.95
396.44	214.00
396.82	213.76
397.19	215.02
397.57	214.79
397.95	215.38
398.32	214.86
398.70	215.05
399.07	215.52
399.45	215.71
399.82	215.67
400.20	215.71
400.58	215.88
400.95	215.21
401.33	215.62
401.70	217.33
402.08	217.55
402.45	217.64
402.83	217.98
403.20	218.21
403.58	218.19
403.95	218.48
404.33	219.12
404.71	219.45
405.08	220.40
405.46	220.86
405.83	221.10
406.21	221.57
406.58	222.10
406.96	222.14
407.33	222.62
407.70	223.50
408.08	225.60
408.45	226.60
408.83	227.67
409.20	227.93
409.58	227.40
409.95	228.55
410.33	229.52
410.70	229.88
411.08	231.12
411.45	232.19
411.82	233.10
412.20	234.48
412.57	236.90
412.95	236.52
413.32	238.26
413.69	239.74
414.07	241.48
414.44	243.31
414.82	245.26
415.19	247.74
415.56	249.83
415.94	251.12
416.31	254.02
416.68	256.81
417.06	260.36
417.43	264.00
417.81	267.50
418.18	271.26
418.55	275.24
418.93	279.29
419.30	283.36
419.67	287.90
420.04	292.38
420.42	296.62
420.79	303.95
421.16	309.64
421.54	316.45
421.91	322.95
422.28	329.36
422.66	336.50
423.03	344.24
423.40	351.50
423.77	358.79
424.15	366.00
424.52	373.86
424.89	382.62
425.26	390.55
425.64	398.07
426.01	406.24
426.38	415.05
426.75	424.71
427.13	434.43
427.50	444.48
427.87	454.62
428.24	464.88
428.61	473.55
428.99	484.95
429.36	495.71
429.73	506.81
430.10	518.12
430.47	529.83
430.85	540.81
431.22	553.57
431.59	568.98
431.96	582.29
432.33	596.71
432.70	610.38
433.08	626.62
433.45	642.79
433.82	657.50
434.19	674.83
434.56	691.62
434.93	707.38
435.30	723.21
435.68	741.40
436.05	758.90
436.42	776.52
436.79	792.36
437.16	810.43
437.53	828.88
437.90	847.52
438.27	865.67
438.64	884.24
439.01	901.79
439.38	915.67
439.75	930.48
440.13	947.62
440.50	963.98
440.87	977.83
441.24	990.50
441.61	1006.81
441.98	1017.76
442.35	1030.62
442.72	1044.21
443.09	1058.40
443.46	1066.33
443.83	1071.62
444.20	1075.79
444.57	1082.21
444.94	1085.12
445.31	1088.62
445.68	1093.86
446.05	1095.14
446.42	1094.26
446.79	1093.45
447.16	1091.64
447.53	1090.50
447.90	1084.05
448.27	1077.45
448.64	1067.90
449.01	1061.93
449.37	1049.81
449.74	1038.83
450.11	1026.71
450.48	1011.67
450.85	995.31
451.22	981.40
451.59	969.10
451.96	957.57
452.33	942.19
452.70	928.05
453.07	910.71
453.43	891.19
453.80	874.45
454.17	857.71
454.54	841.29
454.91	824.33
455.28	807.81
455.65	792.55
456.02	780.45
456.38	767.52
456.75	751.71
457.12	738.62
457.49	725.40
457.86	710.98
458.23	700.86
458.59	688.76
458.96	677.07
459.33	666.40
459.70	655.81
460.07	646.93
460.43	636.69
460.80	628.07
461.17	620.55
461.54	612.12
461.91	604.17
462.27	595.69
462.64	588.81
463.01	581.55
463.38	574.76
463.74	564.02
464.11	557.40
464.48	552.07
464.85	545.67
465.21	541.14
465.58	536.07
465.95	529.07
466.32	524.02
466.68	518.83
467.05	513.83
467.42	508.88
467.78	502.90
468.15	498.02
468.52	493.93
468.88	487.86
469.25	483.52
469.62	480.14
469.98	476.05
470.35	472.31
470.72	468.52
471.08	463.57
471.45	460.86
471.82	457.83
472.18	453.81
472.55	451.26
472.92	447.55
473.28	444.74
473.65	442.10
474.02	439.45
474.38	437.74
474.75	435.48
475.11	433.10
475.48	431.76
475.85	429.88
476.21	428.05
476.58	427.05
476.94	425.60
477.31	423.98
477.67	423.10
478.04	422.10
478.41	421.26
478.77	422.81
479.14	421.57
479.50	420.90
479.87	420.71
480.23	420.48
480.60	420.17
480.96	420.17
481.33	420.98
481.69	420.60
482.06	420.05
482.42	420.33
482.79	420.50
483.15	421.02
483.52	421.81
483.88	422.83
484.25	423.50
484.61	424.57
484.98	425.55
485.34	426.90
485.71	428.33
486.07	429.71
486.44	429.48
486.80	431.07
487.17	432.40
487.53	434.83
487.90	436.90
488.26	439.98
488.62	442.62
488.99	444.17
489.35	447.38
489.72	450.10
490.08	452.81
490.44	455.48
490.81	458.55
491.17	461.74
491.54	464.55
491.90	468.36
492.26	471.88
492.63	475.60
492.99	479.33
493.36	483.19
493.72	487.50
494.08	491.83
494.45	496.60
494.81	501.71
495.17	506.07
495.54	511.26
495.90	515.64
496.26	520.17
496.63	525.40
496.99	530.86
497.35	536.81
497.72	543.00
498.08	548.76
498.44	554.74
498.80	560.98
499.17	567.29
499.53	573.29
499.89	579.69
500.26	586.81
500.62	593.43
500.98	601.07
501.34	608.14
501.71	615.29
502.07	622.60
502.43	629.48
502.79	636.36
503.16	643.38
503.52	651.00
503.88	658.31
504.24	666.40
504.60	673.83
504.97	681.95
505.33	689.69
505.69	698.69
506.05	706.24
506.41	714.21
506.78	722.17
507.14	729.90
507.50	737.86
507.86	745.67
508.22	753.79
508.59	761.05
508.95	769.52
509.31	778.52
509.67	786.31
510.03	794.40
510.39	802.21
510.75	810.07
511.12	817.64
511.48	825.81
511.84	833.43
512.20	841.00
512.56	848.24
512.92	856.02
513.28	863.76
513.64	871.40
514.00	878.62
514.37	885.95
514.73	893.21
515.09	901.19
515.45	908.64
515.81	915.57
516.17	922.43
516.53	928.24
516.89	934.67
517.25	941.10
517.61	948.60
517.97	955.00
518.33	962.21
518.69	969.38
519.05	976.10
519.41	982.52
519.77	989.95
520.13	995.95
520.49	1001.50
520.85	1007.00
521.21	1014.10
521.57	1020.29
521.93	1025.67
522.29	1032.02
522.65	1037.05
523.01	1042.45
523.37	1048.24
523.73	1053.00
524.09	1058.43
524.45	1063.10
524.81	1068.67
525.17	1073.02
525.53	1079.05
525.89	1083.43
526.25	1088.12
526.61	1091.71
526.97	1095.60
527.33	1100.19
527.68	1106.52
528.04	1110.81
528.40	1114.95
528.76	1117.90
529.12	1122.17
529.48	1127.12
529.84	1130.88
530.20	1135.43
530.56	1139.86
530.91	1144.02
531.27	1149.40
531.63	1154.02
531.99	1157.48
532.35	1161.17
532.71	1165.40
533.07	1169.88
533.42	1176.40
533.78	1180.40
534.14	1185.90
534.50	1190.38
534.86	1194.29
535.21	1197.26
535.57	1203.57
535.93	1207.98
536.29	1214.02
536.65	1218.14
537.00	1222.26
537.36	1226.33
537.72	1230.48
538.08	1234.21
538.44	1236.86
538.79	1240.14
539.15	1243.74
539.51	1248.64
539.87	1252.69
540.22	1256.50
540.58	1258.93
540.94	1260.17
541.29	1263.98
541.65	1266.26
542.01	1270.64
542.37	1273.45
542.72	1275.43
543.08	1276.45
543.44	1278.93
543.79	1279.79
544.15	1283.38
544.51	1286.29
544.87	1288.90
545.22	1291.14
545.58	1293.79
545.94	1297.83
546.29	1300.98
546.65	1304.02
547.01	1305.67
547.36	1308.26
547.72	1310.71
548.07	1314.38
548.43	1316.52
548.79	1318.79
549.14	1321.52
549.50	1324.48
549.86	1326.86
550.21	1330.38
550.57	1333.69
550.92	1336.57
551.28	1340.81
551.64	1343.48
551.99	1346.40
552.35	1349.88
552.70	1352.95
553.06	1356.76
553.41	1359.50
553.77	1363.81
554.13	1367.19
554.48	1372.57
554.84	1377.79
555.19	1382.48
555.55	1387.29
555.90	1392.33
556.26	1395.76
556.61	1400.12
556.97	1403.00
557.32	1407.00
557.68	1410.71
558.03	1414.71
558.39	1419.33
558.74	1422.45
559.10	1426.19
559.45	1430.43
559.81	1434.95
560.16	1439.81
560.52	1444.26
560.87	1449.24
561.23	1453.10
561.58	1458.98
561.94	1462.90
562.29	1467.02
562.64	1471.38
563.00	1475.02
563.35	1480.14
563.71	1485.88
564.06	1491.55
564.42	1496.55
564.77	1502.93
565.12	1509.74
565.48	1517.43
565.83	1522.50
566.19	1529.10
566.54	1535.05
566.89	1540.95
567.25	1547.45
567.60	1554.60
567.96	1562.45
568.31	1569.69
568.66	1576.79
569.02	1581.50
569.37	1587.05
569.72	1591.64
570.08	1596.40
570.43	1601.33
570.78	1606.57
571.14	1612.05
571.49	1616.81
571.84	1622.57
572.20	1627.26
572.55	1632.12
572.90	1634.26
573.26	1638.74
573.61	1642.86
573.96	1647.38
574.31	1651.64
574.67	1655.64
575.02	1658.19
575.37	1658.95
575.72	1661.33
576.08	1664.12
576.43	1667.26
576.78	1670.19
577.13	1673.74
577.49	1676.86
577.84	1681.79
578.19	1685.33
578.54	1688.71
578.90	1693.31
579.25	1696.40
579.60	1698.83
579.95	1700.14
580.30	1704.52
580.66	1708.90
581.01	1712.19
581.36	1714.64
581.71	1718.14
582.06	1722.21
582.42	1725.26
582.77	1729.05
583.12	1732.31
583.47	1734.48
583.82	1737.74
584.17	1741.05
584.53	1744.69
584.88	1748.14
585.23	1749.88
585.58	1752.31
585.93	1754.07
586.28	1755.64
586.63	1758.29
586.98	1760.98
587.34	1765.45
587.69	1767.24
588.04	1768.21
588.39	1769.88
588.74	1770.88
589.09	1771.88
589.44	1771.40
589.79	1773.40
590.14	1774.86
590.49	1775.81
590.84	1776.69
591.19	1778.00
591.54	1779.17
591.89	1779.88
592.25	1781.95
592.60	1782.40
592.95	1782.48
593.30	1784.05
593.65	1784.14
594.00	1784.05
594.35	1790.36
594.70	1788.90
595.05	1788.90
595.40	1789.67
595.75	1790.14
596.10	1791.88
596.45	1793.17
596.80	1794.55
597.15	1794.71
597.50	1794.07
597.85	1795.05
598.19	1795.95
598.54	1795.64
598.89	1794.62
599.24	1794.95
599.59	1793.88
599.94	1793.36
600.29	1792.62
600.64	1791.79
600.99	1791.81
601.34	1792.55
601.69	1786.12
602.04	1785.48
602.39	1784.81
602.74	1784.83
603.08	1784.76
603.43	1784.69
603.78	1783.69
604.13	1782.69
604.48	1781.60
604.83	1781.26
605.18	1780.14
605.53	1778.31
605.87	1777.29
606.22	1775.83
606.57	1773.38
606.92	1771.31
607.27	1770.62
607.62	1770.40
607.96	1769.19
608.31	1768.00
608.66	1765.50
609.01	1763.62
609.36	1763.26
609.70	1761.76
610.05	1758.86
610.40	1756.07
610.75	1752.76
611.10	1750.00
611.44	1746.86
611.79	1743.45
612.14	1740.43
612.49	1736.48
612.83	1733.74
613.18	1729.79
613.53	1726.55
613.88	1723.19
614.22	1719.12
614.57	1714.19
614.92	1709.21
615.27	1704.57
615.61	1699.60
615.96	1695.57
616.31	1691.05
616.65	1687.12
617.00	1683.43
617.35	1679.48
617.70	1674.95
618.04	1670.55
618.39	1665.79
618.74	1662.12
619.08	1656.98
619.43	1652.83
619.78	1648.29
620.12	1644.38
620.47	1640.14
620.82	1636.07
621.16	1631.69
621.51	1629.67
621.85	1625.29
622.20	1620.43
622.55	1615.38
622.89	1610.62
623.24	1606.95
623.59	1603.45
623.93	1597.45
624.28	1592.62
624.62	1589.90
624.97	1586.83
625.32	1582.40
625.66	1578.21
626.01	1572.88
626.35	1569.50
626.70	1564.64
627.04	1562.02
627.39	1556.98
627.73	1554.00
628.08	1550.14
628.43	1547.12
628.77	1541.67
629.12	1538.31
629.46	1534.90
629.81	1531.26
630.15	1527.64
630.50	1521.88
630.84	1515.93
631.19	1511.33
631.53	1505.64
631.88	1497.67
632.22	1490.29
632.57	1485.79
632.91	1480.33
633.26	1475.60
633.60	1470.74
633.95	1465.55
634.29	1458.52
634.64	1453.52
634.98	1447.17
635.32	1442.74
635.67	1437.02
636.01	1431.29
636.36	1425.62
636.70	1421.02
637.05	1416.10
637.39	1410.45
637.73	1405.55
638.08	1401.64
638.42	1396.86
638.77	1392.52
639.11	1388.74
639.45	1384.05
639.80	1378.50
640.14	1372.71
640.49	1366.52
640.83	1360.62
641.17	1355.07
641.52	1350.02
641.86	1344.86
642.20	1340.26
642.55	1333.43
642.89	1326.86
643.23	1321.05
643.58	1316.05
643.92	1308.62
644.26	1301.74
644.61	1295.90
644.95	1289.98
645.29	1282.93
645.64	1276.55
645.98	1269.36
646.32	1262.45
646.66	1256.24
647.01	1249.02
647.35	1243.43
647.69	1237.24
648.04	1231.62
648.38	1225.40
648.72	1218.88
649.06	1212.02
649.41	1204.40
649.75	1197.71
650.09	1191.62
650.43	1185.07
650.78	1177.48
651.12	1170.62
651.46	1164.55
651.80	1158.02
652.14	1150.98
652.49	1145.00
652.83	1138.31
653.17	1131.64
653.51	1125.26
653.85	1119.24
654.20	1112.93
654.54	1105.50
654.88	1098.24
655.22	1091.33
655.56	1084.02
655.90	1077.69
656.25	1070.74
656.59	1064.93
656.93	1058.69
657.27	1052.40
657.61	1045.33
657.95	1039.55
658.29	1033.62
658.64	1027.43
658.98	1020.74
659.32	1014.26
659.66	1007.86
660.00	1002.48
660.34	996.79
660.68	990.10
661.02	983.21
661.36	977.02
661.70	971.36
662.05	965.81
662.39	959.69
662.73	954.98
663.07	949.43
663.41	943.52
663.75	936.88
664.09	930.90
664.43	923.98
664.77	918.83
665.11	912.76
665.45	907.26
665.79	901.62
666.13	895.33
666.47	889.55
666.81	883.36
667.15	876.57
667.49	870.64
667.83	866.10
668.17	861.10
668.51	855.40
668.85	849.62
669.19	845.52
669.53	839.12
669.87	832.93
670.21	826.62
670.55	821.19
670.89	816.71
671.23	811.60
671.57	806.69
671.91	801.33
672.25	796.79
672.58	791.98
672.92	786.33
673.26	781.98
673.60	776.83
673.94	772.00
674.28	767.60
674.62	763.33
674.96	757.52
675.30	752.71
675.64	747.93
675.97	743.74
676.31	737.81
676.65	733.71
676.99	730.36
677.33	725.50
677.67	720.83
678.01	715.29
678.34	710.26
678.68	706.00
679.02	700.81
679.36	694.95
679.70	689.55
680.04	685.19
680.37	680.43
680.71	675.88
681.05	671.74
681.39	667.21
681.73	662.57
682.06	657.95
682.40	653.57
682.74	649.74
683.08	645.60
683.42	641.29
683.75	637.12
684.09	631.26
684.43	626.98
684.77	622.74
685.10	618.55
685.44	614.26
685.78	609.74
686.12	605.79
686.45	601.95
686.79	597.74
687.13	594.14
687.46	589.69
687.80	586.76
688.14	582.50
688.48	578.24
688.81	574.26
689.15	571.24
689.49	566.40
689.82	562.57
690.16	557.71
690.50	553.55
690.83	549.38
691.17	545.36
691.51	541.17
691.84	537.45
692.18	533.74
692.52	529.86
692.85	526.52
693.19	523.52
693.52	519.69
693.86	516.12
694.20	512.07
694.53	508.55
694.87	504.38
695.21	500.45
695.54	497.00
695.88	492.79
696.21	488.60
696.55	485.26
696.88	481.86
697.22	478.67
697.56	476.05
697.89	472.45
698.23	469.88
698.56	467.33
698.90	464.07
699.23	460.57
699.57	457.83
699.90	454.33
700.24	450.71
700.58	447.62
700.91	445.07
701.25	443.67
701.58	441.38
701.92	438.86
702.25	436.00
702.59	432.98
702.92	430.55
703.26	427.93
703.59	425.90
703.93	424.67
704.26	422.57
704.60	419.50
704.93	416.95
705.26	413.95
705.60	411.83
705.93	409.26
706.27	407.62
706.60	405.69
706.94	404.10
707.27	401.40
707.61	399.38
707.94	396.95
708.27	392.88
708.61	390.02
708.94	387.43
709.28	385.52
709.61	383.36
709.94	381.38
710.28	379.29
710.61	376.88
710.95	373.14
711.28	372.48
711.61	370.43
711.95	369.12
712.28	367.02
712.61	364.48
712.95	363.69
713.28	362.48
713.61	359.98
713.95	357.40
714.28	355.81
714.61	354.14
714.95	352.36
715.28	350.71
715.61	348.95
715.95	347.60
716.28	345.48
716.61	344.17
716.95	342.12
717.28	340.21
717.61	338.52
717.94	336.79
718.28	333.38
718.61	331.90
718.94	330.05
719.27	328.67
719.61	327.02
719.94	325.00
720.27	322.36
720.60	320.71
720.94	319.40
721.27	318.05
721.60	316.69
721.93	315.24
722.27	314.57
722.60	313.64
722.93	312.10
723.26	311.17
723.59	309.55
723.93	308.79
724.26	308.02
724.59	306.67
724.92	305.60
725.25	305.12
725.59	304.02
725.92	302.83
726.25	302.14
726.58	301.69
726.91	300.43
727.24	299.95
727.57	299.17
727.91	298.07
728.24	297.57
728.57	296.12
728.90	295.83
729.23	294.07
729.56	293.88
729.89	293.10
730.22	292.00
730.55	291.02
730.89	289.98
731.22	288.88
731.55	288.52
731.88	287.62
732.21	286.33
732.54	285.33
732.87	284.81
733.20	283.86
733.53	283.00
733.86	282.45
734.19	281.21
734.52	280.62
734.85	281.26
735.18	279.86
735.51	280.02
735.84	279.05
736.17	279.10
736.50	277.60
736.83	278.86
737.16	278.52
737.49	278.10
737.82	277.14
738.15	276.71
738.48	276.07
738.81	275.33
739.14	274.64
739.47	273.83
739.80	272.71
740.13	272.36
740.46	271.26
740.79	270.02
741.12	269.29
741.45	268.52
741.78	266.79
742.11	266.93
742.44	265.86
742.77	265.45
743.10	264.43
743.43	263.74
743.75	261.07
744.08	263.02
744.41	262.17
744.74	261.50
745.07	260.64
745.40	260.12
745.73	260.55
746.06	260.02
746.39	260.10
746.71	259.62
747.04	258.64
747.37	258.12
747.70	258.24
748.03	257.81
748.36	257.40
748.68	256.57
749.01	255.33
749.34	254.95
749.67	254.38
750.00	254.19
750.33	255.14
750.65	254.88
750.98	251.95
751.31	251.95
751.64	251.90
751.97	252.71
752.29	252.17
752.62	250.71
752.95	250.17
753.28	249.24
753.60	248.83
753.93	249.10
754.26	248.90
754.59	247.81
754.91	247.19
755.24	246.69
755.57	246.21
755.90	245.95
756.22	245.26
756.55	244.48
756.88	243.50
757.20	241.79
757.53	240.76
757.86	240.19
758.19	239.67
758.51	238.95
758.84	237.36
759.17	236.86
759.49	236.50
759.82	237.33
760.15	237.43
760.47	237.24
760.80	236.12
761.13	235.98
761.45	235.64
761.78	235.55
762.11	235.24
762.43	235.14
762.76	234.83
763.08	234.79
763.41	234.74
763.74	234.71
764.06	234.45
764.39	234.48
764.71	234.31
765.04	233.88
765.37	233.74
765.69	233.52
766.02	233.10
766.34	232.83
766.67	231.55
767.00	231.64
767.32	232.38
767.65	233.36
767.97	233.31
768.30	233.19
768.62	232.98
768.95	232.60
769.27	232.02
769.60	232.24
769.92	231.60
770.25	230.98
770.57	230.43
770.90	229.98
771.22	229.50
771.55	229.50
771.87	229.33
772.20	229.14
772.52	230.60
772.85	232.57
773.17	232.62
773.50	232.67
773.82	232.10
774.15	230.69
774.47	229.26
774.80	228.71
775.12	228.76
775.45	228.26
775.77	228.19
776.09	228.48
776.42	228.26
776.74	228.64
777.07	228.57
777.39	228.52
777.72	228.38
778.04	228.57
778.36	228.07
778.69	228.12
779.01	228.00
779.33	226.38
779.66	224.38
779.98	224.02
780.31	223.74
780.63	224.38
780.95	225.10
781.28	225.02
781.60	224.88
781.92	224.74
782.25	224.81
782.57	224.74
782.89	224.45
783.22	224.07
783.54	223.74
783.86	223.81
784.19	223.79
784.51	224.45
784.83	223.95
785.16	223.81
