SpectraSuite Data File
++++++++++++++++++++++++++++++++++++
Date: Tue Apr 02 18:45:11 EDT 2013
User: group
Dark Spectrum Present: No
Reference Spectrum Present: No
Number of Sampled Component Spectra: 1
Spectrometers: USB2E7196
Integration Time (usec): 580000 (USB2E7196)
Spectra Averaged: 2 (USB2E7196)
Boxcar Smoothing: 10 (USB2E7196)
Correct for Electrical Dark: No (USB2E7196)
Strobe/Lamp Enabled: No (USB2E7196)
Correct for Detector Non-linearity: No (USB2E7196)
Correct for Stray Light: No (USB2E7196)
Number of Pixels in Processed Spectrum: 2048
>>>>>Begin Processed Spectral Data<<<<<
339.09	0.00
339.48	192.50
339.86	191.50
340.24	193.00
340.63	194.50
341.01	226.50
341.39	197.00
341.78	203.50
342.16	206.50
342.54	201.50
342.93	195.10
343.31	204.79
343.69	205.31
344.07	205.95
344.46	206.67
344.84	207.38
345.22	206.38
345.60	206.86
345.99	207.31
346.37	207.38
346.75	207.55
347.13	207.79
347.52	207.67
347.90	208.36
348.28	208.62
348.66	209.14
349.05	208.60
349.43	208.90
349.81	209.05
350.19	209.21
350.57	209.36
350.96	209.76
351.34	210.19
351.72	210.45
352.10	210.83
352.48	210.81
352.87	210.62
353.25	210.71
353.63	210.93
354.01	210.86
354.39	211.02
354.77	211.40
355.15	212.07
355.54	212.02
355.92	211.52
356.30	211.48
356.68	213.00
357.06	213.36
357.44	213.07
357.82	213.05
358.20	214.24
358.58	214.33
358.97	214.40
359.35	214.90
359.73	215.45
360.11	215.52
360.49	215.95
360.87	216.24
361.25	216.64
361.63	217.43
362.01	217.50
362.39	217.50
362.77	217.64
363.15	217.64
363.53	217.76
363.91	217.95
364.29	217.88
364.67	215.90
365.05	216.19
365.43	216.50
365.81	216.86
366.19	217.00
366.57	217.95
366.95	217.95
367.33	217.45
367.71	217.17
368.09	217.33
368.47	217.21
368.85	217.00
369.23	217.36
369.61	216.43
369.99	217.26
370.37	217.55
370.75	218.29
371.13	217.74
371.51	217.90
371.89	218.05
372.27	218.31
372.65	218.40
373.03	218.24
373.41	218.21
373.78	217.90
374.16	216.74
374.54	215.90
374.92	215.76
375.30	215.67
375.68	215.40
376.06	215.48
376.44	215.36
376.82	215.48
377.19	215.45
377.57	215.69
377.95	214.71
378.33	214.62
378.71	213.74
379.09	214.10
379.47	214.12
379.84	213.90
380.22	213.86
380.60	213.48
380.98	213.31
381.36	213.17
381.73	212.90
382.11	213.29
382.49	213.40
382.87	213.10
383.25	213.12
383.62	215.60
384.00	215.05
384.38	215.05
384.76	215.76
385.13	216.45
385.51	216.40
385.89	216.33
386.27	216.26
386.64	216.38
387.02	216.21
387.40	215.93
387.78	216.17
388.15	216.00
388.53	216.02
388.91	216.05
389.29	216.02
389.66	216.36
390.04	216.12
390.42	216.33
390.79	216.67
391.17	216.71
391.55	214.45
391.92	214.69
392.30	215.00
392.68	214.36
393.05	214.19
393.43	214.26
393.81	214.48
394.18	214.31
394.56	214.31
394.94	214.62
395.31	214.64
395.69	215.38
396.06	215.81
396.44	215.90
396.82	215.93
397.19	216.86
397.57	216.74
397.95	216.95
398.32	216.43
398.70	216.74
399.07	217.26
399.45	217.07
399.82	216.90
400.20	216.57
400.58	216.52
400.95	215.57
401.33	216.12
401.70	217.64
402.08	217.67
402.45	217.79
402.83	218.14
403.20	218.07
403.58	217.55
403.95	217.81
404.33	218.33
404.71	218.36
405.08	219.48
405.46	219.67
405.83	220.17
406.21	220.31
406.58	220.38
406.96	220.52
407.33	221.24
407.70	222.14
408.08	224.43
408.45	225.48
408.83	226.50
409.20	226.74
409.58	226.10
409.95	227.14
410.33	227.90
410.70	228.29
411.08	229.76
411.45	231.00
411.82	231.55
412.20	233.10
412.57	235.60
412.95	235.33
413.32	237.19
413.69	238.55
414.07	240.57
414.44	242.48
414.82	244.45
415.19	246.79
415.56	249.14
415.94	250.14
416.31	252.93
416.68	255.88
417.06	259.10
417.43	262.55
417.81	266.26
418.18	270.17
418.55	273.90
418.93	277.40
419.30	281.52
419.67	286.31
420.04	290.62
420.42	294.57
420.79	301.52
421.16	306.98
421.54	313.93
421.91	319.90
422.28	326.55
422.66	333.17
423.03	340.98
423.40	347.60
423.77	354.93
424.15	362.00
424.52	369.64
424.89	378.26
425.26	385.95
425.64	393.17
426.01	401.64
426.38	410.36
426.75	420.21
427.13	429.43
427.50	438.83
427.87	448.48
428.24	458.76
428.61	466.81
428.99	477.95
429.36	488.33
429.73	499.55
430.10	510.33
430.47	521.81
430.85	532.02
431.22	544.45
431.59	559.17
431.96	571.86
432.33	585.62
432.70	599.26
433.08	615.17
433.45	630.24
433.82	645.07
434.19	662.26
434.56	678.57
434.93	694.36
435.30	710.19
435.68	728.05
436.05	745.05
436.42	761.95
436.79	778.57
437.16	795.57
437.53	813.12
437.90	830.93
438.27	848.71
438.64	866.95
439.01	884.19
439.38	898.14
439.75	913.00
440.13	929.48
440.50	944.79
440.87	957.60
441.24	971.24
441.61	985.50
441.98	996.45
442.35	1008.36
442.72	1021.24
443.09	1034.38
443.46	1042.12
443.83	1047.12
444.20	1052.36
444.57	1056.98
444.94	1060.17
445.31	1064.12
445.68	1069.79
446.05	1071.86
446.42	1071.33
446.79	1069.88
447.16	1067.57
447.53	1066.52
447.90	1060.74
448.27	1054.45
448.64	1045.76
449.01	1039.52
449.37	1028.88
449.74	1017.81
450.11	1007.19
450.48	992.21
450.85	977.05
451.22	964.48
451.59	953.24
451.96	941.21
452.33	926.38
452.70	912.31
453.07	895.40
453.43	876.38
453.80	859.48
454.17	843.24
454.54	827.79
454.91	811.60
455.28	795.36
455.65	780.52
456.02	769.12
456.38	756.79
456.75	741.60
457.12	728.38
457.49	715.76
457.86	701.50
458.23	691.69
458.59	679.74
458.96	667.57
459.33	656.26
459.70	646.19
460.07	637.79
460.43	627.98
460.80	619.24
461.17	611.48
461.54	603.19
461.91	595.05
462.27	587.19
462.64	580.55
463.01	573.21
463.38	566.14
463.74	555.60
464.11	548.86
464.48	543.00
464.85	536.88
465.21	532.40
465.58	527.43
465.95	520.86
466.32	515.88
466.68	510.64
467.05	505.76
467.42	500.71
467.78	495.52
468.15	490.88
468.52	487.17
468.88	481.60
469.25	477.12
469.62	473.81
469.98	469.74
470.35	466.12
470.72	462.83
471.08	458.62
471.45	455.36
471.82	452.90
472.18	449.29
472.55	446.40
472.92	442.50
473.28	439.57
473.65	437.10
474.02	434.69
474.38	433.02
474.75	431.21
475.11	428.90
475.48	427.00
475.85	425.19
476.21	422.90
476.58	421.60
476.94	420.31
477.31	418.69
477.67	417.55
478.04	416.19
478.41	415.05
478.77	416.50
479.14	415.62
479.50	414.69
479.87	414.43
480.23	414.43
480.60	413.95
480.96	413.55
481.33	414.26
481.69	414.21
482.06	414.52
482.42	414.88
482.79	415.69
483.15	416.14
483.52	417.10
483.88	417.62
484.25	418.21
484.61	418.90
484.98	419.79
485.34	421.43
485.71	423.02
486.07	424.48
486.44	424.19
486.80	426.00
487.17	427.50
487.53	430.29
487.90	432.21
488.26	435.07
488.62	437.83
488.99	439.64
489.35	442.31
489.72	444.64
490.08	447.26
490.44	449.55
490.81	452.83
491.17	455.98
491.54	459.55
491.90	463.21
492.26	466.71
492.63	470.50
492.99	473.55
493.36	477.48
493.72	481.81
494.08	486.00
494.45	490.52
494.81	495.67
495.17	499.93
495.54	504.71
495.90	509.45
496.26	514.55
496.63	519.67
496.99	524.74
497.35	530.79
497.72	536.81
498.08	543.05
498.44	549.17
498.80	555.43
499.17	561.86
499.53	568.52
499.89	575.98
500.26	583.02
500.62	590.33
500.98	597.74
501.34	604.57
501.71	612.33
502.07	619.38
502.43	626.21
502.79	632.95
503.16	640.12
503.52	647.52
503.88	654.17
504.24	662.14
504.60	669.71
504.97	677.21
505.33	684.29
505.69	692.93
506.05	700.33
506.41	708.14
506.78	715.55
507.14	722.40
507.50	729.55
507.86	736.74
508.22	744.17
508.59	750.95
508.95	758.62
509.31	766.83
509.67	774.67
510.03	783.05
510.39	791.10
510.75	799.26
511.12	807.05
511.48	815.14
511.84	822.29
512.20	829.50
512.56	836.52
512.92	844.76
513.28	851.79
513.64	859.26
514.00	866.71
514.37	874.55
514.73	882.14
515.09	889.43
515.45	897.07
515.81	904.64
516.17	912.05
516.53	919.00
516.89	924.62
517.25	931.02
517.61	937.29
517.97	943.36
518.33	950.05
518.69	955.95
519.05	962.64
519.41	968.74
519.77	976.48
520.13	982.79
520.49	987.74
520.85	993.60
521.21	999.79
521.57	1005.76
521.93	1011.07
522.29	1016.79
522.65	1021.98
523.01	1026.90
523.37	1030.90
523.73	1035.67
524.09	1041.00
524.45	1045.17
524.81	1050.81
525.17	1055.26
525.53	1060.14
525.89	1064.67
526.25	1069.71
526.61	1073.45
526.97	1077.48
527.33	1080.93
527.68	1086.81
528.04	1091.26
528.40	1094.60
528.76	1098.79
529.12	1102.21
529.48	1106.31
529.84	1110.33
530.20	1114.60
530.56	1119.43
530.91	1124.64
531.27	1129.26
531.63	1133.40
531.99	1137.88
532.35	1140.79
532.71	1144.36
533.07	1148.60
533.42	1154.38
533.78	1158.57
534.14	1163.48
534.50	1167.57
534.86	1171.88
535.21	1174.05
535.57	1179.07
535.93	1182.71
536.29	1187.36
536.65	1191.45
537.00	1195.19
537.36	1198.52
537.72	1201.88
538.08	1205.36
538.44	1207.50
538.79	1210.55
539.15	1212.88
539.51	1216.26
539.87	1220.64
540.22	1224.17
540.58	1227.26
540.94	1228.26
541.29	1230.98
541.65	1232.74
542.01	1236.36
542.37	1239.00
542.72	1240.17
543.08	1242.17
543.44	1245.60
543.79	1246.60
544.15	1249.83
544.51	1252.83
544.87	1256.07
545.22	1259.57
545.58	1262.24
545.94	1265.64
546.29	1268.67
546.65	1272.05
547.01	1274.71
547.36	1277.07
547.72	1279.69
548.07	1282.38
548.43	1285.40
548.79	1286.98
549.14	1289.71
549.50	1292.43
549.86	1294.81
550.21	1299.10
550.57	1302.40
550.92	1304.38
551.28	1308.19
551.64	1310.31
551.99	1313.48
552.35	1315.93
552.70	1317.60
553.06	1319.98
553.41	1323.76
553.77	1328.45
554.13	1332.02
554.48	1336.74
554.84	1340.05
555.19	1344.33
555.55	1348.60
555.90	1351.50
556.26	1356.33
556.61	1360.40
556.97	1363.31
557.32	1367.45
557.68	1370.88
558.03	1373.29
558.39	1377.62
558.74	1381.10
559.10	1385.45
559.45	1389.05
559.81	1394.14
560.16	1399.21
560.52	1403.57
560.87	1406.95
561.23	1409.43
561.58	1414.83
561.94	1418.00
562.29	1422.31
562.64	1426.00
563.00	1429.83
563.35	1434.43
563.71	1439.10
564.06	1443.98
564.42	1449.21
564.77	1454.52
565.12	1460.71
565.48	1468.79
565.83	1474.90
566.19	1481.07
566.54	1485.50
566.89	1491.50
567.25	1497.38
567.60	1503.48
567.96	1510.62
568.31	1517.67
568.66	1524.19
569.02	1528.38
569.37	1534.07
569.72	1540.40
570.08	1546.31
570.43	1551.76
570.78	1557.79
571.14	1563.26
571.49	1568.95
571.84	1574.40
572.20	1579.26
572.55	1584.14
572.90	1587.19
573.26	1590.69
573.61	1594.69
573.96	1600.12
574.31	1604.81
574.67	1608.69
575.02	1612.88
575.37	1615.57
575.72	1618.57
576.08	1622.33
576.43	1626.14
576.78	1629.93
577.13	1633.12
577.49	1636.60
577.84	1640.79
578.19	1644.48
578.54	1648.43
578.90	1651.69
579.25	1655.14
579.60	1657.71
579.95	1661.21
580.30	1664.60
580.66	1669.57
581.01	1672.95
581.36	1676.31
581.71	1679.38
582.06	1683.36
582.42	1686.67
582.77	1690.26
583.12	1693.95
583.47	1697.90
583.82	1701.98
584.17	1705.50
584.53	1709.31
584.88	1712.88
585.23	1716.64
585.58	1719.31
585.93	1721.38
586.28	1724.90
586.63	1727.40
586.98	1730.81
587.34	1733.93
587.69	1736.12
588.04	1738.02
588.39	1740.60
588.74	1742.24
589.09	1744.43
589.44	1744.86
589.79	1746.98
590.14	1748.67
590.49	1750.57
590.84	1751.12
591.19	1752.29
591.54	1753.98
591.89	1754.74
592.25	1757.86
592.60	1758.12
592.95	1759.98
593.30	1762.67
593.65	1763.05
594.00	1764.45
594.35	1771.74
594.70	1771.79
595.05	1773.33
595.40	1773.79
595.75	1774.31
596.10	1776.26
596.45	1776.95
596.80	1778.86
597.15	1778.76
597.50	1780.12
597.85	1780.60
598.19	1780.98
598.54	1781.50
598.89	1780.93
599.24	1782.07
599.59	1781.14
599.94	1781.02
600.29	1781.05
600.64	1780.98
600.99	1780.86
601.34	1781.48
601.69	1775.52
602.04	1774.29
602.39	1774.00
602.74	1774.83
603.08	1774.62
603.43	1774.36
603.78	1774.24
604.13	1774.67
604.48	1774.14
604.83	1773.79
605.18	1773.40
605.53	1773.48
605.87	1772.55
606.22	1772.67
606.57	1770.81
606.92	1769.57
607.27	1768.88
607.62	1768.26
607.96	1767.02
608.31	1767.07
608.66	1765.26
609.01	1763.88
609.36	1764.57
609.70	1763.10
610.05	1761.00
610.40	1760.10
610.75	1757.64
611.10	1755.05
611.44	1751.83
611.79	1749.76
612.14	1746.86
612.49	1744.07
612.83	1740.76
613.18	1738.02
613.53	1735.55
613.88	1732.31
614.22	1729.07
614.57	1725.90
614.92	1722.21
615.27	1718.12
615.61	1713.76
615.96	1709.95
616.31	1706.07
616.65	1702.74
617.00	1700.33
617.35	1697.38
617.70	1693.79
618.04	1689.98
618.39	1687.24
618.74	1683.52
619.08	1680.00
619.43	1677.00
619.78	1674.07
620.12	1671.14
620.47	1668.17
620.82	1663.45
621.16	1659.62
621.51	1656.93
621.85	1652.69
622.20	1649.38
622.55	1645.29
622.89	1642.29
623.24	1639.36
623.59	1636.40
623.93	1632.40
624.28	1628.33
624.62	1625.81
624.97	1622.60
625.32	1619.02
625.66	1614.67
626.01	1610.57
626.35	1607.07
626.70	1602.31
627.04	1598.00
627.39	1594.50
627.73	1591.24
628.08	1589.17
628.43	1585.60
628.77	1581.38
629.12	1578.60
629.46	1575.14
629.81	1572.24
630.15	1568.00
630.50	1563.50
630.84	1558.55
631.19	1553.21
631.53	1548.74
631.88	1541.33
632.22	1535.36
632.57	1531.81
632.91	1526.93
633.26	1522.33
633.60	1516.88
633.95	1512.17
634.29	1507.02
634.64	1501.83
634.98	1496.38
635.32	1491.55
635.67	1488.43
636.01	1483.62
636.36	1477.81
636.70	1472.93
637.05	1468.26
637.39	1463.55
637.73	1459.40
638.08	1455.33
638.42	1451.26
638.77	1446.86
639.11	1442.93
639.45	1438.40
639.80	1432.38
640.14	1427.45
640.49	1423.05
640.83	1418.60
641.17	1413.81
641.52	1409.48
641.86	1404.98
642.20	1400.88
642.55	1394.57
642.89	1388.17
643.23	1382.45
643.58	1377.90
643.92	1372.31
644.26	1366.31
644.61	1361.90
644.95	1356.19
645.29	1350.26
645.64	1344.93
645.98	1338.86
646.32	1334.07
646.66	1327.83
647.01	1321.98
647.35	1317.45
647.69	1311.90
648.04	1306.88
648.38	1301.79
648.72	1296.19
649.06	1290.83
649.41	1284.29
649.75	1278.48
650.09	1272.29
650.43	1265.69
650.78	1259.93
651.12	1252.76
651.46	1246.67
651.80	1239.98
652.14	1234.10
652.49	1228.40
652.83	1222.26
653.17	1215.67
653.51	1208.86
653.85	1203.95
654.20	1198.40
654.54	1191.21
654.88	1184.79
655.22	1178.83
655.56	1172.64
655.90	1166.40
656.25	1159.07
656.59	1152.67
656.93	1146.50
657.27	1141.07
657.61	1135.40
657.95	1129.69
658.29	1124.48
658.64	1118.93
658.98	1112.36
659.32	1105.62
659.66	1099.12
660.00	1093.02
660.34	1087.33
660.68	1081.24
661.02	1074.57
661.36	1067.74
661.70	1061.55
662.05	1054.76
662.39	1047.98
662.73	1041.76
663.07	1036.10
663.41	1030.62
663.75	1024.60
664.09	1019.24
664.43	1013.33
664.77	1007.33
665.11	1000.93
665.45	993.93
665.79	987.83
666.13	981.57
666.47	976.31
666.81	971.12
667.15	964.55
667.49	959.14
667.83	954.81
668.17	948.95
668.51	943.98
668.85	938.67
669.19	935.31
669.53	929.55
669.87	923.50
670.21	917.36
670.55	910.93
670.89	906.19
671.23	900.86
671.57	895.55
671.91	890.55
672.25	884.71
672.58	880.71
672.92	874.98
673.26	869.76
673.60	864.67
673.94	859.10
674.28	854.57
674.62	849.50
674.96	843.48
675.30	838.88
675.64	833.76
675.97	829.05
676.31	822.45
676.65	817.24
676.99	813.76
677.33	809.24
677.67	804.95
678.01	799.36
678.34	794.02
678.68	788.98
679.02	783.64
679.36	778.90
679.70	773.69
680.04	769.00
680.37	764.07
680.71	758.74
681.05	754.12
681.39	749.40
681.73	744.26
682.06	739.05
682.40	734.52
682.74	730.19
683.08	725.71
683.42	720.71
683.75	716.38
684.09	710.52
684.43	705.21
684.77	700.36
685.10	695.76
685.44	690.88
685.78	686.07
686.12	681.24
686.45	676.62
686.79	671.60
687.13	666.98
687.46	662.60
687.80	658.69
688.14	653.64
688.48	649.55
688.81	644.95
689.15	641.29
689.49	636.57
689.82	632.07
690.16	626.90
690.50	622.40
690.83	618.00
691.17	613.00
691.51	609.33
691.84	605.29
692.18	601.10
692.52	596.93
692.85	593.50
693.19	590.24
693.52	586.26
693.86	581.69
694.20	578.02
694.53	574.02
694.87	569.36
695.21	565.52
695.54	560.93
695.88	556.48
696.21	551.43
696.55	547.40
696.88	543.95
697.22	540.60
697.56	537.74
697.89	533.83
698.23	530.81
698.56	526.57
698.90	522.86
699.23	518.67
699.57	514.83
699.90	510.52
700.24	506.79
700.58	503.19
700.91	500.57
701.25	498.50
701.58	496.05
701.92	493.69
702.25	490.40
702.59	487.02
702.92	484.36
703.26	481.62
703.59	478.33
703.93	476.67
704.26	473.60
704.60	470.17
704.93	466.98
705.26	463.76
705.60	461.29
705.93	458.05
706.27	455.90
706.60	453.79
706.94	452.05
707.27	448.90
707.61	446.29
707.94	443.74
708.27	439.62
708.61	436.19
708.94	433.10
709.28	430.69
709.61	428.36
709.94	425.93
710.28	423.38
710.61	421.19
710.95	416.74
711.28	415.62
711.61	413.24
711.95	411.60
712.28	409.26
712.61	406.43
712.95	405.19
713.28	403.33
713.61	400.36
713.95	397.33
714.28	395.12
714.61	392.83
714.95	390.14
715.28	387.93
715.61	385.88
715.95	383.50
716.28	380.98
716.61	378.95
716.95	376.55
717.28	374.60
717.61	372.38
717.94	370.00
718.28	366.55
718.61	364.83
718.94	362.29
719.27	360.24
719.61	358.57
719.94	356.10
720.27	353.40
720.60	351.45
720.94	349.67
721.27	348.07
721.60	346.81
721.93	345.19
722.27	344.21
722.60	342.57
722.93	340.86
723.26	339.52
723.59	337.60
723.93	336.29
724.26	334.98
724.59	333.29
724.92	332.29
725.25	331.40
725.59	329.57
725.92	328.48
726.25	327.26
726.58	325.90
726.91	324.67
727.24	323.83
727.57	322.74
727.91	321.10
728.24	319.90
728.57	318.45
728.90	317.74
729.23	315.76
729.56	315.17
729.89	314.02
730.22	313.17
730.55	312.02
730.89	311.00
731.22	309.55
731.55	308.33
731.88	307.17
732.21	305.93
732.54	304.52
732.87	303.48
733.20	302.50
733.53	301.50
733.86	300.74
734.19	298.98
734.52	298.60
734.85	299.29
735.18	297.88
735.51	297.60
735.84	296.52
736.17	296.07
736.50	294.33
736.83	295.90
737.16	294.93
737.49	294.29
737.82	292.86
738.15	292.29
738.48	291.50
738.81	290.48
739.14	289.19
739.47	288.74
739.80	287.88
740.13	287.02
740.46	285.76
740.79	284.43
741.12	283.95
741.45	282.45
741.78	280.26
742.11	280.48
742.44	279.00
742.77	278.62
743.10	277.62
743.43	276.48
743.75	273.71
744.08	275.62
744.41	274.67
744.74	274.07
745.07	273.05
745.40	272.79
745.73	272.88
746.06	272.19
746.39	271.69
746.71	270.88
747.04	269.90
747.37	269.55
747.70	269.14
748.03	268.45
748.36	268.36
748.68	267.93
749.01	266.57
749.34	266.10
749.67	265.24
750.00	265.14
750.33	266.40
750.65	265.64
750.98	262.00
751.31	261.57
751.64	261.14
751.97	262.05
752.29	261.24
752.62	260.10
752.95	259.52
753.28	258.64
753.60	257.98
753.93	258.38
754.26	257.60
754.59	256.74
754.91	256.17
755.24	255.31
755.57	254.48
755.90	254.00
756.22	253.26
756.55	252.64
756.88	251.52
757.20	249.71
757.53	248.86
757.86	248.74
758.19	248.31
758.51	247.74
758.84	245.69
759.17	245.17
759.49	244.90
759.82	245.50
760.15	245.07
760.47	244.79
760.80	243.60
761.13	243.86
761.45	243.26
761.78	242.81
762.11	242.52
762.43	242.14
762.76	241.45
763.08	241.24
763.41	241.00
763.74	240.67
764.06	240.31
764.39	239.93
764.71	239.21
765.04	238.69
765.37	238.26
765.69	238.12
766.02	237.90
766.34	237.24
766.67	235.95
767.00	236.14
767.32	236.93
767.65	237.86
767.97	237.24
768.30	237.38
768.62	237.17
768.95	236.71
769.27	236.62
769.60	236.81
769.92	236.48
770.25	235.74
770.57	235.07
770.90	234.50
771.22	234.19
771.55	234.43
771.87	234.36
772.20	234.12
772.52	235.52
772.85	237.79
773.17	237.48
773.50	237.40
773.82	236.67
774.15	235.31
774.47	233.79
774.80	233.43
775.12	233.00
775.45	232.69
775.77	232.79
776.09	232.52
776.42	232.29
776.74	232.64
777.07	232.43
777.39	232.52
777.72	232.48
778.04	232.64
778.36	232.26
778.69	232.40
779.01	232.57
779.33	230.67
779.66	228.05
779.98	227.86
780.31	227.48
780.63	228.38
780.95	228.76
781.28	228.43
781.60	228.05
781.92	227.90
782.25	227.86
782.57	227.43
782.89	227.14
783.22	226.79
783.54	226.07
783.86	226.33
784.19	226.26
784.51	226.83
784.83	226.36
