SpectraSuite Data File
++++++++++++++++++++++++++++++++++++
Date: Tue Apr 02 18:37:28 EDT 2013
User: group
Dark Spectrum Present: No
Reference Spectrum Present: No
Number of Sampled Component Spectra: 1
Spectrometers: USB2E7196
Integration Time (usec): 580000 (USB2E7196)
Spectra Averaged: 2 (USB2E7196)
Boxcar Smoothing: 10 (USB2E7196)
Correct for Electrical Dark: No (USB2E7196)
Strobe/Lamp Enabled: No (USB2E7196)
Correct for Detector Non-linearity: No (USB2E7196)
Correct for Stray Light: No (USB2E7196)
Number of Pixels in Processed Spectrum: 2048
>>>>>Begin Processed Spectral Data<<<<<
339.09	0.00
339.48	193.00
339.86	192.00
340.24	195.00
340.63	203.00
341.01	227.00
341.39	200.50
341.78	206.00
342.16	212.50
342.54	206.00
342.93	197.79
343.31	207.79
343.69	208.26
344.07	208.88
344.46	209.74
344.84	210.17
345.22	209.29
345.60	209.67
345.99	209.90
346.37	209.93
346.75	210.00
347.13	209.95
347.52	210.12
347.90	210.90
348.28	210.90
348.66	211.31
349.05	210.74
349.43	211.40
349.81	211.45
350.19	211.57
350.57	211.90
350.96	212.38
351.34	212.81
351.72	213.00
352.10	213.24
352.48	213.21
352.87	213.07
353.25	213.21
353.63	213.14
354.01	213.29
354.39	213.33
354.77	213.45
355.15	214.19
355.54	213.93
355.92	213.40
356.30	213.55
356.68	214.71
357.06	214.93
357.44	214.62
357.82	214.50
358.20	215.40
358.58	215.21
358.97	215.19
359.35	215.36
359.73	215.95
360.11	216.10
360.49	216.19
360.87	216.38
361.25	216.52
361.63	217.29
362.01	217.29
362.39	217.21
362.77	217.33
363.15	217.02
363.53	217.02
363.91	217.17
364.29	217.17
364.67	215.48
365.05	215.12
365.43	215.26
365.81	215.52
366.19	215.67
366.57	216.52
366.95	216.14
367.33	215.60
367.71	215.50
368.09	215.81
368.47	215.62
368.85	215.43
369.23	215.86
369.61	215.21
369.99	215.90
370.37	216.21
370.75	217.19
371.13	216.98
371.51	216.95
371.89	217.24
372.27	217.48
372.65	217.60
373.03	217.90
373.41	217.69
373.78	217.57
374.16	216.40
374.54	215.69
374.92	215.57
375.30	215.74
375.68	215.12
376.06	215.07
376.44	215.00
376.82	215.14
377.19	215.07
377.57	215.05
377.95	214.24
378.33	213.88
378.71	212.64
379.09	212.93
379.47	213.24
379.84	212.88
380.22	212.83
380.60	212.43
380.98	212.17
381.36	212.21
381.73	211.90
382.11	212.45
382.49	212.52
382.87	212.43
383.25	212.55
383.62	215.29
384.00	214.79
384.38	215.05
384.76	215.60
385.13	216.24
385.51	216.31
385.89	216.14
386.27	216.33
386.64	216.83
387.02	216.50
387.40	216.40
387.78	216.48
388.15	216.45
388.53	216.43
388.91	216.55
389.29	216.52
389.66	217.07
390.04	216.69
390.42	217.21
390.79	217.45
391.17	217.12
391.55	214.71
391.92	214.93
392.30	215.24
392.68	214.69
393.05	214.55
393.43	214.31
393.81	214.38
394.18	213.88
394.56	213.79
394.94	214.43
395.31	214.10
395.69	214.79
396.06	214.93
396.44	215.24
396.82	215.17
397.19	216.14
397.57	215.83
397.95	216.07
398.32	215.14
398.70	215.50
399.07	216.17
399.45	216.17
399.82	216.02
400.20	215.62
400.58	215.57
400.95	214.90
401.33	215.79
401.70	217.43
402.08	217.64
402.45	217.71
402.83	218.21
403.20	218.48
403.58	218.31
403.95	218.83
404.33	219.14
404.71	219.45
405.08	220.52
405.46	220.93
405.83	221.38
406.21	221.93
406.58	222.26
406.96	222.38
407.33	223.00
407.70	224.05
408.08	226.48
408.45	227.43
408.83	228.62
409.20	229.14
409.58	228.83
409.95	230.33
410.33	231.45
410.70	231.76
411.08	233.12
411.45	234.21
411.82	235.17
412.20	236.95
412.57	239.38
412.95	239.14
413.32	241.02
413.69	242.71
414.07	244.79
414.44	246.88
414.82	249.21
415.19	252.29
415.56	254.76
415.94	256.10
416.31	259.36
416.68	262.38
417.06	265.98
417.43	270.02
417.81	274.00
418.18	278.29
418.55	282.76
418.93	287.69
419.30	292.69
419.67	298.12
420.04	303.38
420.42	308.45
420.79	316.64
421.16	323.24
421.54	330.95
421.91	338.26
422.28	345.45
422.66	353.19
423.03	361.90
423.40	370.05
423.77	378.62
424.15	386.95
424.52	395.79
424.89	405.81
425.26	414.76
425.64	423.71
426.01	433.36
426.38	443.95
426.75	454.76
427.13	465.55
427.50	476.71
427.87	488.24
428.24	500.26
428.61	510.38
428.99	523.64
429.36	536.52
429.73	549.93
430.10	563.62
430.47	577.69
430.85	590.71
431.22	605.31
431.59	622.31
431.96	637.69
432.33	654.21
432.70	670.71
433.08	690.00
433.45	708.26
433.82	726.24
434.19	746.43
434.56	766.45
434.93	785.33
435.30	803.98
435.68	826.00
436.05	846.83
436.42	866.81
436.79	885.83
437.16	907.24
437.53	928.83
437.90	950.40
438.27	972.02
438.64	994.29
439.01	1015.38
439.38	1032.50
439.75	1050.60
440.13	1070.52
440.50	1089.62
440.87	1105.45
441.24	1121.79
441.61	1139.95
441.98	1153.57
442.35	1169.45
442.72	1185.00
443.09	1201.36
443.46	1209.21
443.83	1215.69
444.20	1222.79
444.57	1230.00
444.94	1233.40
445.31	1238.19
445.68	1244.43
446.05	1245.98
446.42	1244.29
446.79	1243.38
447.16	1242.00
447.53	1241.33
447.90	1234.88
448.27	1227.02
448.64	1216.71
449.01	1209.69
449.37	1196.90
449.74	1183.86
450.11	1169.43
450.48	1152.52
450.85	1133.90
451.22	1119.52
451.59	1105.38
451.96	1090.81
452.33	1072.60
452.70	1055.74
453.07	1034.52
453.43	1012.45
453.80	992.81
454.17	973.90
454.54	955.31
454.91	935.38
455.28	915.29
455.65	897.60
456.02	883.21
456.38	867.90
456.75	848.93
457.12	832.57
457.49	817.19
457.86	800.36
458.23	788.48
458.59	774.33
458.96	760.57
459.33	748.07
459.70	735.95
460.07	726.02
460.43	714.33
460.80	704.31
461.17	694.81
461.54	685.00
461.91	675.00
462.27	665.12
462.64	656.95
463.01	648.60
463.38	640.55
463.74	628.76
464.11	621.00
464.48	614.62
464.85	607.36
465.21	601.69
465.58	595.71
465.95	587.62
466.32	581.90
466.68	575.52
467.05	569.26
467.42	563.31
467.78	556.93
468.15	551.40
468.52	546.76
468.88	540.19
469.25	534.93
469.62	531.60
469.98	526.95
470.35	522.86
470.72	518.33
471.08	513.64
471.45	510.40
471.82	507.31
472.18	502.69
472.55	499.76
472.92	495.69
473.28	492.31
473.65	489.21
474.02	486.52
474.38	484.31
474.75	482.24
475.11	479.43
475.48	477.50
475.85	475.43
476.21	473.52
476.58	472.60
476.94	471.21
477.31	469.36
477.67	467.95
478.04	466.57
478.41	466.02
478.77	466.90
479.14	465.81
479.50	465.33
479.87	465.64
480.23	465.48
480.60	465.19
480.96	464.83
481.33	465.45
481.69	465.43
482.06	465.67
482.42	466.10
482.79	466.98
483.15	467.64
483.52	469.00
483.88	469.88
484.25	470.69
484.61	471.74
484.98	473.00
485.34	475.14
485.71	477.17
486.07	478.95
486.44	478.79
486.80	480.69
487.17	482.12
487.53	484.95
487.90	488.17
488.26	491.57
488.62	495.57
488.99	498.60
489.35	501.79
489.72	504.76
490.08	508.24
490.44	511.62
490.81	515.76
491.17	519.17
491.54	523.95
491.90	528.71
492.26	533.60
492.63	538.52
492.99	543.24
493.36	548.88
493.72	554.95
494.08	561.07
494.45	567.38
494.81	574.24
495.17	580.26
495.54	586.57
495.90	593.57
496.26	599.86
496.63	606.81
496.99	614.57
497.35	622.69
497.72	630.52
498.08	638.31
498.44	646.33
498.80	655.31
499.17	663.33
499.53	671.12
499.89	680.14
500.26	689.02
500.62	697.83
500.98	706.88
501.34	715.83
501.71	725.00
502.07	734.00
502.43	743.33
502.79	752.40
503.16	761.36
503.52	770.33
503.88	779.40
504.24	789.48
504.60	798.76
504.97	808.57
505.33	818.14
505.69	829.38
506.05	839.50
506.41	849.43
506.78	859.50
507.14	869.88
507.50	879.81
507.86	889.74
508.22	900.64
508.59	910.17
508.95	920.29
509.31	931.52
509.67	942.19
510.03	951.93
510.39	963.19
510.75	973.45
511.12	984.00
511.48	994.48
511.84	1004.45
512.20	1014.90
512.56	1025.02
512.92	1035.93
513.28	1045.62
513.64	1055.21
514.00	1065.40
514.37	1074.98
514.73	1084.69
515.09	1094.45
515.45	1103.71
515.81	1112.40
516.17	1121.74
516.53	1130.31
516.89	1138.05
517.25	1145.83
517.61	1154.76
517.97	1161.98
518.33	1170.00
518.69	1178.07
519.05	1186.12
519.41	1193.02
519.77	1201.55
520.13	1208.79
520.49	1215.05
520.85	1221.36
521.21	1229.67
521.57	1236.05
521.93	1242.33
522.29	1249.60
522.65	1255.48
523.01	1262.69
523.37	1268.67
523.73	1274.76
524.09	1281.02
524.45	1287.14
524.81	1292.79
525.17	1298.45
525.53	1304.24
525.89	1310.40
526.25	1315.62
526.61	1320.50
526.97	1326.02
527.33	1330.71
527.68	1337.48
528.04	1342.29
528.40	1347.17
528.76	1350.76
529.12	1355.31
529.48	1360.60
529.84	1363.48
530.20	1367.64
530.56	1370.69
530.91	1375.02
531.27	1378.95
531.63	1382.86
531.99	1385.64
532.35	1389.88
532.71	1392.67
533.07	1395.43
533.42	1400.02
533.78	1402.83
534.14	1405.74
534.50	1408.33
534.86	1411.26
535.21	1412.76
535.57	1416.36
535.93	1419.10
536.29	1422.62
536.65	1425.43
537.00	1427.12
537.36	1430.40
537.72	1432.45
538.08	1434.76
538.44	1436.12
538.79	1438.05
539.15	1439.50
539.51	1441.74
539.87	1443.64
540.22	1445.81
540.58	1448.38
540.94	1448.57
541.29	1450.24
541.65	1450.86
542.01	1452.50
542.37	1452.86
542.72	1452.83
543.08	1452.67
543.44	1452.83
543.79	1450.26
544.15	1450.76
544.51	1451.29
544.87	1450.60
545.22	1450.93
545.58	1451.14
545.94	1450.55
546.29	1450.33
546.65	1449.33
547.01	1448.26
547.36	1447.50
547.72	1446.50
548.07	1445.00
548.43	1443.71
548.79	1441.79
549.14	1441.17
549.50	1440.17
549.86	1437.74
550.21	1436.38
550.57	1435.60
550.92	1434.52
551.28	1435.43
551.64	1433.55
551.99	1432.40
552.35	1430.86
552.70	1429.19
553.06	1428.55
553.41	1427.74
553.77	1427.60
554.13	1427.31
554.48	1427.12
554.84	1425.76
555.19	1424.14
555.55	1424.00
555.90	1422.95
556.26	1422.17
556.61	1420.33
556.97	1418.31
557.32	1416.95
557.68	1415.81
558.03	1413.74
558.39	1411.33
558.74	1409.93
559.10	1407.88
559.45	1406.21
559.81	1405.38
560.16	1404.07
560.52	1401.48
560.87	1399.50
561.23	1396.67
561.58	1395.95
561.94	1393.62
562.29	1391.71
562.64	1390.90
563.00	1387.14
563.35	1384.98
563.71	1383.02
564.06	1382.48
564.42	1381.38
564.77	1382.36
565.12	1381.83
565.48	1382.52
565.83	1382.10
566.19	1380.14
566.54	1378.76
566.89	1377.14
567.25	1376.36
567.60	1375.48
567.96	1375.98
568.31	1376.19
568.66	1375.60
569.02	1372.50
569.37	1370.43
569.72	1368.90
570.08	1366.67
570.43	1366.40
570.78	1364.26
571.14	1362.81
571.49	1360.71
571.84	1358.74
572.20	1355.05
572.55	1352.29
572.90	1348.00
573.26	1345.05
573.61	1342.00
573.96	1339.67
574.31	1337.14
574.67	1333.05
575.02	1329.31
575.37	1324.36
575.72	1320.02
576.08	1316.21
576.43	1312.81
576.78	1309.29
577.13	1305.52
577.49	1301.83
577.84	1297.57
578.19	1294.60
578.54	1291.40
578.90	1287.55
579.25	1283.71
579.60	1279.88
579.95	1275.60
580.30	1272.26
580.66	1269.24
581.01	1265.83
581.36	1261.36
581.71	1257.10
582.06	1254.24
582.42	1250.60
582.77	1245.93
583.12	1241.38
583.47	1236.33
583.82	1232.60
584.17	1229.33
584.53	1226.60
584.88	1222.29
585.23	1219.67
585.58	1215.26
585.93	1210.26
586.28	1206.76
586.63	1201.98
586.98	1197.86
587.34	1194.31
587.69	1189.52
588.04	1184.69
588.39	1180.38
588.74	1175.43
589.09	1170.90
589.44	1165.60
589.79	1161.29
590.14	1158.17
590.49	1153.62
590.84	1148.86
591.19	1144.48
591.54	1140.21
591.89	1134.38
592.25	1132.19
592.60	1126.29
592.95	1122.07
593.30	1118.07
593.65	1113.29
594.00	1109.07
594.35	1110.81
594.70	1105.26
595.05	1101.19
595.40	1096.64
595.75	1091.86
596.10	1088.62
596.45	1085.12
596.80	1081.45
597.15	1076.71
597.50	1071.83
597.85	1068.57
598.19	1064.71
598.54	1060.21
598.89	1055.45
599.24	1052.17
599.59	1046.36
599.94	1041.64
600.29	1037.17
600.64	1033.38
600.99	1028.62
601.34	1025.57
601.69	1014.79
602.04	1010.29
602.39	1005.48
602.74	1001.45
603.08	997.31
603.43	993.88
603.78	988.71
604.13	984.19
604.48	979.26
604.83	975.57
605.18	970.71
605.53	966.67
605.87	962.86
606.22	958.71
606.57	953.64
606.92	948.74
607.27	945.05
607.62	940.05
607.96	935.10
608.31	931.36
608.66	926.14
609.01	922.10
609.36	918.57
609.70	915.26
610.05	910.86
610.40	906.64
610.75	901.19
611.10	897.33
611.44	892.31
611.79	888.62
612.14	883.79
612.49	878.79
612.83	874.71
613.18	869.48
613.53	864.81
613.88	860.50
614.22	855.81
614.57	851.21
614.92	847.36
615.27	843.43
615.61	838.31
615.96	833.52
616.31	828.93
616.65	824.88
617.00	819.55
617.35	815.10
617.70	810.43
618.04	806.60
618.39	802.05
618.74	798.79
619.08	794.62
619.43	790.24
619.78	786.74
620.12	782.55
620.47	778.62
620.82	774.57
621.16	770.00
621.51	767.38
621.85	763.02
622.20	758.79
622.55	753.71
622.89	750.05
623.24	746.71
623.59	743.19
623.93	739.29
624.28	735.98
624.62	734.67
624.97	732.95
625.32	728.93
625.66	725.02
626.01	720.95
626.35	717.40
626.70	713.90
627.04	710.81
627.39	706.62
627.73	704.14
628.08	700.79
628.43	697.60
628.77	692.98
629.12	689.81
629.46	686.88
629.81	683.93
630.15	680.21
630.50	676.64
630.84	672.93
631.19	669.02
631.53	665.60
631.88	659.50
632.22	654.33
632.57	651.29
632.91	648.29
633.26	644.60
633.60	640.90
633.95	637.43
634.29	633.33
634.64	630.17
634.98	625.88
635.32	623.07
635.67	619.95
636.01	616.90
636.36	613.67
636.70	610.74
637.05	607.26
637.39	604.67
637.73	601.74
638.08	599.36
638.42	596.31
638.77	593.14
639.11	590.24
639.45	586.95
639.80	583.52
640.14	580.48
640.49	577.64
640.83	574.52
641.17	571.64
641.52	568.36
641.86	565.69
642.20	563.45
642.55	559.79
642.89	556.81
643.23	553.98
643.58	551.74
643.92	547.86
644.26	545.50
644.61	542.90
644.95	539.64
645.29	535.74
645.64	533.19
645.98	530.50
646.32	527.86
646.66	525.14
647.01	522.07
647.35	519.40
647.69	516.43
648.04	514.17
648.38	511.62
648.72	509.12
649.06	506.50
649.41	503.26
649.75	500.79
650.09	498.52
650.43	496.05
650.78	492.64
651.12	490.48
651.46	487.83
651.80	484.69
652.14	482.00
652.49	480.64
652.83	477.83
653.17	474.79
653.51	472.17
653.85	470.05
654.20	467.90
654.54	465.00
654.88	461.95
655.22	460.07
655.56	457.36
655.90	455.31
656.25	452.69
656.59	450.02
656.93	447.93
657.27	445.57
657.61	443.00
657.95	441.36
658.29	438.93
658.64	437.14
658.98	434.83
659.32	432.69
659.66	430.00
660.00	428.33
660.34	426.45
660.68	424.43
661.02	422.36
661.36	420.21
661.70	418.88
662.05	417.79
662.39	415.60
662.73	414.79
663.07	413.86
663.41	412.48
663.75	411.17
664.09	409.21
664.43	407.17
664.77	405.43
665.11	403.26
665.45	401.55
665.79	399.93
666.13	398.17
666.47	396.74
666.81	395.45
667.15	393.36
667.49	392.19
667.83	391.14
668.17	389.67
668.51	388.07
668.85	386.38
669.19	385.62
669.53	383.50
669.87	381.24
670.21	379.14
670.55	377.45
670.89	376.48
671.23	375.00
671.57	373.81
671.91	372.71
672.25	371.26
672.58	370.81
672.92	368.76
673.26	367.69
673.60	366.50
673.94	364.83
674.28	364.10
674.62	363.02
674.96	361.40
675.30	359.93
675.64	358.83
675.97	357.43
676.31	355.43
676.65	354.24
676.99	353.55
677.33	351.79
677.67	350.60
678.01	348.38
678.34	347.40
678.68	346.33
679.02	344.55
679.36	343.24
679.70	341.64
680.04	340.69
680.37	339.57
680.71	337.57
681.05	336.62
681.39	334.81
681.73	333.05
682.06	331.52
682.40	330.21
682.74	329.29
683.08	329.05
683.42	327.86
683.75	327.26
684.09	325.71
684.43	325.07
684.77	323.83
685.10	323.14
685.44	321.98
685.78	320.67
686.12	319.86
686.45	318.76
686.79	317.29
687.13	316.43
687.46	315.26
687.80	315.26
688.14	313.86
688.48	313.33
688.81	312.93
689.15	312.71
689.49	311.67
689.82	310.76
690.16	308.86
690.50	307.69
690.83	306.38
691.17	305.07
691.51	303.79
691.84	303.24
692.18	302.14
692.52	301.24
692.85	300.57
693.19	300.83
693.52	299.95
693.86	299.05
694.20	298.24
694.53	297.36
694.87	296.26
695.21	295.33
695.54	294.33
695.88	292.69
696.21	291.10
696.55	290.36
696.88	289.50
697.22	288.64
697.56	288.21
697.89	287.38
698.23	287.05
698.56	286.21
698.90	285.57
699.23	284.83
699.57	284.26
699.90	283.29
700.24	281.62
700.58	281.12
700.91	280.76
701.25	281.40
701.58	281.48
701.92	281.17
702.25	280.69
702.59	279.81
702.92	279.29
703.26	278.93
703.59	278.38
703.93	279.17
704.26	278.95
704.60	278.43
704.93	277.52
705.26	276.36
705.60	276.43
705.93	275.26
706.27	275.29
706.60	275.02
706.94	275.33
707.27	274.36
707.61	274.00
707.94	273.31
708.27	271.12
708.61	269.71
708.94	268.86
709.28	268.40
709.61	267.64
709.94	267.26
710.28	266.83
710.61	266.48
710.95	264.38
711.28	265.10
711.61	264.48
711.95	264.69
712.28	264.33
712.61	263.57
712.95	264.17
713.28	264.33
713.61	263.29
713.95	261.90
714.28	261.69
714.61	261.00
714.95	260.24
715.28	259.60
715.61	259.31
715.95	259.17
716.28	258.55
716.61	258.60
716.95	258.12
717.28	257.38
717.61	256.76
717.94	256.21
718.28	254.05
718.61	253.55
718.94	252.60
719.27	251.95
719.61	251.50
719.94	250.55
720.27	249.14
720.60	248.74
720.94	248.50
721.27	248.48
721.60	248.71
721.93	248.52
722.27	249.17
722.60	248.95
722.93	248.21
723.26	248.02
723.59	247.33
723.93	247.14
724.26	247.21
724.59	246.86
724.92	246.79
725.25	247.33
725.59	246.90
725.92	246.76
726.25	246.62
726.58	246.17
726.91	245.86
727.24	245.86
727.57	245.69
727.91	245.10
728.24	244.74
728.57	243.93
728.90	243.98
729.23	242.69
729.56	243.24
729.89	242.93
730.22	242.48
730.55	242.21
730.89	242.07
731.22	241.74
731.55	241.24
731.88	240.98
732.21	240.31
732.54	240.24
732.87	240.00
733.20	239.86
733.53	239.81
733.86	239.67
734.19	239.07
734.52	239.12
734.85	240.21
735.18	239.74
735.51	240.19
735.84	239.79
736.17	240.33
736.50	238.95
736.83	241.02
737.16	240.86
737.49	240.86
737.82	240.50
738.15	240.38
738.48	240.60
738.81	240.21
739.14	239.67
739.47	239.12
739.80	238.93
740.13	238.86
740.46	238.33
740.79	237.71
741.12	237.24
741.45	236.71
741.78	235.45
742.11	235.93
742.44	235.21
742.77	235.48
743.10	234.88
743.43	234.83
743.75	232.43
744.08	234.90
744.41	234.60
744.74	234.21
745.07	233.71
745.40	233.69
745.73	234.64
746.06	234.38
746.39	234.55
746.71	234.29
747.04	233.90
747.37	233.69
747.70	233.83
748.03	234.17
748.36	234.19
748.68	234.02
749.01	233.07
749.34	232.95
749.67	232.62
750.00	232.64
750.33	233.86
750.65	234.19
750.98	231.36
751.31	231.24
751.64	231.31
751.97	232.33
752.29	232.00
752.62	230.71
752.95	230.74
753.28	230.40
753.60	230.24
753.93	230.43
754.26	230.45
754.59	229.83
754.91	229.52
755.24	229.33
755.57	229.14
755.90	229.12
756.22	228.88
756.55	228.36
756.88	227.74
757.20	226.40
757.53	225.31
757.86	225.10
758.19	225.05
758.51	224.79
758.84	223.57
759.17	223.40
759.49	223.31
759.82	224.21
760.15	224.14
760.47	224.29
760.80	223.74
761.13	223.98
761.45	223.83
761.78	223.74
762.11	223.62
762.43	223.52
762.76	223.36
763.08	223.26
763.41	223.60
763.74	223.88
764.06	223.76
764.39	223.95
764.71	224.17
765.04	224.10
765.37	223.71
765.69	223.79
766.02	223.62
766.34	223.36
766.67	222.43
767.00	222.67
767.32	223.43
767.65	224.60
767.97	224.31
768.30	224.55
768.62	224.40
768.95	224.05
769.27	223.86
769.60	224.02
769.92	223.64
770.25	222.98
770.57	222.48
770.90	222.43
771.22	222.33
771.55	222.24
771.87	222.19
772.20	222.38
772.52	223.83
772.85	226.07
773.17	226.29
773.50	226.05
773.82	225.74
774.15	224.43
774.47	223.24
774.80	223.00
775.12	222.64
775.45	222.57
775.77	222.57
776.09	222.74
776.42	222.67
776.74	223.43
777.07	223.45
777.39	223.40
777.72	222.88
778.04	223.05
778.36	222.64
778.69	222.62
779.01	222.69
779.33	220.93
779.66	218.88
779.98	218.74
780.31	218.86
780.63	219.74
780.95	220.29
781.28	220.14
781.60	219.98
781.92	220.02
782.25	219.95
782.57	219.98
782.89	219.60
783.22	219.57
783.54	218.74
783.86	218.81
784.19	218.74
784.51	219.45
784.83	219.12
785.16	219.19
785.48	219.07
785.80	218.88
786.12	219.07
786.45	218.88
786.77	218.79
787.09	218.48
787.42	217.74
787.74	217.62
788.06	217.64
