SpectraSuite Data File
++++++++++++++++++++++++++++++++++++
Date: Tue Apr 02 18:43:34 EDT 2013
User: group
Dark Spectrum Present: No
Reference Spectrum Present: No
Number of Sampled Component Spectra: 1
Spectrometers: USB2E7196
Integration Time (usec): 580000 (USB2E7196)
Spectra Averaged: 2 (USB2E7196)
Boxcar Smoothing: 10 (USB2E7196)
Correct for Electrical Dark: No (USB2E7196)
Strobe/Lamp Enabled: No (USB2E7196)
Correct for Detector Non-linearity: No (USB2E7196)
Correct for Stray Light: No (USB2E7196)
Number of Pixels in Processed Spectrum: 2048
>>>>>Begin Processed Spectral Data<<<<<
339.09	0.00
339.48	192.50
339.86	197.50
340.24	198.50
340.63	199.00
341.01	236.50
341.39	204.50
341.78	210.50
342.16	211.00
342.54	208.00
342.93	199.81
343.31	209.93
343.69	210.62
344.07	211.07
344.46	212.10
344.84	212.88
345.22	211.50
345.60	211.74
345.99	211.88
346.37	212.05
346.75	212.17
347.13	212.00
347.52	212.10
347.90	212.74
348.28	212.88
348.66	213.31
349.05	212.76
349.43	213.10
349.81	213.31
350.19	213.33
350.57	213.36
350.96	213.52
351.34	213.55
351.72	213.76
352.10	213.86
352.48	213.26
352.87	213.05
353.25	213.24
353.63	213.10
354.01	212.90
354.39	212.88
354.77	212.98
355.15	213.62
355.54	213.31
355.92	212.79
356.30	212.62
356.68	213.88
357.06	213.83
357.44	213.40
357.82	213.00
358.20	213.79
358.58	213.69
358.97	213.48
359.35	213.74
359.73	213.95
360.11	214.02
360.49	214.31
360.87	214.19
361.25	214.36
361.63	215.14
362.01	215.21
362.39	214.95
362.77	214.90
363.15	214.62
363.53	214.67
363.91	214.83
364.29	214.83
364.67	212.64
365.05	212.64
365.43	212.98
365.81	213.43
366.19	213.21
366.57	213.67
366.95	213.86
367.33	213.19
367.71	213.12
368.09	213.38
368.47	213.17
368.85	213.21
369.23	213.57
369.61	212.67
369.99	213.36
370.37	213.69
370.75	214.79
371.13	214.36
371.51	213.83
371.89	213.93
372.27	214.10
372.65	214.33
373.03	214.38
373.41	214.17
373.78	213.79
374.16	213.07
374.54	212.52
374.92	212.19
375.30	212.26
375.68	211.74
376.06	211.74
376.44	211.60
376.82	211.48
377.19	211.29
377.57	211.38
377.95	210.76
378.33	210.45
378.71	209.31
379.09	209.76
379.47	210.31
379.84	210.14
380.22	210.02
380.60	209.76
380.98	209.55
381.36	209.40
381.73	209.33
382.11	209.93
382.49	210.19
382.87	210.10
383.25	210.24
383.62	213.12
384.00	212.90
384.38	213.17
384.76	213.64
385.13	214.33
385.51	214.50
385.89	214.31
386.27	214.57
386.64	214.76
387.02	214.62
387.40	214.40
387.78	214.38
388.15	214.45
388.53	214.48
388.91	214.62
389.29	214.40
389.66	214.83
390.04	214.43
390.42	214.79
390.79	214.83
391.17	214.98
391.55	212.38
391.92	212.36
392.30	212.57
392.68	212.33
393.05	212.21
393.43	212.14
393.81	212.10
394.18	211.86
394.56	211.76
394.94	212.02
395.31	211.93
395.69	212.90
396.06	213.24
396.44	213.60
396.82	213.38
397.19	214.90
397.57	214.74
397.95	215.26
398.32	214.79
398.70	215.12
399.07	215.57
399.45	215.62
399.82	215.55
400.20	215.19
400.58	215.05
400.95	214.24
401.33	214.90
401.70	216.38
402.08	216.40
402.45	216.64
402.83	217.31
403.20	217.67
403.58	217.12
403.95	217.57
404.33	218.12
404.71	218.74
405.08	219.60
405.46	219.90
405.83	220.14
406.21	220.48
406.58	221.02
406.96	221.19
407.33	221.88
407.70	222.52
408.08	225.07
408.45	226.14
408.83	227.33
409.20	227.52
409.58	227.17
409.95	228.38
410.33	229.36
410.70	229.55
411.08	230.83
411.45	232.07
411.82	232.81
412.20	234.36
412.57	236.71
412.95	236.36
413.32	238.19
413.69	239.43
414.07	241.02
414.44	242.67
414.82	244.69
415.19	247.00
415.56	249.45
415.94	250.45
416.31	253.33
416.68	255.79
417.06	259.24
417.43	262.90
417.81	266.26
418.18	270.17
418.55	274.05
418.93	277.90
419.30	281.81
419.67	286.33
420.04	290.38
420.42	294.55
420.79	301.62
421.16	307.31
421.54	314.38
421.91	320.83
422.28	327.19
422.66	333.45
423.03	341.12
423.40	348.07
423.77	355.29
424.15	362.29
424.52	369.93
424.89	378.57
425.26	386.12
425.64	393.83
426.01	401.74
426.38	410.17
426.75	419.83
427.13	428.90
427.50	438.64
427.87	448.79
428.24	458.60
428.61	467.40
428.99	477.98
429.36	488.67
429.73	499.62
430.10	510.86
430.47	522.86
430.85	533.67
431.22	546.00
431.59	561.02
431.96	573.62
432.33	588.29
432.70	601.67
433.08	617.81
433.45	633.02
433.82	648.36
434.19	665.60
434.56	682.55
434.93	698.93
435.30	714.81
435.68	732.00
436.05	749.29
436.42	765.88
436.79	782.40
437.16	799.45
437.53	817.12
437.90	835.33
438.27	853.26
438.64	870.86
439.01	888.05
439.38	900.98
439.75	915.40
440.13	932.21
440.50	948.10
440.87	961.43
441.24	974.90
441.61	989.76
441.98	1000.38
442.35	1012.00
442.72	1025.05
443.09	1038.45
443.46	1046.36
443.83	1051.33
444.20	1056.50
444.57	1062.79
444.94	1066.12
445.31	1070.05
445.68	1075.21
446.05	1076.74
446.42	1076.02
446.79	1074.71
447.16	1073.24
447.53	1073.17
447.90	1066.55
448.27	1060.05
448.64	1051.07
449.01	1044.88
449.37	1033.45
449.74	1023.17
450.11	1011.90
450.48	996.95
450.85	981.02
451.22	968.31
451.59	957.45
451.96	945.50
452.33	928.95
452.70	914.76
453.07	897.93
453.43	878.69
453.80	862.33
454.17	847.19
454.54	831.93
454.91	815.98
455.28	799.60
455.65	784.60
456.02	773.43
456.38	760.48
456.75	744.40
457.12	731.36
457.49	718.33
457.86	704.02
458.23	694.26
458.59	682.62
458.96	671.05
459.33	659.52
459.70	649.48
460.07	641.64
460.43	631.95
460.80	623.14
461.17	615.50
461.54	607.02
461.91	598.12
462.27	590.05
462.64	582.93
463.01	575.36
463.38	568.98
463.74	558.05
464.11	551.50
464.48	546.26
464.85	539.90
465.21	535.48
465.58	530.71
465.95	523.69
466.32	518.60
466.68	513.14
467.05	508.10
467.42	502.60
467.78	497.24
468.15	491.88
468.52	487.90
468.88	482.45
469.25	477.21
469.62	474.07
469.98	469.95
470.35	466.36
470.72	462.98
471.08	458.12
471.45	455.29
471.82	452.48
472.18	449.21
472.55	446.55
472.92	442.57
473.28	439.36
473.65	436.55
474.02	433.55
474.38	431.48
474.75	429.55
475.11	427.17
475.48	425.43
475.85	423.83
476.21	422.14
476.58	421.40
476.94	420.69
477.31	419.10
477.67	418.00
478.04	416.90
478.41	415.93
478.77	417.55
479.14	416.52
479.50	415.90
479.87	415.45
480.23	415.55
480.60	415.26
480.96	414.90
481.33	415.81
481.69	416.02
482.06	416.33
482.42	416.74
482.79	417.48
483.15	417.64
483.52	418.74
483.88	418.76
484.25	418.45
484.61	419.07
484.98	420.05
485.34	421.60
485.71	423.26
486.07	424.76
486.44	424.48
486.80	426.07
487.17	427.40
487.53	429.45
487.90	431.38
488.26	434.40
488.62	437.45
488.99	439.45
489.35	442.33
489.72	445.14
490.08	447.79
490.44	450.29
490.81	453.88
491.17	456.86
491.54	461.02
491.90	465.24
492.26	469.36
492.63	473.31
492.99	476.14
493.36	479.93
493.72	484.33
494.08	488.71
494.45	493.43
494.81	498.64
495.17	503.55
495.54	508.38
495.90	513.19
496.26	518.02
496.63	523.48
496.99	528.62
497.35	533.76
497.72	539.69
498.08	546.07
498.44	552.10
498.80	559.02
499.17	565.36
499.53	571.31
499.89	577.69
500.26	584.43
500.62	591.55
500.98	598.74
501.34	605.60
501.71	612.74
502.07	619.64
502.43	626.71
502.79	633.19
503.16	640.38
503.52	647.64
503.88	655.02
504.24	662.50
504.60	670.69
504.97	678.60
505.33	686.17
505.69	694.38
506.05	701.76
506.41	708.90
506.78	715.81
507.14	723.50
507.50	731.31
507.86	738.62
508.22	746.81
508.59	753.93
508.95	761.81
509.31	770.36
509.67	778.14
510.03	785.48
510.39	793.60
510.75	802.07
511.12	809.36
511.48	817.40
511.84	824.52
512.20	831.62
512.56	839.81
512.92	847.07
513.28	854.26
513.64	862.17
514.00	869.07
514.37	876.38
514.73	883.76
515.09	891.10
515.45	898.36
515.81	904.57
516.17	911.62
516.53	917.79
516.89	923.38
517.25	929.98
517.61	936.83
517.97	944.07
518.33	950.07
518.69	957.48
519.05	963.48
519.41	969.79
519.77	976.29
520.13	981.95
520.49	987.62
520.85	993.14
521.21	999.79
521.57	1006.64
521.93	1012.12
522.29	1018.12
522.65	1022.50
523.01	1028.57
523.37	1034.12
523.73	1039.90
524.09	1045.19
524.45	1050.19
524.81	1054.76
525.17	1059.48
525.53	1063.45
525.89	1067.69
526.25	1072.67
526.61	1076.36
526.97	1080.60
527.33	1085.17
527.68	1090.90
528.04	1095.69
528.40	1099.48
528.76	1103.10
529.12	1106.57
529.48	1111.50
529.84	1115.67
530.20	1120.67
530.56	1124.33
530.91	1129.31
531.27	1133.29
531.63	1137.90
531.99	1142.05
532.35	1146.36
532.71	1150.55
533.07	1154.79
533.42	1161.43
533.78	1164.31
534.14	1169.45
534.50	1173.71
534.86	1177.83
535.21	1180.95
535.57	1185.26
535.93	1189.90
536.29	1194.21
536.65	1198.48
537.00	1201.90
537.36	1205.29
537.72	1208.60
538.08	1212.71
538.44	1215.52
538.79	1219.02
539.15	1221.67
539.51	1225.60
539.87	1229.17
540.22	1232.45
540.58	1235.90
540.94	1236.86
541.29	1239.76
541.65	1242.10
542.01	1245.74
542.37	1248.12
542.72	1249.93
543.08	1252.33
543.44	1254.64
543.79	1255.60
544.15	1257.88
544.51	1261.40
544.87	1263.81
545.22	1266.33
545.58	1268.52
545.94	1270.93
546.29	1273.21
546.65	1276.19
547.01	1277.98
547.36	1280.86
547.72	1283.52
548.07	1286.40
548.43	1288.71
548.79	1290.71
549.14	1292.88
549.50	1295.50
549.86	1298.26
550.21	1301.40
550.57	1304.38
550.92	1307.26
551.28	1311.29
551.64	1313.88
551.99	1316.67
552.35	1319.64
552.70	1322.95
553.06	1326.57
553.41	1329.90
553.77	1334.67
554.13	1338.57
554.48	1343.31
554.84	1347.19
555.19	1351.07
555.55	1356.31
555.90	1360.00
556.26	1364.81
556.61	1368.67
556.97	1371.62
557.32	1375.48
557.68	1378.95
558.03	1382.55
558.39	1386.14
558.74	1389.76
559.10	1393.88
559.45	1398.07
559.81	1402.86
560.16	1406.74
560.52	1410.29
560.87	1415.81
561.23	1418.31
561.58	1423.71
561.94	1426.98
562.29	1430.90
562.64	1436.19
563.00	1439.07
563.35	1443.67
563.71	1448.50
564.06	1454.40
564.42	1459.36
564.77	1464.57
565.12	1469.95
565.48	1477.19
565.83	1483.98
566.19	1490.19
566.54	1496.17
566.89	1500.67
567.25	1506.40
567.60	1514.57
567.96	1521.69
568.31	1527.90
568.66	1535.00
569.02	1539.38
569.37	1545.29
569.72	1550.79
570.08	1555.55
570.43	1560.83
570.78	1567.21
571.14	1572.45
571.49	1576.98
571.84	1583.00
572.20	1587.98
572.55	1593.83
572.90	1596.10
573.26	1600.43
573.61	1603.83
573.96	1608.69
574.31	1613.38
574.67	1617.95
575.02	1620.31
575.37	1623.21
575.72	1625.88
576.08	1629.98
576.43	1633.62
576.78	1637.00
577.13	1641.02
577.49	1644.29
577.84	1648.02
578.19	1651.45
578.54	1655.62
578.90	1660.17
579.25	1663.55
579.60	1666.71
579.95	1668.62
580.30	1673.02
580.66	1676.24
581.01	1680.52
581.36	1683.10
581.71	1686.26
582.06	1689.98
582.42	1693.98
582.77	1697.21
583.12	1699.50
583.47	1702.07
583.82	1704.86
584.17	1708.21
584.53	1711.83
584.88	1714.93
585.23	1718.26
585.58	1720.36
585.93	1722.00
586.28	1723.67
586.63	1726.45
586.98	1729.86
587.34	1733.43
587.69	1736.98
588.04	1739.67
588.39	1742.02
588.74	1744.24
589.09	1746.74
589.44	1746.95
589.79	1747.95
590.14	1749.88
590.49	1752.14
590.84	1753.79
591.19	1756.00
591.54	1758.07
591.89	1759.10
592.25	1762.10
592.60	1763.60
592.95	1765.74
593.30	1768.14
593.65	1769.81
594.00	1769.98
594.35	1776.45
594.70	1777.12
595.05	1777.00
595.40	1777.95
595.75	1778.24
596.10	1779.12
596.45	1779.90
596.80	1781.26
597.15	1782.50
597.50	1782.48
597.85	1784.26
598.19	1784.07
598.54	1784.76
598.89	1784.90
599.24	1785.83
599.59	1785.12
599.94	1784.10
600.29	1784.19
600.64	1783.98
600.99	1783.60
601.34	1784.88
601.69	1778.40
602.04	1777.57
602.39	1777.19
602.74	1776.79
603.08	1776.43
603.43	1776.88
603.78	1777.07
604.13	1776.74
604.48	1775.29
604.83	1775.60
605.18	1775.67
605.53	1775.21
605.87	1773.43
606.22	1771.71
606.57	1769.40
606.92	1768.17
607.27	1768.26
607.62	1767.38
607.96	1767.17
608.31	1767.10
608.66	1766.24
609.01	1764.45
609.36	1764.24
609.70	1763.19
610.05	1760.62
610.40	1759.50
610.75	1757.02
611.10	1755.05
611.44	1753.10
611.79	1752.05
612.14	1748.81
612.49	1744.29
612.83	1742.02
613.18	1739.40
613.53	1737.05
613.88	1733.95
614.22	1730.14
614.57	1725.71
614.92	1721.05
615.27	1717.07
615.61	1712.86
615.96	1708.19
616.31	1705.62
616.65	1703.21
617.00	1699.71
617.35	1697.60
617.70	1693.71
618.04	1690.48
618.39	1686.02
618.74	1682.07
619.08	1678.43
619.43	1675.50
619.78	1671.93
620.12	1668.33
620.47	1665.45
620.82	1662.12
621.16	1658.67
621.51	1656.81
621.85	1653.19
622.20	1650.21
622.55	1645.60
622.89	1642.12
623.24	1638.95
623.59	1634.86
623.93	1629.88
624.28	1625.64
624.62	1622.14
624.97	1618.88
625.32	1613.60
625.66	1610.02
626.01	1605.67
626.35	1601.36
626.70	1597.62
627.04	1594.88
627.39	1590.45
627.73	1587.36
628.08	1583.19
628.43	1578.86
628.77	1573.29
629.12	1569.67
629.46	1565.79
629.81	1561.55
630.15	1555.95
630.50	1551.31
630.84	1547.12
631.19	1541.02
631.53	1535.69
631.88	1528.40
632.22	1522.64
632.57	1519.21
632.91	1513.69
633.26	1509.14
633.60	1503.40
633.95	1497.55
634.29	1491.71
634.64	1487.07
634.98	1481.21
635.32	1476.74
635.67	1473.67
636.01	1469.45
636.36	1464.21
636.70	1459.48
637.05	1454.93
637.39	1451.36
637.73	1446.74
638.08	1442.50
638.42	1439.19
638.77	1435.55
639.11	1431.90
639.45	1427.57
639.80	1421.45
640.14	1417.07
640.49	1411.55
640.83	1406.07
641.17	1402.29
641.52	1397.40
641.86	1392.29
642.20	1387.86
642.55	1381.90
642.89	1374.86
643.23	1368.98
643.58	1364.07
643.92	1357.93
644.26	1352.26
644.61	1346.88
644.95	1340.60
645.29	1333.29
645.64	1327.33
645.98	1320.98
646.32	1314.90
646.66	1307.64
647.01	1301.81
647.35	1296.74
647.69	1291.69
648.04	1286.76
648.38	1280.55
648.72	1274.93
649.06	1268.93
649.41	1261.69
649.75	1254.88
650.09	1248.55
650.43	1241.67
650.78	1234.48
651.12	1227.98
651.46	1221.12
651.80	1213.88
652.14	1207.48
652.49	1201.98
652.83	1195.00
653.17	1187.50
653.51	1180.71
653.85	1174.95
654.20	1168.83
654.54	1160.48
654.88	1152.62
655.22	1145.98
655.56	1138.38
655.90	1130.45
656.25	1123.88
656.59	1118.14
656.93	1112.29
657.27	1107.17
657.61	1100.60
657.95	1094.71
658.29	1088.45
658.64	1083.07
658.98	1076.52
659.32	1070.29
659.66	1064.21
660.00	1057.83
660.34	1051.57
660.68	1045.57
661.02	1039.10
661.36	1032.45
661.70	1026.74
662.05	1021.60
662.39	1015.43
662.73	1009.98
663.07	1005.60
663.41	999.10
663.75	992.40
664.09	986.33
664.43	979.55
664.77	973.55
665.11	967.48
665.45	961.88
665.79	955.76
666.13	949.74
666.47	943.71
666.81	937.60
667.15	931.86
667.49	927.10
667.83	922.12
668.17	916.90
668.51	911.69
668.85	906.62
669.19	901.76
669.53	895.60
669.87	889.29
670.21	882.86
670.55	877.19
670.89	872.26
671.23	867.17
671.57	862.05
671.91	857.64
672.25	852.64
672.58	847.69
672.92	841.55
673.26	837.02
673.60	831.74
673.94	826.60
674.28	821.86
674.62	816.71
674.96	810.67
675.30	805.26
675.64	800.12
675.97	794.26
676.31	787.95
676.65	783.26
676.99	779.33
677.33	774.21
677.67	769.74
678.01	764.17
678.34	758.88
678.68	754.31
679.02	748.43
679.36	742.83
679.70	737.00
680.04	732.64
680.37	727.43
680.71	722.45
681.05	717.98
681.39	713.02
681.73	708.81
682.06	704.52
682.40	700.07
682.74	695.60
683.08	692.48
683.42	688.10
683.75	683.71
684.09	678.40
684.43	673.60
684.77	668.71
685.10	664.76
685.44	660.10
685.78	655.29
686.12	651.19
686.45	646.76
686.79	642.19
687.13	637.88
687.46	633.64
687.80	630.07
688.14	625.81
688.48	621.36
688.81	616.43
689.15	612.71
689.49	608.50
689.82	604.40
690.16	598.90
690.50	594.67
690.83	590.31
691.17	585.21
691.51	581.60
691.84	577.76
692.18	573.10
692.52	569.64
692.85	565.64
693.19	562.86
693.52	559.40
693.86	555.67
694.20	552.05
694.53	548.24
694.87	543.71
695.21	539.05
695.54	535.57
695.88	531.67
696.21	526.98
696.55	522.62
696.88	518.64
697.22	515.31
697.56	512.64
697.89	508.95
698.23	506.12
698.56	502.33
698.90	499.14
699.23	495.43
699.57	491.95
699.90	488.24
700.24	483.98
700.58	480.64
700.91	477.60
701.25	475.69
701.58	472.88
701.92	470.33
702.25	467.64
702.59	464.33
702.92	461.55
703.26	458.93
703.59	456.50
703.93	455.79
704.26	453.26
704.60	449.88
704.93	447.33
705.26	444.60
705.60	442.31
705.93	438.86
706.27	436.71
706.60	434.31
706.94	432.36
707.27	429.69
707.61	427.10
707.94	424.64
708.27	420.52
708.61	417.14
708.94	414.71
709.28	412.81
709.61	410.38
709.94	408.07
710.28	405.60
710.61	402.90
710.95	398.43
711.28	397.31
711.61	395.07
711.95	393.26
712.28	390.79
712.61	388.24
712.95	387.45
713.28	386.12
713.61	383.48
713.95	381.24
714.28	379.40
714.61	377.26
714.95	375.24
715.28	373.02
715.61	371.52
715.95	369.21
716.28	366.40
716.61	365.17
716.95	363.02
717.28	361.29
717.61	359.79
717.94	357.86
718.28	354.48
718.61	352.74
718.94	350.21
719.27	348.83
719.61	347.21
719.94	344.64
720.27	341.71
720.60	339.76
720.94	337.95
721.27	336.36
721.60	335.21
721.93	333.50
722.27	332.74
722.60	331.31
722.93	329.79
723.26	328.60
723.59	326.36
723.93	325.07
724.26	323.88
724.59	322.57
724.92	321.62
725.25	321.12
725.59	319.60
725.92	318.98
726.25	317.79
726.58	316.88
726.91	315.86
727.24	315.43
727.57	314.69
727.91	312.98
728.24	311.71
728.57	310.21
728.90	309.40
729.23	307.52
729.56	307.36
729.89	306.43
730.22	305.14
730.55	304.12
730.89	303.07
731.22	302.10
731.55	300.71
731.88	299.88
732.21	298.36
732.54	297.43
732.87	296.12
733.20	295.17
733.53	293.86
733.86	292.93
734.19	291.48
734.52	290.74
734.85	291.50
735.18	290.29
735.51	290.21
735.84	289.38
736.17	289.10
736.50	287.26
736.83	288.81
737.16	288.21
737.49	288.00
737.82	287.29
738.15	286.43
738.48	285.88
738.81	284.76
739.14	283.69
739.47	282.88
739.80	281.98
740.13	281.48
740.46	280.60
740.79	279.64
741.12	279.07
741.45	277.88
741.78	276.00
742.11	276.12
742.44	274.69
742.77	274.19
743.10	273.19
743.43	272.29
743.75	269.21
744.08	271.07
744.41	269.71
744.74	268.83
745.07	267.81
745.40	267.43
745.73	267.67
746.06	267.00
746.39	266.50
746.71	265.76
747.04	264.55
747.37	263.93
747.70	263.38
748.03	262.81
748.36	262.48
748.68	261.76
749.01	260.55
749.34	259.81
749.67	259.48
750.00	259.55
750.33	260.76
750.65	260.48
750.98	257.76
751.31	257.38
751.64	257.26
751.97	258.17
752.29	257.43
752.62	255.83
752.95	255.36
753.28	254.86
753.60	254.52
753.93	254.88
754.26	254.33
754.59	253.50
754.91	252.69
755.24	252.19
755.57	251.52
755.90	250.95
756.22	250.52
756.55	249.67
756.88	248.62
757.20	246.67
757.53	245.55
757.86	244.67
758.19	244.55
758.51	243.74
758.84	241.81
759.17	241.17
759.49	241.19
759.82	241.90
760.15	241.52
760.47	241.05
760.80	240.07
761.13	240.12
761.45	239.48
761.78	239.24
762.11	238.93
762.43	238.55
762.76	238.12
763.08	238.02
763.41	237.71
763.74	237.43
764.06	237.00
764.39	237.02
764.71	236.67
765.04	236.10
765.37	235.90
765.69	235.83
766.02	235.48
766.34	234.81
766.67	233.79
767.00	234.00
767.32	234.93
767.65	235.83
767.97	235.21
768.30	235.40
768.62	235.10
768.95	234.60
769.27	234.33
769.60	234.45
769.92	233.86
770.25	233.26
770.57	232.50
770.90	232.29
771.22	231.90
771.55	232.05
771.87	231.93
772.20	231.67
772.52	233.24
772.85	235.45
773.17	235.40
773.50	234.95
773.82	234.21
774.15	233.12
774.47	231.62
774.80	231.40
775.12	231.26
775.45	231.07
775.77	230.90
776.09	230.95
776.42	230.74
776.74	231.14
777.07	230.76
777.39	231.00
777.72	230.69
778.04	230.76
778.36	230.26
778.69	230.14
779.01	230.12
779.33	228.19
779.66	225.86
779.98	225.64
780.31	225.52
780.63	226.10
780.95	225.95
781.28	225.83
781.60	225.67
781.92	225.36
782.25	225.21
782.57	225.31
782.89	224.98
783.22	224.76
783.54	224.19
783.86	224.50
784.19	224.21
784.51	224.74
784.83	224.55
785.16	224.43
