SpectraSuite Data File
++++++++++++++++++++++++++++++++++++
Date: Tue Apr 02 18:43:37 EDT 2013
User: group
Dark Spectrum Present: No
Reference Spectrum Present: No
Number of Sampled Component Spectra: 1
Spectrometers: USB2E7196
Integration Time (usec): 580000 (USB2E7196)
Spectra Averaged: 2 (USB2E7196)
Boxcar Smoothing: 10 (USB2E7196)
Correct for Electrical Dark: No (USB2E7196)
Strobe/Lamp Enabled: No (USB2E7196)
Correct for Detector Non-linearity: No (USB2E7196)
Correct for Stray Light: No (USB2E7196)
Number of Pixels in Processed Spectrum: 2048
>>>>>Begin Processed Spectral Data<<<<<
339.09	0.00
339.48	192.50
339.86	192.50
340.24	197.50
340.63	201.00
341.01	235.50
341.39	203.50
341.78	209.00
342.16	210.00
342.54	208.00
342.93	199.05
343.31	208.98
343.69	209.71
344.07	210.55
344.46	211.26
344.84	211.88
345.22	210.74
345.60	211.19
345.99	211.26
346.37	211.21
346.75	211.29
347.13	211.33
347.52	211.64
347.90	212.24
348.28	212.29
348.66	212.67
349.05	212.12
349.43	212.45
349.81	212.52
350.19	212.93
350.57	213.24
350.96	213.57
351.34	213.83
351.72	214.07
352.10	213.93
352.48	213.64
352.87	213.52
353.25	213.40
353.63	213.31
354.01	213.29
354.39	213.74
354.77	213.76
355.15	214.19
355.54	213.81
355.92	213.33
356.30	213.33
356.68	214.50
357.06	214.71
357.44	214.50
357.82	214.21
358.20	214.83
358.58	214.71
358.97	214.57
359.35	214.90
359.73	215.21
360.11	215.38
360.49	215.74
360.87	215.88
361.25	215.98
361.63	216.62
362.01	216.98
362.39	216.74
362.77	216.98
363.15	216.83
363.53	217.05
363.91	217.07
364.29	216.90
364.67	214.86
365.05	214.95
365.43	214.98
365.81	215.43
366.19	215.45
366.57	216.19
366.95	216.14
367.33	215.52
367.71	215.31
368.09	215.69
368.47	215.60
368.85	215.29
369.23	215.90
369.61	215.19
369.99	215.52
370.37	215.50
370.75	216.38
371.13	216.12
371.51	215.71
371.89	216.05
372.27	216.36
372.65	216.52
373.03	216.69
373.41	216.60
373.78	216.40
374.16	215.40
374.54	214.64
374.92	214.43
375.30	214.74
375.68	214.31
376.06	214.21
376.44	214.17
376.82	214.33
377.19	213.95
377.57	214.07
377.95	213.50
378.33	213.36
378.71	212.10
379.09	212.36
379.47	212.86
379.84	212.24
380.22	212.07
380.60	211.83
380.98	211.62
381.36	211.50
381.73	211.33
382.11	211.79
382.49	211.71
382.87	211.62
383.25	211.36
383.62	213.88
384.00	213.57
384.38	213.50
384.76	213.93
385.13	214.79
385.51	214.81
385.89	214.48
386.27	214.69
386.64	215.07
387.02	214.76
387.40	214.38
387.78	214.71
388.15	214.71
388.53	214.90
388.91	214.95
389.29	215.10
389.66	215.21
390.04	214.90
390.42	215.48
390.79	215.86
391.17	215.93
391.55	213.79
391.92	213.71
392.30	213.95
392.68	213.93
393.05	213.74
393.43	213.60
393.81	213.83
394.18	213.52
394.56	213.48
394.94	214.21
395.31	214.26
395.69	215.05
396.06	215.31
396.44	215.50
396.82	215.31
397.19	216.33
397.57	216.40
397.95	216.83
398.32	216.55
398.70	216.45
399.07	216.88
399.45	216.64
399.82	216.86
400.20	216.69
400.58	216.26
400.95	215.64
401.33	216.05
401.70	217.71
402.08	218.00
402.45	218.12
402.83	218.36
403.20	218.55
403.58	218.36
403.95	218.71
404.33	219.02
404.71	219.43
405.08	220.38
405.46	220.67
405.83	220.83
406.21	220.88
406.58	221.36
406.96	221.88
407.33	222.81
407.70	223.43
408.08	225.64
408.45	226.50
408.83	227.60
409.20	228.21
409.58	227.57
409.95	228.69
410.33	229.62
410.70	229.83
411.08	231.05
411.45	231.93
411.82	232.98
412.20	234.55
412.57	236.69
412.95	236.57
413.32	238.29
413.69	239.90
414.07	241.71
414.44	243.48
414.82	245.31
415.19	247.55
415.56	249.45
415.94	250.88
416.31	253.79
416.68	256.45
417.06	259.71
417.43	263.36
417.81	266.50
418.18	270.36
418.55	274.12
418.93	278.00
419.30	282.02
419.67	286.38
420.04	290.57
420.42	294.88
420.79	302.02
421.16	307.69
421.54	314.62
421.91	320.52
422.28	326.64
422.66	333.10
423.03	340.74
423.40	347.88
423.77	354.69
424.15	361.71
424.52	369.19
424.89	377.60
425.26	385.17
425.64	392.74
426.01	400.62
426.38	409.50
426.75	419.29
427.13	428.86
427.50	438.14
427.87	448.21
428.24	458.14
428.61	466.17
428.99	477.29
429.36	487.52
429.73	498.81
430.10	510.05
430.47	522.02
430.85	532.50
431.22	545.24
431.59	560.29
431.96	572.69
432.33	586.64
432.70	600.12
433.08	616.60
433.45	631.81
433.82	647.00
434.19	663.86
434.56	680.29
434.93	695.98
435.30	711.90
435.68	729.36
436.05	746.67
436.42	763.55
436.79	779.48
437.16	796.81
437.53	815.14
437.90	832.64
438.27	850.55
438.64	868.74
439.01	886.36
439.38	899.00
439.75	915.00
440.13	931.95
440.50	947.29
440.87	960.62
441.24	974.71
441.61	989.45
441.98	1000.33
442.35	1012.21
442.72	1024.95
443.09	1038.62
443.46	1046.38
443.83	1051.55
444.20	1056.43
444.57	1062.24
444.94	1065.69
445.31	1069.29
445.68	1075.48
446.05	1076.57
446.42	1075.90
446.79	1074.21
447.16	1073.26
447.53	1071.40
447.90	1065.48
448.27	1058.98
448.64	1049.79
449.01	1043.38
449.37	1032.38
449.74	1021.55
450.11	1010.43
450.48	995.69
450.85	979.74
451.22	966.83
451.59	955.05
451.96	943.52
452.33	928.31
452.70	913.43
453.07	896.50
453.43	876.88
453.80	860.40
454.17	844.29
454.54	828.69
454.91	812.48
455.28	796.67
455.65	781.86
456.02	771.07
456.38	758.29
456.75	742.55
457.12	729.17
457.49	716.48
457.86	702.17
458.23	692.50
458.59	681.12
458.96	669.17
459.33	658.05
459.70	647.79
460.07	639.40
460.43	630.48
460.80	621.62
461.17	614.45
461.54	606.02
461.91	597.81
462.27	589.67
462.64	582.55
463.01	574.93
463.38	568.10
463.74	557.36
464.11	550.74
464.48	545.17
464.85	538.93
465.21	534.50
465.58	529.33
465.95	522.76
466.32	517.86
466.68	513.02
467.05	508.60
467.42	503.71
467.78	498.10
468.15	492.50
468.52	488.57
468.88	482.57
469.25	477.76
469.62	474.40
469.98	470.45
470.35	467.17
470.72	463.74
471.08	458.95
471.45	456.17
471.82	452.90
472.18	449.21
472.55	446.88
472.92	442.95
473.28	440.14
473.65	437.17
474.02	434.00
474.38	431.81
474.75	429.64
475.11	427.19
475.48	425.79
475.85	424.45
476.21	422.88
476.58	422.14
476.94	421.19
477.31	419.88
477.67	418.86
478.04	417.90
478.41	417.19
478.77	418.69
479.14	417.60
479.50	417.10
479.87	416.81
480.23	416.07
480.60	415.90
480.96	415.98
481.33	416.88
481.69	416.95
482.06	417.29
482.42	417.31
482.79	417.69
483.15	417.90
483.52	418.95
483.88	419.12
484.25	419.74
484.61	420.57
484.98	421.45
485.34	423.00
485.71	424.24
486.07	425.57
486.44	425.31
486.80	426.76
487.17	427.88
487.53	430.24
487.90	432.83
488.26	435.62
488.62	438.21
488.99	439.69
489.35	442.36
489.72	444.81
490.08	448.12
490.44	450.76
490.81	454.24
491.17	457.24
491.54	460.67
491.90	464.17
492.26	467.64
492.63	471.38
492.99	474.50
493.36	478.50
493.72	482.69
494.08	486.95
494.45	492.02
494.81	497.26
495.17	501.67
495.54	507.10
495.90	511.64
496.26	516.62
496.63	522.24
496.99	527.43
497.35	533.43
497.72	539.26
498.08	544.76
498.44	550.69
498.80	557.07
499.17	562.95
499.53	569.10
499.89	576.12
500.26	582.86
500.62	590.05
500.98	597.31
501.34	604.24
501.71	611.45
502.07	618.48
502.43	625.24
502.79	631.71
503.16	638.31
503.52	645.71
503.88	652.55
504.24	660.00
504.60	668.48
504.97	675.86
505.33	682.93
505.69	691.79
506.05	699.17
506.41	706.31
506.78	714.43
507.14	721.98
507.50	729.67
507.86	737.12
508.22	744.69
508.59	751.71
508.95	759.71
509.31	768.83
509.67	776.50
510.03	784.10
510.39	792.31
510.75	799.95
511.12	807.79
511.48	815.83
511.84	823.64
512.20	831.02
512.56	838.93
512.92	846.93
513.28	854.00
513.64	861.69
514.00	869.40
514.37	876.76
514.73	884.45
515.09	892.05
515.45	899.14
515.81	905.36
516.17	912.81
516.53	919.31
516.89	923.95
517.25	930.05
517.61	938.00
517.97	944.55
518.33	951.40
518.69	958.05
519.05	964.64
519.41	970.79
519.77	977.88
520.13	983.62
520.49	988.95
520.85	994.74
521.21	1001.52
521.57	1007.19
521.93	1012.50
522.29	1018.00
522.65	1022.74
523.01	1028.43
523.37	1034.12
523.73	1038.98
524.09	1043.45
524.45	1048.93
524.81	1053.83
525.17	1058.50
525.53	1063.24
525.89	1067.31
526.25	1072.24
526.61	1076.67
526.97	1080.62
527.33	1084.33
527.68	1090.55
528.04	1095.83
528.40	1100.38
528.76	1103.90
529.12	1108.40
529.48	1113.14
529.84	1117.10
530.20	1121.38
530.56	1126.21
530.91	1130.90
531.27	1134.98
531.63	1140.12
531.99	1144.24
532.35	1148.86
532.71	1152.38
533.07	1157.29
533.42	1164.57
533.78	1168.10
534.14	1172.12
534.50	1176.45
534.86	1180.86
535.21	1182.86
535.57	1187.24
535.93	1190.45
536.29	1195.07
536.65	1199.10
537.00	1202.57
537.36	1206.36
537.72	1209.83
538.08	1213.14
538.44	1215.79
538.79	1220.00
539.15	1222.55
539.51	1225.67
539.87	1228.57
540.22	1232.38
540.58	1234.79
540.94	1235.21
541.29	1238.24
541.65	1241.29
542.01	1245.14
542.37	1247.76
542.72	1250.12
543.08	1251.40
543.44	1254.93
543.79	1256.33
544.15	1258.50
544.51	1261.93
544.87	1264.88
545.22	1268.24
545.58	1270.36
545.94	1273.33
546.29	1275.45
546.65	1278.10
547.01	1280.55
547.36	1283.10
547.72	1284.79
548.07	1288.33
548.43	1290.57
548.79	1292.67
549.14	1294.12
549.50	1296.69
549.86	1298.24
550.21	1301.19
550.57	1304.38
550.92	1306.90
551.28	1310.45
551.64	1313.67
551.99	1315.52
552.35	1318.31
552.70	1320.52
553.06	1323.52
553.41	1327.48
553.77	1331.98
554.13	1336.07
554.48	1341.21
554.84	1345.69
555.19	1349.79
555.55	1354.24
555.90	1357.71
556.26	1363.05
556.61	1367.64
556.97	1370.40
557.32	1374.64
557.68	1378.64
558.03	1382.86
558.39	1386.33
558.74	1389.60
559.10	1392.90
559.45	1397.50
559.81	1401.60
560.16	1406.69
560.52	1411.05
560.87	1415.33
561.23	1417.74
561.58	1423.64
561.94	1426.93
562.29	1430.43
562.64	1435.81
563.00	1438.71
563.35	1444.43
563.71	1448.31
564.06	1454.00
564.42	1458.76
564.77	1463.98
565.12	1469.48
565.48	1476.17
565.83	1482.76
566.19	1488.74
566.54	1495.10
566.89	1500.10
567.25	1506.71
567.60	1513.29
567.96	1520.76
568.31	1527.02
568.66	1533.98
569.02	1537.14
569.37	1542.95
569.72	1549.36
570.08	1554.12
570.43	1560.43
570.78	1565.40
571.14	1571.67
571.49	1576.10
571.84	1582.12
572.20	1587.00
572.55	1592.19
572.90	1595.43
573.26	1599.69
573.61	1604.00
573.96	1608.88
574.31	1614.71
574.67	1617.60
575.02	1620.50
575.37	1622.48
575.72	1625.67
576.08	1629.67
576.43	1634.45
576.78	1637.40
577.13	1640.55
577.49	1644.60
577.84	1649.24
578.19	1652.76
578.54	1655.19
578.90	1659.90
579.25	1662.67
579.60	1665.86
579.95	1667.93
580.30	1671.38
580.66	1674.88
581.01	1678.45
581.36	1681.07
581.71	1684.26
582.06	1689.36
582.42	1693.55
582.77	1696.69
583.12	1700.60
583.47	1704.17
583.82	1706.95
584.17	1710.95
584.53	1714.74
584.88	1717.17
585.23	1719.55
585.58	1723.17
585.93	1726.31
586.28	1728.40
586.63	1732.12
586.98	1735.29
587.34	1740.05
587.69	1742.24
588.04	1744.50
588.39	1746.71
588.74	1747.50
589.09	1750.38
589.44	1750.90
589.79	1752.83
590.14	1755.43
590.49	1755.98
590.84	1756.71
591.19	1759.50
591.54	1760.31
591.89	1760.98
592.25	1763.93
592.60	1764.36
592.95	1765.38
593.30	1767.07
593.65	1768.17
594.00	1768.31
594.35	1775.17
594.70	1775.24
595.05	1777.14
595.40	1777.36
595.75	1778.26
596.10	1780.36
596.45	1779.98
596.80	1781.31
597.15	1781.45
597.50	1782.00
597.85	1783.33
598.19	1783.17
598.54	1782.69
598.89	1782.93
599.24	1784.21
599.59	1782.95
599.94	1783.45
600.29	1783.40
600.64	1783.52
600.99	1784.02
601.34	1785.36
601.69	1779.67
602.04	1778.79
602.39	1777.95
602.74	1779.29
603.08	1778.71
603.43	1779.00
603.78	1778.48
604.13	1778.74
604.48	1777.60
604.83	1777.24
605.18	1778.07
605.53	1778.40
605.87	1777.24
606.22	1777.12
606.57	1775.21
606.92	1773.93
607.27	1772.93
607.62	1772.43
607.96	1771.90
608.31	1770.98
608.66	1768.74
609.01	1767.07
609.36	1766.69
609.70	1765.52
610.05	1761.93
610.40	1760.21
610.75	1758.00
611.10	1755.86
611.44	1752.24
611.79	1749.86
612.14	1747.14
612.49	1742.64
612.83	1738.86
613.18	1736.36
613.53	1733.12
613.88	1729.69
614.22	1727.38
614.57	1722.95
614.92	1718.71
615.27	1714.90
615.61	1709.64
615.96	1707.05
616.31	1703.88
616.65	1700.10
617.00	1696.64
617.35	1693.98
617.70	1690.33
618.04	1686.60
618.39	1682.33
618.74	1679.36
619.08	1676.45
619.43	1672.76
619.78	1670.26
620.12	1668.26
620.47	1664.26
620.82	1659.71
621.16	1655.88
621.51	1652.74
621.85	1649.62
622.20	1645.88
622.55	1641.07
622.89	1638.29
623.24	1633.21
623.59	1629.38
623.93	1624.71
624.28	1621.24
624.62	1619.07
624.97	1616.29
625.32	1611.79
625.66	1608.07
626.01	1603.52
626.35	1599.36
626.70	1595.40
627.04	1591.24
627.39	1586.31
627.73	1582.60
628.08	1579.60
628.43	1576.69
628.77	1571.88
629.12	1568.24
629.46	1565.12
629.81	1561.33
630.15	1556.88
630.50	1552.81
630.84	1547.36
631.19	1543.14
631.53	1537.55
631.88	1530.10
632.22	1523.45
632.57	1519.79
632.91	1515.02
633.26	1510.64
633.60	1505.55
633.95	1499.90
634.29	1494.40
634.64	1490.10
634.98	1485.38
635.32	1480.71
635.67	1476.57
636.01	1471.95
636.36	1466.40
636.70	1461.43
637.05	1456.00
637.39	1451.07
637.73	1446.48
638.08	1442.86
638.42	1438.62
638.77	1434.64
639.11	1431.24
639.45	1427.62
639.80	1421.62
640.14	1417.00
640.49	1411.36
640.83	1405.60
641.17	1401.33
641.52	1396.07
641.86	1389.88
642.20	1386.24
642.55	1380.40
642.89	1373.79
643.23	1367.52
643.58	1363.48
643.92	1357.14
644.26	1351.33
644.61	1345.76
644.95	1339.93
645.29	1333.50
645.64	1327.76
645.98	1321.64
646.32	1315.88
646.66	1309.00
647.01	1302.67
647.35	1295.83
647.69	1289.90
648.04	1284.83
648.38	1278.67
648.72	1272.81
649.06	1267.26
649.41	1258.64
649.75	1252.43
650.09	1246.64
650.43	1241.36
650.78	1233.48
651.12	1226.81
651.46	1220.57
651.80	1214.38
652.14	1208.12
652.49	1201.60
652.83	1194.55
653.17	1187.43
653.51	1180.19
653.85	1174.14
654.20	1168.36
654.54	1162.31
654.88	1155.83
655.22	1149.10
655.56	1142.21
655.90	1135.05
656.25	1128.31
656.59	1123.17
656.93	1116.83
657.27	1111.00
657.61	1103.90
657.95	1098.67
658.29	1092.43
658.64	1086.71
658.98	1079.36
659.32	1072.45
659.66	1066.86
660.00	1060.24
660.34	1054.31
660.68	1048.60
661.02	1042.33
661.36	1035.64
661.70	1029.00
662.05	1023.57
662.39	1017.98
662.73	1012.74
663.07	1008.40
663.41	1002.62
663.75	996.05
664.09	990.07
664.43	983.10
664.77	976.95
665.11	969.81
665.45	964.17
665.79	957.60
666.13	952.12
666.47	946.67
666.81	940.43
667.15	934.76
667.49	929.83
667.83	924.17
668.17	918.45
668.51	913.02
668.85	907.88
669.19	902.50
669.53	895.93
669.87	890.02
670.21	883.17
670.55	877.48
670.89	873.00
671.23	867.95
671.57	863.29
671.91	857.45
672.25	852.17
672.58	847.60
672.92	842.12
673.26	836.57
673.60	831.29
673.94	826.19
674.28	821.19
674.62	815.43
674.96	810.12
675.30	804.93
675.64	800.02
675.97	794.88
676.31	789.36
676.65	784.31
676.99	779.74
677.33	774.86
677.67	770.19
678.01	764.40
678.34	759.19
678.68	753.57
679.02	748.81
679.36	744.10
679.70	738.40
680.04	733.64
680.37	728.52
680.71	723.64
681.05	718.64
681.39	714.17
681.73	709.24
682.06	704.38
682.40	700.10
682.74	695.79
683.08	692.10
683.42	687.26
683.75	683.31
684.09	677.90
684.43	673.40
684.77	668.45
685.10	663.74
685.44	659.33
685.78	654.93
686.12	650.69
686.45	646.43
686.79	642.12
687.13	638.26
687.46	634.83
687.80	631.17
688.14	627.36
688.48	623.45
688.81	618.98
689.15	615.29
689.49	610.55
689.82	605.88
690.16	600.52
690.50	596.43
690.83	592.02
691.17	587.55
691.51	583.02
691.84	579.00
692.18	574.55
692.52	570.55
692.85	566.98
693.19	563.98
693.52	560.21
693.86	556.17
694.20	552.74
694.53	548.67
694.87	544.45
695.21	539.95
695.54	535.64
695.88	531.40
696.21	526.88
696.55	523.02
696.88	519.95
697.22	516.64
697.56	513.62
697.89	509.67
698.23	506.79
698.56	503.50
698.90	500.10
699.23	497.00
699.57	493.69
699.90	489.79
700.24	485.76
700.58	482.17
700.91	479.21
701.25	477.43
701.58	475.45
701.92	472.52
702.25	469.79
702.59	466.62
702.92	464.00
703.26	461.00
703.59	458.62
703.93	457.21
704.26	454.55
704.60	451.10
704.93	448.26
705.26	445.21
705.60	442.64
705.93	439.69
706.27	437.48
706.60	435.12
706.94	433.69
707.27	430.62
707.61	428.33
707.94	425.12
708.27	420.67
708.61	416.83
708.94	414.14
709.28	411.90
709.61	409.48
709.94	407.26
710.28	405.19
710.61	402.90
710.95	398.71
711.28	397.74
711.61	395.60
711.95	394.17
712.28	392.07
712.61	389.69
712.95	388.67
713.28	387.38
713.61	384.67
713.95	382.02
714.28	380.60
714.61	378.17
714.95	376.36
715.28	374.14
715.61	372.43
715.95	370.64
716.28	368.45
716.61	367.00
716.95	364.98
717.28	363.12
717.61	360.71
717.94	358.90
718.28	355.69
718.61	353.98
718.94	351.93
719.27	350.21
719.61	348.55
719.94	346.19
720.27	343.24
720.60	341.62
720.94	339.86
721.27	338.05
721.60	337.26
721.93	335.86
722.27	335.26
722.60	333.93
722.93	332.40
723.26	331.21
723.59	329.26
723.93	328.02
724.26	326.52
724.59	325.21
724.92	323.90
725.25	323.12
725.59	321.71
725.92	320.38
726.25	319.07
726.58	317.81
726.91	316.64
727.24	316.05
727.57	314.98
727.91	313.29
728.24	312.12
728.57	310.38
728.90	309.36
729.23	307.43
729.56	307.40
729.89	306.17
730.22	304.64
730.55	303.62
730.89	302.29
731.22	301.07
731.55	300.21
731.88	299.52
732.21	298.17
732.54	297.02
732.87	295.79
733.20	295.00
733.53	294.21
733.86	293.40
734.19	291.86
734.52	290.93
734.85	291.79
735.18	290.88
735.51	290.64
735.84	289.98
736.17	289.86
736.50	287.76
736.83	288.98
737.16	288.10
737.49	287.60
737.82	286.86
738.15	286.45
738.48	285.79
738.81	284.67
739.14	283.76
739.47	282.81
739.80	282.17
740.13	281.71
740.46	280.69
740.79	279.36
741.12	278.71
741.45	277.71
741.78	275.76
742.11	275.55
742.44	274.36
742.77	273.79
743.10	272.48
743.43	271.67
743.75	268.86
744.08	271.14
744.41	270.21
744.74	269.31
745.07	268.17
745.40	267.90
745.73	268.02
746.06	267.26
746.39	267.02
746.71	266.12
747.04	264.71
747.37	264.12
747.70	263.90
748.03	263.07
748.36	263.05
748.68	262.57
749.01	261.31
749.34	260.79
749.67	260.02
750.00	259.83
750.33	260.76
750.65	260.38
750.98	257.14
751.31	256.64
751.64	256.36
751.97	257.26
752.29	256.24
752.62	254.98
752.95	254.33
753.28	253.60
753.60	253.14
753.93	253.55
754.26	253.19
754.59	252.40
754.91	251.86
755.24	251.17
755.57	250.40
755.90	249.98
756.22	249.12
756.55	248.50
756.88	247.60
757.20	245.74
757.53	245.02
757.86	244.55
758.19	244.29
758.51	243.76
758.84	242.07
759.17	241.60
759.49	241.21
759.82	241.83
760.15	241.64
760.47	241.12
760.80	240.26
761.13	240.12
761.45	239.40
761.78	239.05
762.11	238.43
762.43	238.10
762.76	237.50
763.08	237.71
763.41	237.43
763.74	237.07
764.06	236.74
764.39	236.55
764.71	236.07
765.04	235.45
765.37	235.19
765.69	234.79
766.02	234.40
766.34	233.95
766.67	232.95
767.00	232.93
767.32	234.10
767.65	235.02
767.97	234.40
768.30	234.52
768.62	234.33
768.95	233.98
769.27	233.55
769.60	233.81
769.92	233.26
770.25	232.69
770.57	232.17
770.90	232.00
771.22	231.52
771.55	231.60
771.87	231.64
772.20	231.38
772.52	232.93
772.85	235.12
773.17	235.33
773.50	235.12
773.82	234.55
774.15	233.40
774.47	231.71
774.80	231.50
775.12	231.21
775.45	231.00
775.77	230.86
776.09	230.88
776.42	230.69
776.74	231.00
777.07	230.93
777.39	231.24
777.72	230.86
778.04	230.83
778.36	230.45
778.69	230.33
779.01	230.21
779.33	228.33
779.66	226.05
779.98	225.45
780.31	225.38
780.63	226.21
780.95	226.50
781.28	226.60
781.60	226.31
781.92	226.21
782.25	226.24
782.57	226.36
782.89	226.19
783.22	226.10
783.54	225.86
783.86	225.67
784.19	225.19
784.51	225.55
784.83	225.38
785.16	225.19
