SpectraSuite Data File
++++++++++++++++++++++++++++++++++++
Date: Tue Apr 02 18:37:49 EDT 2013
User: group
Dark Spectrum Present: No
Reference Spectrum Present: No
Number of Sampled Component Spectra: 1
Spectrometers: USB2E7196
Integration Time (usec): 580000 (USB2E7196)
Spectra Averaged: 2 (USB2E7196)
Boxcar Smoothing: 10 (USB2E7196)
Correct for Electrical Dark: No (USB2E7196)
Strobe/Lamp Enabled: No (USB2E7196)
Correct for Detector Non-linearity: No (USB2E7196)
Correct for Stray Light: No (USB2E7196)
Number of Pixels in Processed Spectrum: 2048
>>>>>Begin Processed Spectral Data<<<<<
339.09	0.00
339.48	193.00
339.86	195.00
340.24	197.50
340.63	197.50
341.01	234.00
341.39	200.00
341.78	205.50
342.16	207.00
342.54	202.00
342.93	196.43
343.31	205.88
343.69	206.48
344.07	206.76
344.46	207.40
344.84	207.95
345.22	206.69
345.60	207.21
345.99	207.26
346.37	207.33
346.75	207.62
347.13	207.88
347.52	208.17
347.90	208.69
348.28	208.83
348.66	209.52
349.05	209.00
349.43	209.60
349.81	209.86
350.19	209.88
350.57	210.07
350.96	210.45
351.34	211.10
351.72	211.17
352.10	211.62
352.48	211.45
352.87	211.38
353.25	211.50
353.63	211.36
354.01	211.43
354.39	211.71
354.77	211.69
355.15	212.07
355.54	212.00
355.92	211.38
356.30	211.31
356.68	212.48
357.06	212.62
357.44	212.07
357.82	212.02
358.20	213.14
358.58	212.90
358.97	213.02
359.35	213.45
359.73	213.86
360.11	213.81
360.49	213.98
360.87	214.12
361.25	214.26
361.63	215.07
362.01	215.14
362.39	215.10
362.77	215.14
363.15	215.31
363.53	215.14
363.91	215.55
364.29	215.48
364.67	213.64
365.05	213.83
365.43	214.24
365.81	214.83
366.19	214.93
366.57	216.00
366.95	215.71
367.33	215.10
367.71	215.12
368.09	215.38
368.47	215.48
368.85	215.64
369.23	216.21
369.61	215.29
369.99	216.19
370.37	216.21
370.75	217.52
371.13	217.02
371.51	216.86
371.89	217.02
372.27	217.36
372.65	217.93
373.03	217.67
373.41	217.60
373.78	217.17
374.16	216.02
374.54	215.43
374.92	215.43
375.30	215.76
375.68	215.50
376.06	215.62
376.44	215.50
376.82	215.50
377.19	215.40
377.57	215.71
377.95	215.07
378.33	214.90
378.71	213.74
379.09	214.00
379.47	214.31
379.84	213.86
380.22	213.45
380.60	212.62
380.98	212.81
381.36	212.69
381.73	212.45
382.11	212.93
382.49	213.07
382.87	213.00
383.25	212.64
383.62	214.98
384.00	214.76
384.38	214.86
384.76	215.38
385.13	216.10
385.51	215.88
385.89	215.52
386.27	215.86
386.64	216.17
387.02	216.00
387.40	215.83
387.78	216.07
388.15	216.43
388.53	216.60
388.91	216.36
389.29	216.52
389.66	216.93
390.04	216.79
390.42	216.90
390.79	217.00
391.17	217.17
391.55	215.00
391.92	214.69
392.30	214.86
392.68	214.17
393.05	214.00
393.43	214.14
393.81	214.19
394.18	213.79
394.56	213.83
394.94	214.29
395.31	214.12
395.69	214.55
396.06	214.86
396.44	214.95
396.82	214.83
397.19	215.67
397.57	215.50
397.95	215.86
398.32	215.26
398.70	215.33
399.07	215.76
399.45	215.71
399.82	216.02
400.20	215.79
400.58	215.83
400.95	214.83
401.33	215.40
401.70	216.98
402.08	217.12
402.45	217.02
402.83	217.36
403.20	217.69
403.58	217.69
403.95	218.12
404.33	218.76
404.71	219.43
405.08	220.76
405.46	221.07
405.83	221.14
406.21	221.60
406.58	222.02
406.96	222.36
407.33	223.00
407.70	223.67
408.08	226.10
408.45	227.05
408.83	228.50
409.20	228.88
409.58	228.60
409.95	229.88
410.33	231.14
410.70	231.74
411.08	233.02
411.45	234.50
411.82	235.26
412.20	236.86
412.57	239.29
412.95	239.14
413.32	241.12
413.69	242.98
414.07	245.10
414.44	247.36
414.82	249.71
415.19	252.48
415.56	254.98
415.94	256.48
416.31	260.07
416.68	263.07
417.06	267.26
417.43	271.52
417.81	275.29
418.18	279.40
418.55	283.98
418.93	288.55
419.30	293.17
419.67	298.69
420.04	303.90
420.42	309.05
420.79	317.05
421.16	323.64
421.54	331.74
421.91	338.90
422.28	346.19
422.66	353.76
423.03	362.86
423.40	370.93
423.77	379.40
424.15	387.45
424.52	396.33
424.89	406.07
425.26	414.79
425.64	423.74
426.01	433.52
426.38	443.69
426.75	454.81
427.13	465.62
427.50	477.10
427.87	488.60
428.24	500.57
428.61	510.79
428.99	523.76
429.36	536.31
429.73	549.36
430.10	562.81
430.47	576.52
430.85	589.93
431.22	604.93
431.59	622.10
431.96	637.57
432.33	654.45
432.70	670.52
433.08	689.57
433.45	708.14
433.82	726.48
434.19	746.62
434.56	766.43
434.93	785.60
435.30	804.21
435.68	825.69
436.05	846.21
436.42	867.02
436.79	886.71
437.16	906.98
437.53	928.76
437.90	950.40
438.27	972.07
438.64	993.62
439.01	1014.45
439.38	1031.45
439.75	1049.88
440.13	1070.10
440.50	1088.93
440.87	1105.02
441.24	1122.14
441.61	1139.43
441.98	1153.26
442.35	1168.55
442.72	1183.81
443.09	1200.17
443.46	1209.74
443.83	1216.81
444.20	1223.19
444.57	1230.55
444.94	1234.81
445.31	1239.71
445.68	1246.00
446.05	1248.57
446.42	1247.12
446.79	1246.17
447.16	1243.95
447.53	1242.12
447.90	1234.90
448.27	1227.86
448.64	1217.76
449.01	1209.17
449.37	1196.29
449.74	1182.88
450.11	1168.81
450.48	1151.50
450.85	1132.93
451.22	1117.38
451.59	1103.19
451.96	1088.69
452.33	1070.12
452.70	1053.90
453.07	1033.26
453.43	1010.40
453.80	989.98
454.17	970.86
454.54	952.24
454.91	933.21
455.28	914.31
455.65	896.71
456.02	882.05
456.38	866.76
456.75	848.90
457.12	833.69
457.49	818.24
457.86	801.74
458.23	790.31
458.59	776.36
458.96	762.14
459.33	749.02
459.70	736.43
460.07	726.62
460.43	714.76
460.80	704.57
461.17	695.43
461.54	685.67
461.91	676.17
462.27	666.38
462.64	658.31
463.01	649.62
463.38	641.64
463.74	629.83
464.11	621.86
464.48	614.57
464.85	607.02
465.21	601.98
465.58	596.19
465.95	588.00
466.32	582.10
466.68	576.00
467.05	570.45
467.42	564.50
467.78	558.21
468.15	552.40
468.52	547.64
468.88	541.52
469.25	536.00
469.62	532.29
469.98	527.50
470.35	523.40
470.72	518.86
471.08	513.38
471.45	509.69
471.82	506.55
472.18	502.83
472.55	499.48
472.92	495.26
473.28	491.74
473.65	488.52
474.02	485.29
474.38	483.12
474.75	480.55
475.11	477.88
475.48	475.50
475.85	473.33
476.21	470.95
476.58	469.52
476.94	468.45
477.31	466.45
477.67	464.86
478.04	463.07
478.41	462.52
478.77	464.31
479.14	463.36
479.50	462.69
479.87	462.40
480.23	462.21
480.60	462.00
480.96	461.74
481.33	462.74
481.69	463.10
482.06	463.36
482.42	463.71
482.79	464.48
483.15	465.21
483.52	466.64
483.88	467.69
484.25	468.71
484.61	470.05
484.98	471.12
485.34	473.60
485.71	475.98
486.07	477.81
486.44	477.71
486.80	480.07
487.17	482.19
487.53	485.24
487.90	488.02
488.26	491.86
488.62	495.10
488.99	497.52
489.35	501.21
489.72	504.69
490.08	508.50
490.44	511.88
490.81	516.33
491.17	520.14
491.54	525.10
491.90	530.05
492.26	534.64
492.63	539.88
492.99	544.62
493.36	549.98
493.72	555.98
494.08	561.62
494.45	568.05
494.81	574.33
495.17	580.62
495.54	587.07
495.90	593.12
496.26	600.19
496.63	607.38
496.99	614.00
497.35	621.62
497.72	629.62
498.08	637.93
498.44	645.79
498.80	654.43
499.17	662.19
499.53	669.93
499.89	679.05
500.26	687.74
500.62	696.31
500.98	705.33
501.34	714.19
501.71	723.83
502.07	733.17
502.43	742.24
502.79	750.93
503.16	760.88
503.52	769.88
503.88	778.98
504.24	789.05
504.60	799.43
504.97	810.19
505.33	819.60
505.69	830.48
506.05	840.60
506.41	850.07
506.78	860.55
507.14	871.26
507.50	881.38
507.86	892.26
508.22	903.10
508.59	912.90
508.95	923.26
509.31	933.93
509.67	943.71
510.03	953.74
510.39	963.79
510.75	973.36
511.12	983.69
511.48	994.36
511.84	1004.38
512.20	1014.98
512.56	1024.76
512.92	1035.17
513.28	1044.60
513.64	1054.31
514.00	1063.88
514.37	1073.43
514.73	1082.29
515.09	1091.31
515.45	1099.50
515.81	1108.12
516.17	1116.83
516.53	1124.67
516.89	1132.62
517.25	1141.60
517.61	1150.93
517.97	1160.07
518.33	1168.19
518.69	1177.00
519.05	1185.12
519.41	1193.76
519.77	1201.79
520.13	1208.07
520.49	1214.86
520.85	1221.98
521.21	1229.90
521.57	1237.19
521.93	1243.52
522.29	1251.10
522.65	1257.93
523.01	1265.24
523.37	1271.33
523.73	1278.62
524.09	1285.33
524.45	1291.10
524.81	1295.98
525.17	1301.24
525.53	1306.19
525.89	1312.38
526.25	1317.69
526.61	1322.02
526.97	1326.05
527.33	1330.26
527.68	1337.50
528.04	1341.33
528.40	1345.40
528.76	1348.76
529.12	1353.57
529.48	1359.14
529.84	1362.40
530.20	1366.62
530.56	1370.07
530.91	1374.07
531.27	1376.98
531.63	1380.67
531.99	1384.26
532.35	1387.95
532.71	1391.29
533.07	1395.52
533.42	1400.36
533.78	1403.45
534.14	1407.10
534.50	1410.64
534.86	1414.26
535.21	1415.29
535.57	1418.95
535.93	1420.98
536.29	1424.24
536.65	1426.86
537.00	1428.05
537.36	1430.07
537.72	1432.02
538.08	1434.17
538.44	1436.26
538.79	1439.43
539.15	1440.74
539.51	1442.90
539.87	1445.52
540.22	1447.40
540.58	1448.76
540.94	1449.45
541.29	1450.71
541.65	1451.52
542.01	1452.55
542.37	1452.81
542.72	1453.38
543.08	1452.90
543.44	1454.64
543.79	1454.36
544.15	1455.00
544.51	1455.60
544.87	1457.00
545.22	1457.43
545.58	1457.29
545.94	1457.00
546.29	1455.74
546.65	1454.95
547.01	1454.17
547.36	1452.98
547.72	1452.07
548.07	1450.83
548.43	1448.12
548.79	1446.07
549.14	1444.64
549.50	1442.74
549.86	1440.00
550.21	1438.00
550.57	1438.38
550.92	1436.38
551.28	1435.55
551.64	1433.64
551.99	1432.29
552.35	1429.83
552.70	1427.40
553.06	1426.79
553.41	1425.79
553.77	1425.31
554.13	1425.07
554.48	1423.79
554.84	1423.10
555.19	1421.52
555.55	1422.05
555.90	1421.05
556.26	1420.19
556.61	1417.98
556.97	1416.02
557.32	1416.24
557.68	1415.07
558.03	1413.43
558.39	1411.40
558.74	1409.45
559.10	1407.19
559.45	1405.86
559.81	1404.64
560.16	1402.67
560.52	1400.21
560.87	1398.86
561.23	1395.95
561.58	1395.48
561.94	1393.79
562.29	1391.26
562.64	1389.64
563.00	1386.05
563.35	1384.26
563.71	1383.31
564.06	1383.07
564.42	1382.31
564.77	1380.48
565.12	1380.57
565.48	1380.17
565.83	1379.88
566.19	1379.00
566.54	1378.02
566.89	1376.24
567.25	1376.00
567.60	1377.12
567.96	1378.38
568.31	1378.05
568.66	1377.86
569.02	1374.31
569.37	1372.83
569.72	1371.38
570.08	1370.21
570.43	1367.79
570.78	1365.95
571.14	1363.57
571.49	1360.98
571.84	1359.24
572.20	1356.33
572.55	1353.43
572.90	1349.10
573.26	1345.98
573.61	1342.69
573.96	1340.12
574.31	1337.21
574.67	1333.19
575.02	1329.26
575.37	1323.88
575.72	1319.36
576.08	1315.33
576.43	1312.93
576.78	1309.12
577.13	1305.31
577.49	1301.62
577.84	1298.93
578.19	1295.45
578.54	1291.71
578.90	1288.98
579.25	1284.93
579.60	1281.45
579.95	1276.79
580.30	1273.45
580.66	1270.14
581.01	1266.17
581.36	1261.79
581.71	1259.31
582.06	1256.88
582.42	1252.88
582.77	1247.98
583.12	1243.83
583.47	1239.45
583.82	1235.02
584.17	1230.74
584.53	1228.14
584.88	1224.21
585.23	1220.36
585.58	1216.07
585.93	1211.48
586.28	1207.21
586.63	1203.60
586.98	1199.86
587.34	1196.74
587.69	1192.55
588.04	1188.00
588.39	1183.79
588.74	1179.36
589.09	1173.62
589.44	1167.00
589.79	1162.88
590.14	1158.69
590.49	1154.17
590.84	1150.12
591.19	1145.55
591.54	1141.64
591.89	1136.67
592.25	1133.71
592.60	1128.83
592.95	1125.21
593.30	1121.26
593.65	1116.02
594.00	1110.98
594.35	1111.71
594.70	1106.10
595.05	1102.17
595.40	1097.14
595.75	1093.19
596.10	1089.38
596.45	1085.29
596.80	1081.57
597.15	1076.43
597.50	1072.62
597.85	1068.86
598.19	1064.57
598.54	1060.26
598.89	1055.74
599.24	1051.33
599.59	1045.38
599.94	1041.05
600.29	1037.12
600.64	1033.74
600.99	1030.55
601.34	1026.07
601.69	1016.98
602.04	1012.71
602.39	1007.40
602.74	1003.90
603.08	999.12
603.43	995.29
603.78	990.93
604.13	987.14
604.48	982.00
604.83	977.76
605.18	973.00
605.53	968.38
605.87	963.60
606.22	959.29
606.57	954.31
606.92	949.43
607.27	945.48
607.62	940.33
607.96	935.64
608.31	930.81
608.66	927.19
609.01	922.33
609.36	918.07
609.70	914.40
610.05	910.07
610.40	905.98
610.75	901.26
611.10	896.62
611.44	891.40
611.79	888.26
612.14	884.10
612.49	878.90
612.83	874.36
613.18	870.12
613.53	865.71
613.88	861.33
614.22	856.69
614.57	851.52
614.92	846.60
615.27	841.98
615.61	837.17
615.96	831.95
616.31	827.07
616.65	823.71
617.00	819.74
617.35	815.12
617.70	810.45
618.04	805.88
618.39	801.60
618.74	797.79
619.08	792.57
619.43	788.14
619.78	784.79
620.12	780.57
620.47	776.45
620.82	772.10
621.16	767.79
621.51	765.60
621.85	761.40
622.20	757.98
622.55	753.19
622.89	749.31
623.24	746.02
623.59	742.36
623.93	738.40
624.28	734.43
624.62	733.00
624.97	731.38
625.32	727.88
625.66	724.31
626.01	720.69
626.35	717.79
626.70	713.98
627.04	710.74
627.39	707.33
627.73	704.76
628.08	701.83
628.43	698.50
628.77	693.62
629.12	690.88
629.46	687.67
629.81	685.10
630.15	681.88
630.50	677.71
630.84	674.29
631.19	670.57
631.53	666.38
631.88	660.43
632.22	655.05
632.57	652.07
632.91	648.36
633.26	644.83
633.60	640.50
633.95	637.31
634.29	633.31
634.64	630.14
634.98	626.21
635.32	623.29
635.67	620.29
636.01	616.98
636.36	613.21
636.70	610.07
637.05	606.24
637.39	603.29
637.73	600.86
638.08	598.05
638.42	595.05
638.77	592.14
639.11	589.36
639.45	586.19
639.80	582.76
640.14	580.40
640.49	576.98
640.83	573.88
641.17	571.14
641.52	568.71
641.86	565.71
642.20	563.81
642.55	560.24
642.89	557.17
643.23	554.45
643.58	552.17
643.92	548.86
644.26	546.12
644.61	543.52
644.95	540.81
645.29	537.79
645.64	535.24
645.98	532.31
646.32	529.71
646.66	527.24
647.01	524.24
647.35	521.10
647.69	519.38
648.04	517.29
648.38	514.62
648.72	511.40
649.06	508.40
649.41	504.83
649.75	502.12
650.09	499.74
650.43	497.02
650.78	493.86
651.12	491.10
651.46	488.48
651.80	485.36
652.14	482.17
652.49	480.33
652.83	477.71
653.17	475.62
653.51	472.62
653.85	470.24
654.20	467.86
654.54	465.14
654.88	462.24
655.22	461.02
655.56	458.17
655.90	456.00
656.25	454.00
656.59	451.86
656.93	450.07
657.27	448.43
657.61	446.17
657.95	444.52
658.29	442.24
658.64	440.74
658.98	438.24
659.32	436.24
659.66	433.62
660.00	431.33
660.34	429.29
660.68	427.43
661.02	425.31
661.36	423.31
661.70	421.71
662.05	419.88
662.39	417.38
662.73	416.26
663.07	415.29
663.41	413.88
663.75	411.79
664.09	409.93
664.43	407.43
664.77	405.55
665.11	403.31
665.45	401.74
665.79	400.10
666.13	398.76
666.47	396.93
666.81	395.69
667.15	393.71
667.49	392.07
667.83	391.31
668.17	389.57
668.51	387.95
668.85	386.43
669.19	385.62
669.53	383.36
669.87	381.57
670.21	378.98
670.55	377.26
670.89	376.86
671.23	375.12
671.57	373.81
671.91	372.88
672.25	371.71
672.58	371.05
672.92	369.02
673.26	367.57
673.60	366.60
673.94	364.64
674.28	363.95
674.62	363.17
674.96	361.19
675.30	360.19
675.64	359.19
675.97	357.93
676.31	355.88
676.65	354.83
676.99	354.31
677.33	353.17
677.67	352.10
678.01	349.64
678.34	348.10
678.68	347.24
679.02	345.57
679.36	344.00
679.70	342.05
680.04	340.62
680.37	339.24
680.71	337.55
681.05	336.45
681.39	335.05
681.73	333.48
682.06	332.31
682.40	331.00
682.74	329.69
683.08	329.67
683.42	328.71
683.75	327.95
684.09	326.19
684.43	325.29
684.77	323.60
685.10	322.76
685.44	322.07
685.78	320.64
686.12	319.57
686.45	318.40
686.79	317.31
687.13	316.86
687.46	315.90
687.80	315.69
688.14	314.60
688.48	313.60
688.81	312.88
689.15	312.17
689.49	311.19
689.82	310.21
690.16	308.21
690.50	306.93
690.83	305.40
691.17	304.00
691.51	302.76
691.84	302.10
692.18	301.19
692.52	300.17
692.85	299.50
693.19	299.48
693.52	299.02
693.86	298.02
694.20	297.38
694.53	296.67
694.87	295.17
695.21	294.02
695.54	293.07
695.88	291.55
696.21	290.29
696.55	289.74
696.88	288.79
697.22	287.74
697.56	287.52
697.89	286.81
698.23	286.24
698.56	285.45
698.90	284.79
699.23	283.98
699.57	283.50
699.90	282.50
700.24	280.93
700.58	280.24
700.91	280.05
701.25	280.52
701.58	280.14
701.92	280.12
702.25	279.69
702.59	278.81
702.92	278.36
703.26	277.88
703.59	277.07
703.93	278.48
704.26	278.05
704.60	277.24
704.93	276.64
705.26	275.83
705.60	275.90
705.93	274.88
706.27	275.10
706.60	274.74
706.94	274.98
707.27	274.36
707.61	273.71
707.94	272.88
708.27	270.69
708.61	269.64
708.94	268.93
709.28	268.31
709.61	267.81
709.94	267.36
710.28	266.90
710.61	266.14
710.95	263.62
711.28	264.52
711.61	263.76
711.95	263.74
712.28	263.24
712.61	262.40
712.95	262.95
713.28	262.76
713.61	261.71
713.95	260.40
714.28	260.17
714.61	259.62
714.95	259.17
715.28	258.60
715.61	258.24
715.95	257.83
716.28	257.38
716.61	257.45
716.95	256.79
717.28	256.60
717.61	256.21
717.94	255.90
718.28	254.17
718.61	253.74
718.94	252.71
719.27	252.40
719.61	251.90
719.94	251.12
720.27	249.60
720.60	249.31
720.94	249.05
721.27	248.52
721.60	248.33
721.93	247.69
722.27	248.10
722.60	248.12
722.93	247.50
723.26	247.52
723.59	246.45
723.93	246.33
724.26	245.83
724.59	245.38
724.92	245.05
725.25	245.14
725.59	244.95
725.92	245.26
726.25	244.98
726.58	244.88
726.91	244.33
727.24	244.57
727.57	244.05
727.91	243.45
728.24	243.43
728.57	242.69
728.90	242.86
729.23	241.67
729.56	242.24
729.89	241.98
730.22	241.40
730.55	241.31
730.89	241.12
731.22	240.76
731.55	240.43
731.88	240.33
732.21	239.64
732.54	239.10
732.87	238.67
733.20	238.45
733.53	238.26
733.86	238.38
734.19	237.74
734.52	238.00
734.85	239.24
735.18	238.86
735.51	239.60
735.84	239.48
736.17	240.24
736.50	238.69
736.83	241.07
737.16	240.88
737.49	240.88
737.82	240.60
738.15	240.43
738.48	240.14
738.81	239.64
739.14	239.31
739.47	239.10
739.80	238.69
740.13	238.67
740.46	238.12
740.79	237.33
741.12	236.95
741.45	236.21
741.78	234.79
742.11	235.00
742.44	234.19
742.77	234.29
743.10	233.52
743.43	233.67
743.75	231.10
744.08	233.52
744.41	233.10
744.74	232.81
745.07	232.26
745.40	232.64
745.73	233.40
746.06	233.19
746.39	233.40
746.71	233.14
747.04	232.86
747.37	232.90
747.70	233.52
748.03	233.69
748.36	234.17
748.68	234.07
749.01	233.40
749.34	233.12
749.67	232.83
750.00	233.21
750.33	234.26
750.65	234.14
750.98	231.60
751.31	231.52
751.64	231.50
751.97	232.62
752.29	232.33
752.62	231.19
752.95	231.19
753.28	230.86
753.60	230.95
753.93	231.26
754.26	231.10
754.59	230.02
754.91	229.43
755.24	229.10
755.57	228.86
755.90	228.62
756.22	228.57
756.55	228.05
756.88	227.31
757.20	225.93
757.53	225.31
757.86	225.21
758.19	225.29
758.51	225.07
758.84	224.05
759.17	223.74
759.49	223.76
759.82	224.50
760.15	224.62
760.47	224.31
760.80	223.62
761.13	223.74
761.45	223.60
761.78	223.74
762.11	223.43
762.43	223.21
762.76	223.29
763.08	223.38
763.41	223.50
763.74	223.57
764.06	223.55
764.39	223.76
764.71	223.36
765.04	222.79
765.37	222.67
765.69	222.33
766.02	222.00
766.34	221.67
766.67	220.90
767.00	220.93
767.32	221.88
767.65	223.07
767.97	222.86
768.30	223.21
768.62	223.05
768.95	222.88
769.27	222.71
769.60	222.86
769.92	222.43
770.25	222.19
770.57	221.74
770.90	221.52
771.22	221.14
771.55	221.24
771.87	221.43
772.20	221.24
772.52	223.14
772.85	225.67
773.17	225.71
773.50	225.21
773.82	224.95
774.15	223.98
774.47	222.62
774.80	222.26
775.12	222.00
775.45	221.81
775.77	221.98
776.09	222.24
776.42	222.12
776.74	222.69
777.07	222.36
777.39	222.43
777.72	222.31
778.04	222.57
778.36	222.36
778.69	222.62
779.01	222.62
779.33	220.67
779.66	218.36
779.98	218.31
780.31	218.48
780.63	219.40
780.95	219.74
781.28	219.67
781.60	219.55
781.92	219.43
782.25	219.69
782.57	219.48
782.89	218.98
783.22	218.74
783.54	218.14
783.86	218.29
784.19	218.10
784.51	218.50
784.83	217.95
785.16	217.95
785.48	217.86
785.80	218.14
786.12	218.36
786.45	218.38
786.77	218.45
787.09	218.33
787.42	217.21
787.74	217.10
788.06	217.12
