SpectraSuite Data File
++++++++++++++++++++++++++++++++++++
Date: Tue Apr 02 18:44:47 EDT 2013
User: group
Dark Spectrum Present: No
Reference Spectrum Present: No
Number of Sampled Component Spectra: 1
Spectrometers: USB2E7196
Integration Time (usec): 580000 (USB2E7196)
Spectra Averaged: 2 (USB2E7196)
Boxcar Smoothing: 10 (USB2E7196)
Correct for Electrical Dark: No (USB2E7196)
Strobe/Lamp Enabled: No (USB2E7196)
Correct for Detector Non-linearity: No (USB2E7196)
Correct for Stray Light: No (USB2E7196)
Number of Pixels in Processed Spectrum: 2048
>>>>>Begin Processed Spectral Data<<<<<
339.09	0.00
339.48	194.50
339.86	197.50
340.24	195.50
340.63	197.50
341.01	234.50
341.39	202.50
341.78	210.00
342.16	212.50
342.54	204.50
342.93	198.10
343.31	207.83
343.69	208.40
344.07	208.98
344.46	209.95
344.84	210.55
345.22	209.24
345.60	209.69
345.99	209.69
346.37	209.69
346.75	209.98
347.13	209.93
347.52	210.05
347.90	211.07
348.28	211.10
348.66	211.88
349.05	211.33
349.43	211.69
349.81	211.88
350.19	211.76
350.57	211.86
350.96	212.24
351.34	212.50
351.72	212.71
352.10	212.71
352.48	212.31
352.87	212.10
353.25	212.19
353.63	212.02
354.01	211.95
354.39	211.83
354.77	211.81
355.15	212.31
355.54	212.05
355.92	211.21
356.30	211.33
356.68	212.26
357.06	212.40
357.44	212.14
357.82	212.00
358.20	212.64
358.58	212.55
358.97	212.33
359.35	212.81
359.73	213.10
360.11	212.98
360.49	213.14
360.87	213.36
361.25	213.81
361.63	214.74
362.01	214.76
362.39	214.83
362.77	214.95
363.15	214.79
363.53	214.76
363.91	214.62
364.29	214.55
364.67	212.69
365.05	212.71
365.43	212.93
365.81	213.33
366.19	213.88
366.57	214.76
366.95	214.90
367.33	214.45
367.71	214.52
368.09	214.83
368.47	214.69
368.85	214.48
369.23	214.52
369.61	213.55
369.99	214.19
370.37	214.62
370.75	215.76
371.13	215.33
371.51	215.12
371.89	215.40
372.27	215.71
372.65	215.79
373.03	215.69
373.41	215.36
373.78	215.21
374.16	214.12
374.54	213.36
374.92	213.26
375.30	213.19
375.68	212.62
376.06	212.76
376.44	212.79
376.82	213.14
377.19	213.29
377.57	213.10
377.95	212.67
378.33	212.14
378.71	210.74
379.09	210.98
379.47	211.29
379.84	210.93
380.22	210.60
380.60	210.48
380.98	210.45
381.36	210.60
381.73	210.31
382.11	210.57
382.49	210.64
382.87	210.45
383.25	210.55
383.62	213.31
384.00	212.98
384.38	213.10
384.76	213.57
385.13	214.19
385.51	214.38
385.89	214.19
386.27	214.31
386.64	214.74
387.02	214.86
387.40	214.62
387.78	214.98
388.15	215.05
388.53	214.98
388.91	215.07
389.29	214.83
389.66	215.17
390.04	215.05
390.42	215.52
390.79	215.79
391.17	215.83
391.55	213.38
391.92	213.43
392.30	213.71
392.68	213.19
393.05	213.12
393.43	213.48
393.81	213.62
394.18	213.50
394.56	213.52
394.94	213.95
395.31	213.86
395.69	214.40
396.06	214.74
396.44	215.00
396.82	214.81
397.19	216.00
397.57	215.76
397.95	215.93
398.32	215.17
398.70	215.29
399.07	215.57
399.45	215.67
399.82	215.62
400.20	215.48
400.58	215.43
400.95	214.60
401.33	214.86
401.70	216.17
402.08	216.26
402.45	216.29
402.83	216.81
403.20	217.12
403.58	216.86
403.95	217.26
404.33	217.67
404.71	217.95
405.08	219.12
405.46	219.60
405.83	220.12
406.21	220.50
406.58	220.93
406.96	221.33
407.33	221.71
407.70	222.62
408.08	224.45
408.45	225.50
408.83	226.38
409.20	226.69
409.58	226.40
409.95	227.74
410.33	228.71
410.70	228.98
411.08	230.33
411.45	231.69
411.82	232.71
412.20	234.14
412.57	236.64
412.95	236.24
413.32	237.76
413.69	239.14
414.07	241.07
414.44	242.83
414.82	244.74
415.19	247.24
415.56	249.43
415.94	250.90
416.31	253.52
416.68	256.29
417.06	259.60
417.43	263.02
417.81	266.17
418.18	269.69
418.55	273.62
418.93	277.55
419.30	281.45
419.67	285.64
420.04	290.10
420.42	294.57
420.79	301.95
421.16	308.05
421.54	315.00
421.91	321.19
422.28	327.24
422.66	333.88
423.03	341.52
423.40	348.43
423.77	355.88
424.15	363.10
424.52	370.90
424.89	379.36
425.26	386.93
425.64	394.60
426.01	403.02
426.38	411.67
426.75	421.40
427.13	430.62
427.50	440.26
427.87	449.83
428.24	459.67
428.61	468.00
428.99	479.07
429.36	489.62
429.73	501.14
430.10	513.14
430.47	524.69
430.85	535.48
431.22	548.12
431.59	562.67
431.96	574.88
432.33	589.07
432.70	602.69
433.08	618.55
433.45	633.50
433.82	648.31
434.19	665.43
434.56	682.14
434.93	697.43
435.30	713.52
435.68	731.02
436.05	748.14
436.42	764.60
436.79	779.50
437.16	796.36
437.53	813.79
437.90	830.71
438.27	848.88
438.64	866.95
439.01	883.33
439.38	896.64
439.75	911.31
440.13	927.69
440.50	943.26
440.87	956.07
441.24	969.55
441.61	984.31
441.98	994.95
442.35	1006.26
442.72	1019.52
443.09	1032.76
443.46	1040.69
443.83	1045.90
444.20	1050.60
444.57	1056.38
444.94	1059.43
445.31	1062.62
445.68	1068.69
446.05	1069.69
446.42	1068.12
446.79	1067.36
447.16	1065.69
447.53	1065.33
447.90	1058.71
448.27	1052.00
448.64	1043.31
449.01	1037.43
449.37	1026.29
449.74	1015.19
450.11	1004.33
450.48	990.10
450.85	974.29
451.22	961.60
451.59	949.76
451.96	938.24
452.33	923.67
452.70	909.57
453.07	892.95
453.43	873.29
453.80	856.88
454.17	841.14
454.54	825.57
454.91	809.33
455.28	792.98
455.65	778.45
456.02	767.86
456.38	755.48
456.75	739.88
457.12	726.88
457.49	714.02
457.86	699.33
458.23	689.05
458.59	677.60
458.96	666.12
459.33	655.33
459.70	644.83
460.07	636.21
460.43	626.88
460.80	618.29
461.17	611.21
461.54	603.17
461.91	595.36
462.27	587.40
462.64	580.55
463.01	573.52
463.38	567.19
463.74	556.19
464.11	549.71
464.48	544.21
464.85	538.12
465.21	534.02
465.58	529.52
465.95	523.07
466.32	517.60
466.68	512.14
467.05	507.52
467.42	502.95
467.78	497.33
468.15	492.40
468.52	488.86
468.88	483.24
469.25	478.43
469.62	475.24
469.98	471.31
470.35	467.81
470.72	464.17
471.08	459.60
471.45	456.62
471.82	453.71
472.18	450.02
472.55	447.50
472.92	443.62
473.28	440.88
473.65	438.33
474.02	435.71
474.38	433.86
474.75	431.14
475.11	428.57
475.48	427.48
475.85	425.67
476.21	423.33
476.58	422.21
476.94	420.86
477.31	419.55
477.67	418.38
478.04	417.40
478.41	417.00
478.77	418.45
479.14	417.50
479.50	416.64
479.87	416.36
480.23	415.69
480.60	415.55
480.96	415.43
481.33	416.29
481.69	416.45
482.06	416.14
482.42	417.36
482.79	418.14
483.15	418.52
483.52	419.55
483.88	420.10
484.25	420.31
484.61	421.38
484.98	422.05
485.34	423.76
485.71	424.79
486.07	425.98
486.44	425.24
486.80	426.67
487.17	428.26
487.53	430.19
487.90	432.71
488.26	435.86
488.62	437.90
488.99	439.21
489.35	442.10
489.72	444.98
490.08	447.12
490.44	449.60
490.81	452.64
491.17	455.50
491.54	459.29
491.90	463.29
492.26	466.93
492.63	470.69
492.99	473.74
493.36	478.26
493.72	482.43
494.08	487.05
494.45	491.98
494.81	497.26
495.17	501.79
495.54	506.57
495.90	510.57
496.26	515.69
496.63	521.62
496.99	526.81
497.35	532.57
497.72	538.43
498.08	543.95
498.44	550.17
498.80	556.64
499.17	563.05
499.53	568.81
499.89	575.79
500.26	582.31
500.62	589.17
500.98	595.71
501.34	602.64
501.71	610.24
502.07	617.38
502.43	624.00
502.79	630.93
503.16	637.98
503.52	645.14
503.88	652.45
504.24	659.19
504.60	666.38
504.97	674.29
505.33	681.50
505.69	690.60
506.05	697.93
506.41	705.21
506.78	712.67
507.14	720.98
507.50	728.55
507.86	736.74
508.22	744.57
508.59	752.19
508.95	760.05
509.31	768.40
509.67	775.76
510.03	784.21
510.39	792.38
510.75	800.10
511.12	808.12
511.48	815.76
511.84	824.02
512.20	832.02
512.56	839.57
512.92	847.79
513.28	854.62
513.64	861.76
514.00	869.40
514.37	876.40
514.73	883.62
515.09	891.31
515.45	898.05
515.81	905.07
516.17	911.93
516.53	918.14
516.89	923.12
517.25	930.43
517.61	937.07
517.97	943.60
518.33	950.31
518.69	957.00
519.05	963.67
519.41	969.55
519.77	976.69
520.13	982.19
520.49	987.50
520.85	993.31
521.21	999.95
521.57	1006.55
521.93	1012.12
522.29	1017.38
522.65	1021.45
523.01	1027.31
523.37	1032.33
523.73	1037.74
524.09	1042.64
524.45	1048.31
524.81	1052.69
525.17	1057.05
525.53	1062.00
525.89	1066.17
526.25	1070.79
526.61	1074.19
526.97	1078.29
527.33	1082.48
527.68	1088.62
528.04	1092.62
528.40	1096.19
528.76	1100.60
529.12	1104.40
529.48	1109.52
529.84	1113.50
530.20	1118.48
530.56	1123.10
530.91	1127.50
531.27	1131.71
531.63	1136.12
531.99	1139.62
532.35	1143.57
532.71	1146.86
533.07	1151.02
533.42	1157.67
533.78	1161.26
534.14	1166.31
534.50	1170.05
534.86	1174.29
535.21	1176.60
535.57	1182.26
535.93	1186.17
536.29	1191.21
536.65	1195.07
537.00	1197.67
537.36	1201.45
537.72	1204.43
538.08	1207.60
538.44	1210.90
538.79	1213.93
539.15	1217.07
539.51	1220.67
539.87	1224.38
540.22	1228.26
540.58	1231.24
540.94	1232.26
541.29	1235.81
541.65	1238.05
542.01	1241.88
542.37	1243.52
542.72	1246.21
543.08	1247.05
543.44	1250.55
543.79	1250.45
544.15	1252.31
544.51	1255.10
544.87	1257.52
545.22	1260.86
545.58	1262.79
545.94	1265.12
546.29	1268.07
546.65	1270.36
547.01	1273.05
547.36	1274.83
547.72	1277.12
548.07	1279.24
548.43	1281.60
548.79	1283.17
549.14	1286.36
549.50	1288.69
549.86	1290.71
550.21	1293.19
550.57	1296.40
550.92	1298.24
551.28	1302.07
551.64	1305.57
551.99	1308.67
552.35	1312.38
552.70	1314.86
553.06	1318.57
553.41	1321.45
553.77	1325.88
554.13	1329.95
554.48	1334.40
554.84	1339.50
555.19	1343.50
555.55	1349.29
555.90	1353.21
556.26	1357.43
556.61	1360.62
556.97	1363.55
557.32	1367.64
557.68	1371.69
558.03	1376.12
558.39	1380.24
558.74	1384.71
559.10	1388.69
559.45	1393.69
559.81	1397.31
560.16	1401.57
560.52	1405.55
560.87	1410.81
561.23	1414.02
561.58	1419.74
561.94	1423.12
562.29	1426.40
562.64	1431.05
563.00	1434.26
563.35	1438.88
563.71	1443.83
564.06	1449.29
564.42	1454.86
564.77	1461.00
565.12	1466.79
565.48	1474.48
565.83	1480.95
566.19	1486.21
566.54	1491.05
566.89	1496.29
567.25	1502.74
567.60	1510.00
567.96	1517.93
568.31	1525.14
568.66	1531.52
569.02	1536.36
569.37	1542.10
569.72	1547.81
570.08	1553.17
570.43	1558.07
570.78	1563.64
571.14	1569.45
571.49	1574.48
571.84	1580.55
572.20	1584.62
572.55	1589.64
572.90	1591.86
573.26	1596.60
573.61	1600.95
573.96	1606.19
574.31	1610.90
574.67	1614.24
575.02	1616.95
575.37	1617.76
575.72	1620.10
576.08	1624.29
576.43	1627.69
576.78	1632.05
577.13	1635.52
577.49	1638.90
577.84	1643.40
578.19	1647.24
578.54	1650.69
578.90	1654.86
579.25	1658.64
579.60	1662.76
579.95	1665.50
580.30	1668.74
580.66	1672.24
581.01	1676.36
581.36	1679.31
581.71	1682.36
582.06	1686.95
582.42	1690.76
582.77	1694.79
583.12	1697.88
583.47	1700.05
583.82	1703.31
584.17	1705.83
584.53	1709.21
584.88	1713.21
585.23	1716.62
585.58	1718.74
585.93	1721.31
586.28	1724.48
586.63	1726.95
586.98	1730.14
587.34	1734.00
587.69	1736.36
588.04	1738.07
588.39	1740.45
588.74	1742.12
589.09	1744.14
589.44	1744.55
589.79	1747.02
590.14	1749.29
590.49	1751.12
590.84	1752.86
591.19	1754.21
591.54	1756.81
591.89	1758.19
592.25	1761.00
592.60	1761.21
592.95	1763.02
593.30	1765.45
593.65	1766.14
594.00	1766.43
594.35	1772.62
594.70	1772.26
595.05	1773.83
595.40	1774.31
595.75	1774.21
596.10	1775.55
596.45	1775.60
596.80	1777.17
597.15	1777.12
597.50	1778.19
597.85	1780.17
598.19	1780.64
598.54	1780.67
598.89	1780.29
599.24	1781.50
599.59	1780.86
599.94	1780.88
600.29	1781.50
600.64	1780.86
600.99	1780.76
601.34	1781.19
601.69	1775.62
602.04	1775.36
602.39	1775.40
602.74	1776.69
603.08	1776.26
603.43	1776.79
603.78	1777.40
604.13	1777.00
604.48	1776.19
604.83	1775.67
605.18	1774.45
605.53	1774.02
605.87	1773.86
606.22	1773.00
606.57	1771.52
606.92	1770.52
607.27	1770.07
607.62	1769.45
607.96	1768.95
608.31	1768.83
608.66	1769.21
609.01	1768.00
609.36	1767.57
609.70	1766.10
610.05	1763.55
610.40	1762.76
610.75	1760.19
611.10	1758.02
611.44	1755.05
611.79	1753.07
612.14	1750.45
612.49	1746.57
612.83	1743.90
613.18	1741.40
613.53	1738.50
613.88	1735.48
614.22	1730.95
614.57	1726.52
614.92	1722.12
615.27	1718.00
615.61	1713.86
615.96	1708.48
616.31	1704.67
616.65	1701.67
617.00	1698.93
617.35	1696.48
617.70	1692.43
618.04	1689.10
618.39	1684.88
618.74	1682.19
619.08	1678.83
619.43	1674.52
619.78	1671.81
620.12	1668.64
620.47	1665.00
620.82	1660.93
621.16	1656.67
621.51	1654.00
621.85	1650.29
622.20	1646.90
622.55	1643.12
622.89	1639.33
623.24	1636.24
623.59	1632.38
623.93	1628.10
624.28	1623.64
624.62	1620.95
624.97	1617.79
625.32	1613.93
625.66	1610.52
626.01	1606.31
626.35	1603.33
626.70	1599.95
627.04	1597.07
627.39	1592.79
627.73	1589.74
628.08	1586.71
628.43	1583.45
628.77	1579.21
629.12	1576.76
629.46	1573.29
629.81	1569.21
630.15	1564.48
630.50	1559.50
630.84	1555.48
631.19	1550.95
631.53	1546.33
631.88	1539.12
632.22	1533.07
632.57	1529.02
632.91	1523.48
633.26	1519.93
633.60	1514.10
633.95	1509.02
634.29	1503.10
634.64	1498.81
634.98	1493.55
635.32	1488.88
635.67	1484.98
636.01	1481.02
636.36	1475.67
636.70	1471.52
637.05	1467.86
637.39	1464.00
637.73	1459.86
638.08	1455.98
638.42	1451.17
638.77	1446.83
639.11	1442.69
639.45	1439.05
639.80	1433.12
640.14	1429.33
640.49	1423.52
640.83	1417.62
641.17	1413.40
641.52	1408.52
641.86	1403.86
642.20	1400.19
642.55	1394.98
642.89	1389.14
643.23	1383.62
643.58	1379.48
643.92	1372.52
644.26	1365.98
644.61	1360.95
644.95	1356.07
645.29	1349.90
645.64	1344.88
645.98	1339.00
646.32	1333.55
646.66	1326.69
647.01	1321.50
647.35	1315.67
647.69	1310.26
648.04	1305.55
648.38	1299.93
648.72	1294.02
649.06	1287.57
649.41	1279.93
649.75	1273.31
650.09	1267.29
650.43	1259.95
650.78	1253.05
651.12	1247.29
651.46	1240.90
651.80	1233.57
652.14	1226.67
652.49	1220.88
652.83	1214.31
653.17	1207.60
653.51	1200.71
653.85	1195.21
654.20	1188.33
654.54	1181.29
654.88	1174.10
655.22	1168.02
655.56	1159.86
655.90	1153.88
656.25	1147.55
656.59	1141.90
656.93	1136.00
657.27	1130.57
657.61	1124.81
657.95	1118.93
658.29	1112.83
658.64	1107.55
658.98	1101.48
659.32	1094.83
659.66	1087.74
660.00	1081.69
660.34	1075.81
660.68	1070.48
661.02	1063.98
661.36	1058.71
661.70	1053.29
662.05	1047.60
662.39	1041.62
662.73	1037.12
663.07	1032.31
663.41	1026.29
663.75	1019.36
664.09	1013.43
664.43	1006.48
664.77	1001.38
665.11	995.02
665.45	988.95
665.79	982.40
666.13	976.24
666.47	970.64
666.81	965.93
667.15	959.95
667.49	954.60
667.83	949.21
668.17	944.17
668.51	938.57
668.85	933.00
669.19	928.90
669.53	922.71
669.87	916.33
670.21	909.33
670.55	903.57
670.89	899.02
671.23	893.55
671.57	888.38
671.91	882.24
672.25	876.86
672.58	872.45
672.92	866.71
673.26	861.79
673.60	856.26
673.94	850.10
674.28	844.93
674.62	839.52
674.96	833.33
675.30	828.29
675.64	822.98
675.97	817.81
676.31	811.45
676.65	806.60
676.99	802.90
677.33	798.24
677.67	793.50
678.01	787.93
678.34	782.48
678.68	778.07
679.02	772.57
679.36	767.21
679.70	761.55
680.04	757.00
680.37	751.88
680.71	747.10
681.05	742.67
681.39	737.62
681.73	732.43
682.06	727.93
682.40	723.07
682.74	717.88
683.08	713.40
683.42	708.64
683.75	704.10
684.09	698.57
684.43	693.55
684.77	688.40
685.10	683.71
685.44	679.40
685.78	674.10
686.12	670.00
686.45	665.93
686.79	661.14
687.13	657.10
687.46	652.21
687.80	648.62
688.14	644.05
688.48	640.02
688.81	635.95
689.15	632.43
689.49	627.48
689.82	623.45
690.16	618.55
690.50	614.31
690.83	609.45
691.17	604.67
691.51	600.52
691.84	596.76
692.18	592.33
692.52	587.93
692.85	584.40
693.19	581.24
693.52	577.19
693.86	572.90
694.20	568.45
694.53	565.17
694.87	560.55
695.21	556.38
695.54	552.40
695.88	548.31
696.21	543.31
696.55	539.52
696.88	535.90
697.22	532.24
697.56	528.90
697.89	525.43
698.23	522.64
698.56	518.76
698.90	515.17
699.23	511.52
699.57	508.21
699.90	504.19
700.24	499.93
700.58	496.33
700.91	493.69
701.25	492.69
701.58	489.86
701.92	487.17
702.25	484.26
702.59	480.67
702.92	477.43
703.26	474.93
703.59	472.17
703.93	470.50
704.26	468.17
704.60	465.00
704.93	462.05
705.26	458.55
705.60	456.05
705.93	452.76
706.27	450.81
706.60	448.43
706.94	446.52
707.27	443.64
707.61	441.31
707.94	438.45
708.27	433.67
708.61	430.33
708.94	427.19
709.28	424.64
709.61	422.36
709.94	419.98
710.28	417.29
710.61	414.79
710.95	410.48
711.28	409.31
711.61	406.71
711.95	404.69
712.28	402.52
712.61	399.93
712.95	398.71
713.28	396.88
713.61	394.17
713.95	391.24
714.28	389.24
714.61	386.83
714.95	384.26
715.28	381.81
715.61	379.79
715.95	378.19
716.28	375.93
716.61	373.90
716.95	371.69
717.28	369.21
717.61	367.12
717.94	365.17
718.28	361.50
718.61	359.38
718.94	357.05
719.27	355.00
719.61	353.55
719.94	351.31
720.27	348.60
720.60	346.74
720.94	345.10
721.27	343.69
721.60	342.36
721.93	340.93
722.27	340.38
722.60	339.07
722.93	337.21
723.26	335.81
723.59	334.29
723.93	333.07
724.26	332.14
724.59	330.67
724.92	329.55
725.25	328.95
725.59	327.86
725.92	327.10
726.25	325.74
726.58	324.24
726.91	323.05
727.24	322.26
727.57	320.90
727.91	319.38
728.24	318.12
728.57	316.55
728.90	315.60
729.23	313.64
729.56	313.31
729.89	312.05
730.22	310.76
730.55	309.24
730.89	308.26
731.22	306.93
731.55	306.10
731.88	304.98
732.21	303.52
732.54	302.43
732.87	301.14
733.20	300.31
733.53	299.50
733.86	298.29
734.19	296.79
734.52	296.14
734.85	296.60
735.18	295.52
735.51	295.38
735.84	294.55
736.17	294.29
736.50	292.38
736.83	293.98
737.16	292.90
737.49	292.38
737.82	291.26
738.15	290.93
738.48	289.79
738.81	289.14
739.14	288.12
739.47	287.00
739.80	286.43
740.13	285.74
740.46	284.38
740.79	283.55
741.12	283.02
741.45	282.29
741.78	280.62
742.11	280.33
742.44	278.98
742.77	278.48
743.10	276.93
743.43	276.14
743.75	273.12
744.08	275.40
744.41	274.36
744.74	273.67
745.07	272.33
745.40	272.02
745.73	272.19
746.06	271.33
746.39	271.05
746.71	270.31
747.04	269.45
747.37	268.98
747.70	268.64
748.03	268.00
748.36	267.57
748.68	266.95
749.01	265.69
749.34	265.17
749.67	264.45
750.00	264.52
750.33	265.29
750.65	264.93
750.98	261.55
751.31	261.36
751.64	260.74
751.97	261.64
752.29	260.95
752.62	259.36
752.95	258.64
753.28	257.95
753.60	257.26
753.93	257.29
754.26	256.95
754.59	255.86
754.91	255.00
755.24	254.60
755.57	253.69
755.90	253.12
756.22	252.57
756.55	252.05
756.88	251.10
757.20	249.48
757.53	248.40
757.86	248.05
758.19	247.69
758.51	247.38
758.84	245.69
759.17	245.07
759.49	244.74
759.82	245.60
760.15	245.33
760.47	244.57
760.80	243.40
761.13	243.26
761.45	242.93
761.78	242.55
762.11	241.86
762.43	241.31
762.76	241.29
763.08	241.07
763.41	240.83
763.74	240.55
764.06	240.10
764.39	240.12
764.71	239.64
765.04	238.95
765.37	238.40
765.69	238.00
766.02	237.55
766.34	237.36
766.67	236.26
767.00	236.19
767.32	237.33
767.65	238.48
767.97	237.93
768.30	237.79
768.62	237.62
768.95	237.24
769.27	237.17
769.60	237.19
769.92	236.62
770.25	235.98
770.57	235.36
770.90	235.12
771.22	234.67
771.55	234.43
771.87	234.45
772.20	234.29
772.52	235.69
772.85	238.17
773.17	237.98
773.50	237.67
773.82	237.19
774.15	236.10
774.47	234.50
774.80	234.14
775.12	233.79
775.45	233.50
775.77	233.52
776.09	233.29
776.42	232.76
776.74	233.26
777.07	232.86
777.39	232.74
777.72	232.26
778.04	232.14
778.36	231.83
778.69	231.52
779.01	231.69
779.33	229.93
779.66	227.74
779.98	227.07
780.31	226.74
780.63	227.50
780.95	227.48
781.28	227.50
781.60	226.98
781.92	226.86
782.25	226.64
782.57	226.24
782.89	226.17
783.22	225.95
783.54	225.10
783.86	225.26
784.19	225.17
784.51	225.93
784.83	225.64
785.16	225.60
