SpectraSuite Data File
++++++++++++++++++++++++++++++++++++
Date: Tue Apr 02 18:37:41 EDT 2013
User: group
Dark Spectrum Present: No
Reference Spectrum Present: No
Number of Sampled Component Spectra: 1
Spectrometers: USB2E7196
Integration Time (usec): 580000 (USB2E7196)
Spectra Averaged: 2 (USB2E7196)
Boxcar Smoothing: 10 (USB2E7196)
Correct for Electrical Dark: No (USB2E7196)
Strobe/Lamp Enabled: No (USB2E7196)
Correct for Detector Non-linearity: No (USB2E7196)
Correct for Stray Light: No (USB2E7196)
Number of Pixels in Processed Spectrum: 2048
>>>>>Begin Processed Spectral Data<<<<<
339.09	0.00
339.48	195.00
339.86	199.00
340.24	197.50
340.63	199.50
341.01	236.00
341.39	200.50
341.78	207.00
342.16	220.00
342.54	207.50
342.93	199.40
343.31	209.19
343.69	209.76
344.07	210.21
344.46	211.14
344.84	211.69
345.22	210.17
345.60	210.69
345.99	210.74
346.37	210.26
346.75	210.31
347.13	210.40
347.52	210.48
347.90	210.83
348.28	210.71
348.66	211.17
349.05	210.79
349.43	210.98
349.81	211.17
350.19	211.17
350.57	211.10
350.96	211.48
351.34	211.60
351.72	211.67
352.10	211.45
352.48	211.12
352.87	210.98
353.25	211.31
353.63	211.14
354.01	211.07
354.39	211.10
354.77	211.02
355.15	211.36
355.54	210.98
355.92	210.36
356.30	210.52
356.68	211.71
357.06	211.76
357.44	211.33
357.82	211.36
358.20	212.31
358.58	212.17
358.97	212.14
359.35	212.74
359.73	213.19
360.11	213.36
360.49	213.36
360.87	213.50
361.25	213.55
361.63	214.26
362.01	214.81
362.39	214.69
362.77	214.93
363.15	214.74
363.53	214.95
363.91	215.19
364.29	215.14
364.67	213.21
365.05	213.00
365.43	213.29
365.81	213.40
366.19	213.57
366.57	214.55
366.95	214.50
367.33	213.95
367.71	213.71
368.09	213.98
368.47	214.00
368.85	213.71
369.23	214.21
369.61	213.45
369.99	213.88
370.37	214.10
370.75	215.24
371.13	215.12
371.51	214.79
371.89	214.90
372.27	215.10
372.65	215.36
373.03	215.64
373.41	215.45
373.78	215.48
374.16	214.43
374.54	213.64
374.92	213.48
375.30	213.57
375.68	213.24
376.06	213.31
376.44	213.12
376.82	213.57
377.19	213.52
377.57	213.57
377.95	212.95
378.33	212.90
378.71	211.79
379.09	212.31
379.47	212.74
379.84	212.74
380.22	212.55
380.60	212.17
380.98	212.10
381.36	212.45
381.73	212.05
382.11	212.40
382.49	212.57
382.87	212.17
383.25	212.31
383.62	214.83
384.00	214.69
384.38	214.98
384.76	215.24
385.13	216.02
385.51	216.26
385.89	216.05
386.27	216.07
386.64	216.26
387.02	215.88
387.40	215.71
387.78	215.79
388.15	215.95
388.53	215.86
388.91	215.98
389.29	215.60
389.66	216.10
390.04	216.00
390.42	216.31
390.79	216.74
391.17	216.67
391.55	214.43
391.92	214.48
392.30	214.79
392.68	214.24
393.05	213.86
393.43	213.86
393.81	214.05
394.18	213.86
394.56	213.93
394.94	214.26
395.31	214.14
395.69	214.57
396.06	214.79
396.44	215.17
396.82	214.88
397.19	216.21
397.57	216.02
397.95	216.40
398.32	216.02
398.70	216.36
399.07	216.88
399.45	216.74
399.82	216.60
400.20	216.17
400.58	216.50
400.95	215.67
401.33	215.98
401.70	217.31
402.08	217.62
402.45	217.55
402.83	218.12
403.20	218.26
403.58	218.38
403.95	218.69
404.33	219.26
404.71	219.60
405.08	220.62
405.46	221.12
405.83	221.48
406.21	221.88
406.58	222.33
406.96	222.57
407.33	223.50
407.70	224.26
408.08	226.69
408.45	227.55
408.83	229.05
409.20	229.74
409.58	229.45
409.95	230.48
410.33	231.62
410.70	232.07
411.08	233.40
411.45	234.40
411.82	235.33
412.20	237.12
412.57	239.83
412.95	239.88
413.32	241.74
413.69	243.29
414.07	245.19
414.44	247.31
414.82	249.90
415.19	252.57
415.56	255.24
415.94	256.93
416.31	260.31
416.68	263.52
417.06	267.45
417.43	271.57
417.81	275.71
418.18	280.05
418.55	284.52
418.93	289.40
419.30	294.21
419.67	299.74
420.04	304.79
420.42	309.69
420.79	317.81
421.16	324.40
421.54	332.19
421.91	339.29
422.28	346.40
422.66	354.02
423.03	362.88
423.40	371.02
423.77	379.43
424.15	387.64
424.52	396.52
424.89	406.21
425.26	414.98
425.64	424.19
426.01	433.79
426.38	444.31
426.75	455.38
427.13	466.62
427.50	477.95
427.87	489.90
428.24	502.07
428.61	511.81
428.99	524.98
429.36	537.88
429.73	551.48
430.10	565.19
430.47	579.10
430.85	592.43
431.22	608.00
431.59	624.95
431.96	640.05
432.33	657.40
432.70	673.71
433.08	693.02
433.45	711.40
433.82	729.55
434.19	748.90
434.56	769.05
434.93	787.74
435.30	806.76
435.68	827.93
436.05	848.43
436.42	869.21
436.79	888.21
437.16	909.29
437.53	931.40
437.90	953.48
438.27	974.67
438.64	996.02
439.01	1016.74
439.38	1034.71
439.75	1053.29
440.13	1073.17
440.50	1092.12
440.87	1107.62
441.24	1123.62
441.61	1141.33
441.98	1155.07
442.35	1169.90
442.72	1185.52
443.09	1202.12
443.46	1211.43
443.83	1218.26
444.20	1224.05
444.57	1231.21
444.94	1235.14
445.31	1239.07
445.68	1245.19
446.05	1247.48
446.42	1246.86
446.79	1245.52
447.16	1242.67
447.53	1241.79
447.90	1234.33
448.27	1226.95
448.64	1216.21
449.01	1208.67
449.37	1196.50
449.74	1183.69
450.11	1169.38
450.48	1152.38
450.85	1133.36
451.22	1118.12
451.59	1103.67
451.96	1090.86
452.33	1072.88
452.70	1056.00
453.07	1035.24
453.43	1011.93
453.80	992.29
454.17	972.79
454.54	953.45
454.91	934.29
455.28	914.52
455.65	897.07
456.02	883.19
456.38	869.02
456.75	850.36
457.12	833.62
457.49	818.52
457.86	802.26
458.23	789.88
458.59	775.93
458.96	761.74
459.33	749.69
459.70	736.10
460.07	725.90
460.43	714.10
460.80	704.36
461.17	695.64
461.54	685.55
461.91	676.62
462.27	666.90
462.64	658.52
463.01	649.95
463.38	641.60
463.74	628.86
464.11	620.79
464.48	614.48
464.85	607.62
465.21	601.76
465.58	596.00
465.95	588.10
466.32	582.02
466.68	575.95
467.05	569.24
467.42	563.64
467.78	557.48
468.15	551.79
468.52	546.90
468.88	540.36
469.25	534.55
469.62	530.40
469.98	525.90
470.35	521.86
470.72	517.33
471.08	512.14
471.45	509.26
471.82	506.33
472.18	502.45
472.55	498.83
472.92	495.40
473.28	491.83
473.65	488.76
474.02	485.67
474.38	483.29
474.75	480.98
475.11	478.36
475.48	476.74
475.85	474.50
476.21	472.79
476.58	471.57
476.94	470.19
477.31	467.88
477.67	466.24
478.04	465.10
478.41	464.43
478.77	465.76
479.14	464.24
479.50	463.43
479.87	462.86
480.23	462.90
480.60	462.43
480.96	461.88
481.33	463.07
481.69	463.40
482.06	463.67
482.42	464.64
482.79	465.05
483.15	465.21
483.52	466.95
483.88	467.62
484.25	468.74
484.61	470.45
484.98	472.21
485.34	474.76
485.71	476.93
486.07	478.55
486.44	478.79
486.80	481.10
487.17	483.19
487.53	486.24
487.90	489.17
488.26	493.07
488.62	497.36
488.99	499.88
489.35	503.57
489.72	506.86
490.08	510.38
490.44	514.05
490.81	518.57
491.17	522.19
491.54	526.76
491.90	531.36
492.26	536.29
492.63	541.62
492.99	546.26
493.36	551.17
493.72	556.79
494.08	562.69
494.45	568.95
494.81	575.67
495.17	581.55
495.54	588.40
495.90	593.98
496.26	600.33
496.63	607.95
496.99	614.64
497.35	622.64
497.72	630.26
498.08	638.10
498.44	645.69
498.80	654.33
499.17	662.36
499.53	670.64
499.89	679.33
500.26	687.79
500.62	696.88
500.98	706.43
501.34	715.55
501.71	725.07
502.07	734.83
502.43	744.12
502.79	753.52
503.16	762.50
503.52	772.38
503.88	781.17
504.24	790.93
504.60	800.93
504.97	811.26
505.33	821.26
505.69	832.36
506.05	842.90
506.41	852.24
506.78	862.40
507.14	871.98
507.50	881.95
507.86	892.00
508.22	902.83
508.59	912.26
508.95	922.76
509.31	933.52
509.67	943.24
510.03	952.86
510.39	963.31
510.75	973.55
511.12	983.79
511.48	994.60
511.84	1004.14
512.20	1014.67
512.56	1023.86
512.92	1033.81
513.28	1042.98
513.64	1052.21
514.00	1062.29
514.37	1071.93
514.73	1082.29
515.09	1091.93
515.45	1100.90
515.81	1110.45
516.17	1119.21
516.53	1128.02
516.89	1135.10
517.25	1143.21
517.61	1152.07
517.97	1160.62
518.33	1168.98
518.69	1177.12
519.05	1185.98
519.41	1194.38
519.77	1203.26
520.13	1211.07
520.49	1218.64
520.85	1226.24
521.21	1234.36
521.57	1241.86
521.93	1248.36
522.29	1255.50
522.65	1261.26
523.01	1268.24
523.37	1272.86
523.73	1279.62
524.09	1285.29
524.45	1291.71
524.81	1297.90
525.17	1302.98
525.53	1307.83
525.89	1313.05
526.25	1318.76
526.61	1322.50
526.97	1326.60
527.33	1330.60
527.68	1336.93
528.04	1340.83
528.40	1344.76
528.76	1348.98
529.12	1353.07
529.48	1358.40
529.84	1361.24
530.20	1365.38
530.56	1369.17
530.91	1373.62
531.27	1377.60
531.63	1381.17
531.99	1384.40
532.35	1387.74
532.71	1391.00
533.07	1395.14
533.42	1401.05
533.78	1403.86
534.14	1408.05
534.50	1411.05
534.86	1414.57
535.21	1416.19
535.57	1420.55
535.93	1423.21
536.29	1426.29
536.65	1428.52
537.00	1429.71
537.36	1432.48
537.72	1434.86
538.08	1437.26
538.44	1439.24
538.79	1440.76
539.15	1442.57
539.51	1445.02
539.87	1446.86
540.22	1448.93
540.58	1449.74
540.94	1449.48
541.29	1450.57
541.65	1450.50
542.01	1452.38
542.37	1452.38
542.72	1452.21
543.08	1450.88
543.44	1451.55
543.79	1450.29
544.15	1451.19
544.51	1452.19
544.87	1452.55
545.22	1453.45
545.58	1453.52
545.94	1453.14
546.29	1453.24
546.65	1452.76
547.01	1451.57
547.36	1451.19
547.72	1450.02
548.07	1449.79
548.43	1447.45
548.79	1445.64
549.14	1444.24
549.50	1443.17
549.86	1441.38
550.21	1440.50
550.57	1440.57
550.92	1439.10
551.28	1438.33
551.64	1436.24
551.99	1434.43
552.35	1431.93
552.70	1429.24
553.06	1428.02
553.41	1426.57
553.77	1425.95
554.13	1424.57
554.48	1424.50
554.84	1423.26
555.19	1422.33
555.55	1421.57
555.90	1420.79
556.26	1419.76
556.61	1419.19
556.97	1417.10
557.32	1415.26
557.68	1413.55
558.03	1412.14
558.39	1410.33
558.74	1409.83
559.10	1408.88
559.45	1407.62
559.81	1405.93
560.16	1405.12
560.52	1402.62
560.87	1400.57
561.23	1397.52
561.58	1398.17
561.94	1395.24
562.29	1393.21
562.64	1391.31
563.00	1388.64
563.35	1386.60
563.71	1386.07
564.06	1383.93
564.42	1382.43
564.77	1381.74
565.12	1380.60
565.48	1380.60
565.83	1379.69
566.19	1377.62
566.54	1375.36
566.89	1373.48
567.25	1374.60
567.60	1374.88
567.96	1375.67
568.31	1376.40
568.66	1376.26
569.02	1372.50
569.37	1371.17
569.72	1369.02
570.08	1366.86
570.43	1364.81
570.78	1363.60
571.14	1361.40
571.49	1359.67
571.84	1357.69
572.20	1355.21
572.55	1352.95
572.90	1348.55
573.26	1345.69
573.61	1342.52
573.96	1340.45
574.31	1338.10
574.67	1333.60
575.02	1328.86
575.37	1323.48
575.72	1319.05
576.08	1314.86
576.43	1312.40
576.78	1308.69
577.13	1306.17
577.49	1302.67
577.84	1299.79
578.19	1295.88
578.54	1292.14
578.90	1288.38
579.25	1283.88
579.60	1279.57
579.95	1275.14
580.30	1270.93
580.66	1267.43
581.01	1264.14
581.36	1259.81
581.71	1255.81
582.06	1253.36
582.42	1249.71
582.77	1246.12
583.12	1241.95
583.47	1238.07
583.82	1234.05
584.17	1230.36
584.53	1227.05
584.88	1223.55
585.23	1219.60
585.58	1215.86
585.93	1210.90
586.28	1207.12
586.63	1204.26
586.98	1200.79
587.34	1197.88
587.69	1193.93
588.04	1189.45
588.39	1184.90
588.74	1180.26
589.09	1175.62
589.44	1169.29
589.79	1164.29
590.14	1159.55
590.49	1154.57
590.84	1150.12
591.19	1145.12
591.54	1140.90
591.89	1135.33
592.25	1132.98
592.60	1127.79
592.95	1123.57
593.30	1120.05
593.65	1114.88
594.00	1109.48
594.35	1110.36
594.70	1105.17
595.05	1100.83
595.40	1096.12
595.75	1091.36
596.10	1088.12
596.45	1084.50
596.80	1081.02
597.15	1076.31
597.50	1071.81
597.85	1068.93
598.19	1064.14
598.54	1059.43
598.89	1054.14
599.24	1050.07
599.59	1044.24
599.94	1039.21
600.29	1034.29
600.64	1029.57
600.99	1025.95
601.34	1022.14
601.69	1012.43
602.04	1007.81
602.39	1002.98
602.74	999.36
603.08	995.71
603.43	991.74
603.78	987.07
604.13	982.14
604.48	977.83
604.83	974.33
605.18	969.45
605.53	965.00
605.87	960.95
606.22	956.95
606.57	952.67
606.92	948.10
607.27	944.43
607.62	940.17
607.96	936.52
608.31	932.62
608.66	928.48
609.01	924.24
609.36	920.76
609.70	916.62
610.05	912.38
610.40	907.38
610.75	902.24
611.10	898.10
611.44	893.86
611.79	890.21
612.14	885.57
612.49	880.45
612.83	876.50
613.18	871.71
613.53	867.24
613.88	862.45
614.22	857.33
614.57	852.67
614.92	847.88
615.27	842.81
615.61	837.45
615.96	832.64
616.31	827.79
616.65	823.21
617.00	819.02
617.35	813.90
617.70	809.69
618.04	805.17
618.39	800.43
618.74	796.60
619.08	792.14
619.43	787.79
619.78	783.31
620.12	779.40
620.47	775.71
620.82	772.00
621.16	767.60
621.51	765.05
621.85	761.38
622.20	758.07
622.55	753.62
622.89	749.64
623.24	746.17
623.59	742.74
623.93	739.12
624.28	735.48
624.62	734.21
624.97	732.29
625.32	728.38
625.66	725.00
626.01	720.50
626.35	716.81
626.70	712.83
627.04	710.31
627.39	706.90
627.73	703.79
628.08	700.52
628.43	697.48
628.77	693.14
629.12	689.93
629.46	686.45
629.81	683.40
630.15	680.48
630.50	676.10
630.84	672.60
631.19	668.52
631.53	664.86
631.88	658.76
632.22	653.36
632.57	650.81
632.91	647.12
633.26	644.29
633.60	640.62
633.95	637.62
634.29	633.69
634.64	629.86
634.98	626.14
635.32	623.43
635.67	620.29
636.01	616.52
636.36	612.93
636.70	609.98
637.05	606.62
637.39	603.38
637.73	600.67
638.08	597.86
638.42	594.83
638.77	592.43
639.11	590.24
639.45	587.31
639.80	583.57
640.14	580.71
640.49	577.60
640.83	574.14
641.17	571.10
641.52	568.10
641.86	565.45
642.20	563.62
642.55	559.86
642.89	556.79
643.23	554.40
643.58	552.14
643.92	548.10
644.26	545.17
644.61	542.45
644.95	539.74
645.29	536.71
645.64	534.57
645.98	530.98
646.32	528.40
646.66	525.86
647.01	523.19
647.35	520.05
647.69	517.76
648.04	516.05
648.38	513.76
648.72	511.71
649.06	508.14
649.41	503.90
649.75	500.98
650.09	498.52
650.43	495.52
650.78	492.57
651.12	490.38
651.46	487.79
651.80	485.26
652.14	482.69
652.49	480.45
652.83	477.19
653.17	474.90
653.51	471.86
653.85	469.83
654.20	467.17
654.54	464.67
654.88	461.86
655.22	460.43
655.56	457.60
655.90	455.07
656.25	453.38
656.59	451.95
656.93	450.29
657.27	448.62
657.61	446.21
657.95	444.05
658.29	441.60
658.64	440.14
658.98	437.76
659.32	435.52
659.66	433.12
660.00	431.45
660.34	429.52
660.68	428.14
661.02	425.45
661.36	423.71
661.70	421.79
662.05	419.90
662.39	417.24
662.73	416.31
663.07	415.38
663.41	413.55
663.75	411.36
664.09	409.26
664.43	406.57
664.77	405.33
665.11	403.21
665.45	401.71
665.79	400.31
666.13	398.64
666.47	396.93
666.81	395.00
667.15	392.95
667.49	391.38
667.83	390.29
668.17	388.93
668.51	387.36
668.85	386.33
669.19	385.55
669.53	383.43
669.87	381.36
670.21	378.86
670.55	377.60
670.89	376.98
671.23	375.62
671.57	374.24
671.91	372.71
672.25	371.52
672.58	371.02
672.92	368.76
673.26	367.21
673.60	365.81
673.94	365.07
674.28	363.98
674.62	363.05
674.96	360.79
675.30	359.64
675.64	358.40
675.97	356.90
676.31	355.05
676.65	353.76
676.99	352.98
677.33	351.38
677.67	350.24
678.01	348.02
678.34	346.86
678.68	346.17
679.02	344.60
679.36	343.14
679.70	341.26
680.04	340.14
680.37	339.05
680.71	337.86
681.05	336.40
681.39	335.19
681.73	333.55
682.06	332.10
682.40	330.74
682.74	329.62
683.08	329.31
683.42	327.95
683.75	327.38
684.09	325.90
684.43	324.90
684.77	323.36
685.10	322.60
685.44	321.69
685.78	320.29
686.12	319.69
686.45	318.71
686.79	317.26
687.13	316.60
687.46	315.81
687.80	315.52
688.14	314.33
688.48	313.48
688.81	312.76
689.15	312.33
689.49	310.98
689.82	310.07
690.16	308.17
690.50	307.36
690.83	306.24
691.17	304.64
691.51	303.79
691.84	303.36
692.18	302.29
692.52	300.98
692.85	300.17
693.19	299.76
693.52	298.83
693.86	298.38
694.20	297.50
694.53	296.74
694.87	295.33
695.21	294.45
695.54	293.26
695.88	292.17
696.21	290.74
696.55	290.31
696.88	289.52
697.22	288.81
697.56	288.05
697.89	287.10
698.23	286.86
698.56	285.81
698.90	285.02
699.23	284.14
699.57	283.64
699.90	282.88
700.24	281.50
700.58	281.10
700.91	280.62
701.25	281.10
701.58	280.67
701.92	280.50
702.25	280.05
702.59	279.52
702.92	278.69
703.26	278.33
703.59	277.69
703.93	278.74
704.26	278.52
704.60	277.90
704.93	277.07
705.26	276.12
705.60	275.88
705.93	275.05
706.27	275.31
706.60	274.98
706.94	275.05
707.27	274.29
707.61	273.69
707.94	272.98
708.27	271.14
708.61	269.93
708.94	269.29
709.28	268.67
709.61	267.88
709.94	267.57
710.28	267.24
710.61	266.60
710.95	263.86
711.28	264.67
711.61	264.36
711.95	264.36
712.28	263.62
712.61	262.90
712.95	263.43
713.28	263.33
713.61	262.62
713.95	261.50
714.28	261.02
714.61	260.36
714.95	259.81
715.28	258.95
715.61	258.50
715.95	257.76
716.28	257.29
716.61	257.43
716.95	256.74
717.28	256.19
717.61	255.86
717.94	255.76
718.28	253.79
718.61	253.17
718.94	252.31
719.27	252.31
719.61	252.40
719.94	251.29
720.27	249.93
720.60	249.19
720.94	249.07
721.27	249.17
721.60	249.38
721.93	248.86
722.27	249.48
722.60	249.38
722.93	249.10
723.26	249.00
723.59	248.17
723.93	248.33
724.26	248.21
724.59	247.62
724.92	247.55
725.25	247.67
725.59	247.21
725.92	247.26
726.25	246.76
726.58	246.31
726.91	246.07
727.24	246.05
727.57	246.19
727.91	245.50
728.24	245.45
728.57	244.55
728.90	244.62
729.23	243.71
729.56	244.31
729.89	243.90
730.22	243.24
730.55	243.00
730.89	242.40
731.22	241.52
731.55	241.31
731.88	241.00
732.21	240.33
732.54	240.02
732.87	239.60
733.20	239.36
733.53	239.19
733.86	239.07
734.19	238.50
734.52	238.45
734.85	239.45
735.18	238.67
735.51	239.19
735.84	238.90
736.17	239.12
736.50	238.02
736.83	240.12
737.16	239.88
737.49	239.93
737.82	239.76
738.15	240.24
738.48	240.02
738.81	239.64
739.14	239.07
739.47	238.79
739.80	238.69
740.13	239.00
740.46	238.36
740.79	237.83
741.12	237.55
741.45	237.07
741.78	235.83
742.11	236.33
742.44	235.60
742.77	235.93
743.10	235.31
743.43	234.83
743.75	232.60
744.08	235.21
744.41	234.71
744.74	234.38
745.07	233.57
745.40	233.43
745.73	234.36
746.06	234.43
746.39	234.38
746.71	233.81
747.04	233.07
747.37	232.79
747.70	232.62
748.03	232.81
748.36	232.90
748.68	232.43
749.01	231.69
749.34	231.52
749.67	231.19
750.00	231.29
750.33	232.90
750.65	232.90
750.98	230.12
751.31	230.19
751.64	230.10
751.97	231.31
752.29	231.40
752.62	230.17
752.95	229.88
753.28	229.83
753.60	229.81
753.93	230.19
754.26	230.19
754.59	229.55
754.91	229.31
755.24	228.79
755.57	228.90
755.90	228.67
756.22	228.36
756.55	227.74
756.88	227.29
757.20	225.57
757.53	224.86
757.86	224.88
758.19	224.79
758.51	224.81
758.84	223.69
759.17	223.52
759.49	223.19
759.82	224.24
760.15	224.38
760.47	224.38
760.80	223.86
761.13	224.17
761.45	224.21
761.78	224.19
762.11	224.10
762.43	223.90
762.76	223.98
763.08	224.17
763.41	224.07
763.74	224.10
764.06	224.21
764.39	224.26
764.71	224.05
765.04	223.71
765.37	223.40
765.69	223.31
766.02	223.07
766.34	223.10
766.67	222.17
767.00	222.19
767.32	223.21
767.65	224.14
767.97	223.93
768.30	224.14
768.62	223.79
768.95	223.52
769.27	223.57
769.60	223.60
769.92	223.33
770.25	223.24
770.57	222.98
770.90	222.64
771.22	222.48
771.55	222.52
771.87	222.57
772.20	222.31
772.52	223.86
772.85	226.21
773.17	226.29
773.50	226.07
773.82	225.48
774.15	224.29
774.47	223.24
774.80	223.12
775.12	222.88
775.45	222.62
775.77	222.69
776.09	222.76
776.42	222.74
776.74	223.24
777.07	223.12
777.39	223.00
777.72	222.79
778.04	222.98
778.36	222.52
778.69	222.57
779.01	222.67
779.33	220.74
779.66	218.19
779.98	218.05
780.31	218.21
780.63	219.17
780.95	219.40
781.28	219.14
781.60	218.76
781.92	218.55
782.25	218.86
782.57	218.90
782.89	218.52
783.22	218.24
783.54	217.60
783.86	217.69
784.19	217.64
784.51	218.31
784.83	217.86
785.16	217.83
785.48	217.86
785.80	218.00
786.12	218.40
786.45	218.57
786.77	218.67
787.09	218.21
787.42	217.33
787.74	217.40
788.06	217.50
