SpectraSuite Data File
++++++++++++++++++++++++++++++++++++
Date: Tue Apr 02 18:41:32 EDT 2013
User: group
Dark Spectrum Present: No
Reference Spectrum Present: No
Number of Sampled Component Spectra: 1
Spectrometers: USB2E7196
Integration Time (usec): 580000 (USB2E7196)
Spectra Averaged: 2 (USB2E7196)
Boxcar Smoothing: 10 (USB2E7196)
Correct for Electrical Dark: No (USB2E7196)
Strobe/Lamp Enabled: No (USB2E7196)
Correct for Detector Non-linearity: No (USB2E7196)
Correct for Stray Light: No (USB2E7196)
Number of Pixels in Processed Spectrum: 2048
>>>>>Begin Processed Spectral Data<<<<<
339.09	0.00
339.48	192.00
339.86	195.00
340.24	194.00
340.63	197.50
341.01	233.00
341.39	200.00
341.78	208.00
342.16	209.00
342.54	206.50
342.93	197.19
343.31	207.00
343.69	207.57
344.07	208.02
344.46	209.12
344.84	209.86
345.22	208.45
345.60	209.05
345.99	209.31
346.37	209.45
346.75	209.64
347.13	209.69
347.52	209.79
347.90	210.60
348.28	210.62
348.66	211.02
349.05	210.60
349.43	211.40
349.81	211.50
350.19	211.60
350.57	211.90
350.96	212.14
351.34	212.21
351.72	212.57
352.10	212.81
352.48	212.57
352.87	212.45
353.25	212.98
353.63	212.69
354.01	212.74
354.39	212.76
354.77	212.74
355.15	213.31
355.54	212.90
355.92	212.50
356.30	212.67
356.68	213.95
357.06	214.24
357.44	213.86
357.82	213.74
358.20	214.71
358.58	214.79
358.97	214.79
359.35	215.45
359.73	215.69
360.11	215.79
360.49	215.81
360.87	215.88
361.25	216.00
361.63	217.10
362.01	217.05
362.39	216.83
362.77	217.17
363.15	217.14
363.53	217.29
363.91	217.31
364.29	217.10
364.67	215.07
365.05	215.00
365.43	215.24
365.81	215.40
366.19	215.33
366.57	215.86
366.95	215.76
367.33	215.33
367.71	215.52
368.09	215.64
368.47	215.55
368.85	215.43
369.23	215.83
369.61	215.05
369.99	215.57
370.37	215.93
370.75	216.64
371.13	216.36
371.51	216.24
371.89	216.45
372.27	216.79
372.65	217.12
373.03	217.00
373.41	216.86
373.78	216.90
374.16	216.05
374.54	215.43
374.92	215.36
375.30	215.33
375.68	214.64
376.06	214.79
376.44	214.79
376.82	214.90
377.19	214.57
377.57	214.31
377.95	213.69
378.33	213.62
378.71	212.50
379.09	212.52
379.47	212.88
379.84	212.55
380.22	212.17
380.60	211.69
380.98	211.90
381.36	211.95
381.73	211.76
382.11	212.36
382.49	212.74
382.87	212.69
383.25	212.64
383.62	215.10
384.00	214.83
384.38	214.98
384.76	215.48
385.13	216.36
385.51	216.64
385.89	216.55
386.27	216.62
386.64	217.12
387.02	216.81
387.40	216.21
387.78	216.57
388.15	216.86
388.53	216.98
388.91	216.81
389.29	216.55
389.66	216.74
390.04	216.43
390.42	216.74
390.79	216.93
391.17	216.83
391.55	214.74
391.92	214.79
392.30	214.98
392.68	214.50
393.05	214.36
393.43	214.19
393.81	214.38
394.18	214.14
394.56	214.10
394.94	214.74
395.31	214.98
395.69	215.71
396.06	215.88
396.44	216.05
396.82	215.93
397.19	217.19
397.57	217.05
397.95	217.17
398.32	216.43
398.70	216.31
399.07	216.86
399.45	216.74
399.82	216.76
400.20	216.50
400.58	216.64
400.95	215.76
401.33	216.10
401.70	217.38
402.08	217.62
402.45	217.62
402.83	218.33
403.20	218.40
403.58	217.95
403.95	218.64
404.33	219.07
404.71	219.38
405.08	220.45
405.46	220.76
405.83	221.31
406.21	221.69
406.58	222.21
406.96	222.62
407.33	223.31
407.70	223.90
408.08	225.98
408.45	226.69
408.83	227.64
409.20	228.24
409.58	227.79
409.95	229.17
410.33	230.00
410.70	229.93
411.08	231.48
411.45	232.64
411.82	233.31
412.20	234.95
412.57	237.57
412.95	237.21
413.32	238.98
413.69	240.00
414.07	241.81
414.44	243.62
414.82	245.38
415.19	247.81
415.56	250.29
415.94	251.98
416.31	254.93
416.68	257.81
417.06	261.33
417.43	265.14
417.81	268.36
418.18	272.43
418.55	276.81
418.93	280.81
419.30	285.05
419.67	289.40
420.04	293.48
420.42	297.33
420.79	304.57
421.16	310.26
421.54	317.55
421.91	323.95
422.28	330.50
422.66	337.38
423.03	345.33
423.40	352.19
423.77	359.26
424.15	366.86
424.52	374.86
424.89	383.62
425.26	391.62
425.64	399.50
426.01	407.55
426.38	416.29
426.75	425.74
427.13	434.88
427.50	445.14
427.87	455.67
428.24	466.31
428.61	475.14
428.99	486.81
429.36	497.55
429.73	509.07
430.10	520.52
430.47	532.88
430.85	543.86
431.22	557.10
431.59	571.74
431.96	584.79
432.33	598.62
432.70	612.52
433.08	628.86
433.45	644.57
433.82	660.76
434.19	678.26
434.56	695.64
434.93	711.93
435.30	728.19
435.68	746.17
436.05	764.26
436.42	780.90
436.79	797.48
437.16	815.38
437.53	834.02
437.90	852.40
438.27	870.79
438.64	889.19
439.01	906.95
439.38	921.93
439.75	936.52
440.13	954.10
440.50	969.93
440.87	983.31
441.24	996.93
441.61	1011.50
441.98	1022.38
442.35	1034.62
442.72	1048.10
443.09	1062.00
443.46	1070.26
443.83	1075.50
444.20	1081.29
444.57	1086.55
444.94	1089.81
445.31	1093.45
445.68	1099.64
446.05	1100.62
446.42	1099.26
446.79	1097.95
447.16	1095.48
447.53	1094.83
447.90	1088.33
448.27	1081.71
448.64	1072.81
449.01	1066.29
449.37	1055.26
449.74	1044.14
450.11	1032.48
450.48	1016.90
450.85	1000.55
451.22	987.48
451.59	974.81
451.96	962.86
452.33	947.52
452.70	932.71
453.07	914.76
453.43	894.17
453.80	877.38
454.17	861.45
454.54	845.26
454.91	828.48
455.28	812.02
455.65	797.07
456.02	785.33
456.38	772.62
456.75	756.95
457.12	742.93
457.49	729.57
457.86	714.64
458.23	704.36
458.59	692.43
458.96	680.10
459.33	669.07
459.70	658.02
460.07	649.43
460.43	639.95
460.80	631.17
461.17	623.81
461.54	615.33
461.91	606.64
462.27	598.02
462.64	590.98
463.01	583.10
463.38	576.19
463.74	565.57
464.11	558.33
464.48	552.29
464.85	546.24
465.21	542.07
465.58	537.43
465.95	531.31
466.32	525.67
466.68	519.64
467.05	514.81
467.42	509.29
467.78	503.50
468.15	498.10
468.52	494.31
468.88	488.38
469.25	483.07
469.62	480.12
469.98	475.71
470.35	472.21
470.72	468.43
471.08	463.67
471.45	460.76
471.82	457.52
472.18	453.67
472.55	450.74
472.92	446.43
473.28	443.21
473.65	440.50
474.02	438.14
474.38	436.74
474.75	434.24
475.11	432.64
475.48	431.12
475.85	429.07
476.21	426.69
476.58	425.76
476.94	424.79
477.31	423.21
477.67	422.76
478.04	421.90
478.41	420.81
478.77	422.29
479.14	420.95
479.50	420.21
479.87	419.81
480.23	419.67
480.60	419.90
480.96	420.02
481.33	420.43
481.69	420.10
482.06	419.93
482.42	420.90
482.79	420.74
483.15	421.02
483.52	422.40
483.88	423.45
484.25	424.12
484.61	424.86
484.98	425.55
485.34	427.31
485.71	428.43
486.07	430.02
486.44	429.57
486.80	431.00
487.17	432.95
487.53	435.60
487.90	437.71
488.26	440.52
488.62	442.74
488.99	444.48
489.35	447.48
489.72	450.29
490.08	452.33
490.44	455.26
490.81	458.64
491.17	461.52
491.54	465.24
491.90	469.05
492.26	472.98
492.63	477.02
492.99	479.81
493.36	483.48
493.72	488.38
494.08	492.88
494.45	497.76
494.81	502.88
495.17	507.26
495.54	512.50
495.90	516.57
496.26	521.95
496.63	527.55
496.99	532.50
497.35	538.14
497.72	544.17
498.08	550.14
498.44	556.52
498.80	563.21
499.17	569.43
499.53	575.43
499.89	582.76
500.26	589.60
500.62	596.93
500.98	605.10
501.34	612.14
501.71	619.69
502.07	626.64
502.43	634.17
502.79	641.74
503.16	648.81
503.52	656.98
503.88	663.90
504.24	671.40
504.60	680.10
504.97	688.40
505.33	696.12
505.69	704.40
506.05	711.55
506.41	718.88
506.78	726.29
507.14	734.10
507.50	741.55
507.86	750.12
508.22	758.10
508.59	765.07
508.95	772.83
509.31	781.69
509.67	789.62
510.03	796.88
510.39	804.86
510.75	813.12
511.12	821.36
511.48	829.38
511.84	837.40
512.20	844.62
512.56	852.50
512.92	860.81
513.28	869.02
513.64	876.60
514.00	884.19
514.37	891.74
514.73	899.60
515.09	907.52
515.45	914.14
515.81	920.93
516.17	928.67
516.53	935.69
516.89	941.74
517.25	948.86
517.61	956.38
517.97	962.95
518.33	969.14
518.69	975.31
519.05	982.05
519.41	988.38
519.77	996.00
520.13	1001.76
520.49	1007.31
520.85	1012.48
521.21	1020.00
521.57	1026.43
521.93	1032.14
522.29	1037.90
522.65	1042.90
523.01	1049.52
523.37	1055.07
523.73	1060.17
524.09	1065.31
524.45	1069.98
524.81	1075.60
525.17	1080.48
525.53	1085.64
525.89	1090.93
526.25	1096.36
526.61	1100.79
526.97	1105.83
527.33	1109.93
527.68	1116.48
528.04	1121.29
528.40	1125.50
528.76	1129.12
529.12	1133.55
529.48	1138.79
529.84	1143.19
530.20	1148.36
530.56	1152.07
530.91	1157.52
531.27	1161.79
531.63	1166.62
531.99	1171.19
532.35	1175.31
532.71	1179.24
533.07	1184.07
533.42	1190.26
533.78	1194.52
534.14	1199.83
534.50	1203.62
534.86	1208.43
535.21	1210.40
535.57	1215.74
535.93	1220.64
536.29	1225.64
536.65	1230.21
537.00	1233.88
537.36	1238.05
537.72	1241.17
538.08	1245.69
538.44	1248.50
538.79	1252.71
539.15	1255.79
539.51	1259.43
539.87	1263.50
540.22	1267.50
540.58	1270.45
540.94	1272.31
541.29	1275.50
541.65	1277.76
542.01	1282.21
542.37	1285.26
542.72	1288.90
543.08	1290.52
543.44	1293.67
543.79	1295.79
544.15	1298.48
544.51	1302.19
544.87	1305.24
545.22	1309.36
545.58	1311.76
545.94	1316.05
546.29	1319.93
546.65	1323.50
547.01	1326.79
547.36	1329.52
547.72	1332.50
548.07	1335.90
548.43	1338.93
548.79	1341.83
549.14	1345.57
549.50	1348.79
549.86	1351.14
550.21	1354.14
550.57	1358.45
550.92	1361.76
551.28	1365.38
551.64	1369.38
551.99	1372.74
552.35	1376.60
552.70	1379.67
553.06	1383.83
553.41	1386.57
553.77	1390.62
554.13	1394.71
554.48	1399.05
554.84	1403.36
555.19	1407.60
555.55	1413.36
555.90	1418.00
556.26	1422.24
556.61	1426.21
556.97	1429.69
557.32	1434.02
557.68	1438.43
558.03	1443.19
558.39	1447.52
558.74	1451.69
559.10	1455.69
559.45	1460.55
559.81	1464.74
560.16	1469.43
560.52	1473.12
560.87	1478.07
561.23	1481.00
561.58	1486.83
561.94	1490.71
562.29	1495.24
562.64	1500.52
563.00	1503.88
563.35	1508.17
563.71	1513.40
564.06	1519.00
564.42	1524.26
564.77	1530.88
565.12	1537.36
565.48	1543.48
565.83	1549.38
566.19	1554.93
566.54	1560.40
566.89	1565.62
567.25	1572.14
567.60	1578.83
567.96	1586.33
568.31	1592.86
568.66	1600.14
569.02	1604.67
569.37	1610.67
569.72	1616.38
570.08	1621.48
570.43	1626.52
570.78	1632.31
571.14	1637.95
571.49	1643.38
571.84	1648.76
572.20	1652.50
572.55	1656.31
572.90	1659.95
573.26	1664.31
573.61	1668.50
573.96	1673.24
574.31	1677.69
574.67	1681.55
575.02	1684.21
575.37	1686.81
575.72	1689.57
576.08	1692.14
576.43	1695.12
576.78	1697.88
577.13	1700.98
577.49	1703.88
577.84	1708.36
578.19	1711.88
578.54	1715.43
578.90	1719.12
579.25	1722.24
579.60	1725.05
579.95	1728.26
580.30	1730.98
580.66	1734.12
581.01	1738.21
581.36	1740.07
581.71	1742.48
582.06	1746.21
582.42	1749.17
582.77	1751.55
583.12	1754.38
583.47	1757.19
583.82	1760.10
584.17	1763.71
584.53	1767.10
584.88	1768.67
585.23	1771.12
585.58	1772.33
585.93	1772.79
586.28	1774.45
586.63	1776.60
586.98	1779.50
587.34	1781.64
587.69	1783.81
588.04	1785.31
588.39	1786.10
588.74	1787.74
589.09	1788.38
589.44	1787.36
589.79	1789.05
590.14	1790.26
590.49	1791.40
590.84	1792.07
591.19	1793.64
591.54	1794.12
591.89	1793.90
592.25	1796.36
592.60	1796.26
592.95	1796.93
593.30	1799.12
593.65	1799.02
594.00	1798.55
594.35	1803.76
594.70	1802.69
595.05	1802.24
595.40	1802.52
595.75	1802.12
596.10	1802.67
596.45	1803.83
596.80	1803.93
597.15	1803.55
597.50	1803.26
597.85	1803.26
598.19	1803.02
598.54	1802.24
598.89	1801.57
599.24	1802.21
599.59	1801.74
599.94	1800.95
600.29	1801.33
600.64	1800.07
600.99	1800.12
601.34	1800.43
601.69	1793.90
602.04	1793.74
602.39	1792.69
602.74	1791.19
603.08	1790.76
603.43	1790.90
603.78	1789.90
604.13	1789.60
604.48	1787.38
604.83	1786.86
605.18	1785.95
605.53	1784.95
605.87	1783.33
606.22	1781.95
606.57	1779.24
606.92	1776.90
607.27	1775.19
607.62	1772.95
607.96	1771.62
608.31	1770.17
608.66	1768.19
609.01	1766.10
609.36	1764.69
609.70	1761.64
610.05	1758.90
610.40	1756.90
610.75	1752.31
611.10	1749.12
611.44	1745.38
611.79	1742.83
612.14	1740.14
612.49	1735.55
612.83	1731.81
613.18	1728.31
613.53	1724.76
613.88	1721.19
614.22	1716.57
614.57	1711.95
614.92	1708.00
615.27	1703.17
615.61	1697.88
615.96	1692.05
616.31	1688.26
616.65	1684.12
617.00	1681.24
617.35	1678.52
617.70	1673.98
618.04	1669.40
618.39	1664.93
618.74	1660.81
619.08	1655.64
619.43	1650.45
619.78	1646.12
620.12	1642.38
620.47	1638.33
620.82	1633.29
621.16	1627.36
621.51	1624.00
621.85	1619.21
622.20	1614.10
622.55	1608.86
622.89	1603.24
623.24	1599.95
623.59	1594.31
623.93	1589.79
624.28	1585.21
624.62	1581.24
624.97	1576.76
625.32	1572.64
625.66	1567.88
626.01	1563.48
626.35	1559.00
626.70	1554.17
627.04	1550.88
627.39	1545.24
627.73	1540.86
628.08	1537.19
628.43	1533.98
628.77	1529.07
629.12	1524.95
629.46	1520.45
629.81	1516.00
630.15	1511.26
630.50	1505.83
630.84	1500.43
631.19	1494.17
631.53	1488.17
631.88	1480.17
632.22	1473.88
632.57	1469.24
632.91	1463.52
633.26	1458.64
633.60	1453.45
633.95	1447.76
634.29	1440.76
634.64	1436.00
634.98	1429.17
635.32	1424.52
635.67	1419.36
636.01	1414.00
636.36	1408.29
636.70	1403.17
637.05	1398.00
637.39	1393.21
637.73	1387.38
638.08	1383.67
638.42	1378.98
638.77	1374.86
639.11	1370.14
639.45	1364.29
639.80	1357.29
640.14	1351.36
640.49	1345.02
640.83	1338.83
641.17	1332.90
641.52	1327.12
641.86	1321.33
642.20	1317.24
642.55	1309.69
642.89	1303.17
643.23	1296.00
643.58	1291.10
643.92	1283.95
644.26	1277.71
644.61	1272.05
644.95	1265.43
645.29	1258.00
645.64	1251.38
645.98	1243.81
646.32	1237.81
646.66	1231.19
647.01	1225.57
647.35	1219.83
647.69	1212.95
648.04	1208.21
648.38	1202.14
648.72	1196.81
649.06	1189.79
649.41	1182.05
649.75	1175.38
650.09	1168.64
650.43	1162.50
650.78	1154.62
651.12	1148.40
651.46	1141.26
651.80	1133.50
652.14	1127.50
652.49	1121.45
652.83	1114.86
653.17	1107.95
653.51	1101.00
653.85	1095.43
654.20	1088.69
654.54	1081.69
654.88	1075.76
655.22	1068.69
655.56	1061.88
655.90	1054.21
656.25	1047.43
656.59	1040.90
656.93	1034.79
657.27	1029.31
657.61	1022.76
657.95	1016.48
658.29	1009.81
658.64	1004.95
658.98	998.69
659.32	991.40
659.66	984.95
660.00	979.07
660.34	972.90
660.68	966.24
661.02	959.33
661.36	953.02
661.70	946.69
662.05	940.21
662.39	933.90
662.73	928.71
663.07	924.14
663.41	919.10
663.75	912.67
664.09	906.83
664.43	899.81
664.77	894.12
665.11	887.90
665.45	882.71
665.79	875.83
666.13	869.38
666.47	864.93
666.81	859.57
667.15	853.24
667.49	848.24
667.83	843.83
668.17	838.38
668.51	832.88
668.85	828.00
669.19	823.48
669.53	817.81
669.87	811.55
670.21	805.40
670.55	799.50
670.89	795.60
671.23	790.83
671.57	786.00
671.91	780.93
672.25	775.98
672.58	771.60
672.92	766.14
673.26	761.88
673.60	755.90
673.94	750.83
674.28	746.36
674.62	741.79
674.96	736.38
675.30	732.31
675.64	727.95
675.97	723.50
676.31	718.36
676.65	713.60
676.99	709.76
677.33	704.81
677.67	700.14
678.01	694.67
678.34	689.55
678.68	685.57
679.02	680.79
679.36	675.98
679.70	670.81
680.04	667.14
680.37	663.00
680.71	658.88
681.05	654.69
681.39	650.45
681.73	645.83
682.06	641.64
682.40	636.98
682.74	632.86
683.08	628.76
683.42	623.74
683.75	620.14
684.09	615.17
684.43	610.45
684.77	606.17
685.10	601.71
685.44	597.40
685.78	592.50
686.12	588.38
686.45	584.67
686.79	579.81
687.13	575.57
687.46	571.36
687.80	568.10
688.14	563.69
688.48	559.55
688.81	555.50
689.15	552.50
689.49	548.36
689.82	544.38
690.16	539.83
690.50	536.29
690.83	531.86
691.17	527.93
691.51	524.86
691.84	521.50
692.18	517.67
692.52	513.93
692.85	510.81
693.19	507.69
693.52	504.29
693.86	501.31
694.20	497.52
694.53	494.24
694.87	490.29
695.21	486.79
695.54	483.21
695.88	479.43
696.21	474.86
696.55	471.98
696.88	468.48
697.22	465.00
697.56	462.38
697.89	458.90
698.23	456.07
698.56	452.64
698.90	449.71
699.23	446.74
699.57	444.36
699.90	441.55
700.24	438.00
700.58	435.14
700.91	432.74
701.25	431.62
701.58	429.57
701.92	427.40
702.25	424.86
702.59	421.90
702.92	419.45
703.26	417.21
703.59	414.29
703.93	413.69
704.26	411.55
704.60	408.95
704.93	406.50
705.26	404.07
705.60	402.21
705.93	399.31
706.27	397.93
706.60	395.57
706.94	393.86
707.27	391.88
707.61	389.79
707.94	387.02
708.27	383.12
708.61	380.10
708.94	377.55
709.28	375.26
709.61	373.45
709.94	371.52
710.28	369.24
710.61	367.57
710.95	363.86
711.28	363.36
711.61	361.40
711.95	360.48
712.28	358.33
712.61	356.26
712.95	355.74
713.28	354.67
713.61	352.67
713.95	350.24
714.28	348.71
714.61	347.12
714.95	345.43
715.28	343.95
715.61	342.57
715.95	341.38
716.28	339.71
716.61	338.36
716.95	336.55
717.28	334.90
717.61	333.26
717.94	331.40
718.28	328.52
718.61	326.93
718.94	325.02
719.27	323.48
719.61	322.24
719.94	320.10
720.27	317.64
720.60	316.24
720.94	314.79
721.27	313.50
721.60	312.17
721.93	310.88
722.27	310.26
722.60	309.14
722.93	307.67
723.26	306.74
723.59	305.29
723.93	304.79
724.26	304.26
724.59	302.79
724.92	302.12
725.25	301.62
725.59	300.50
725.92	299.62
726.25	298.86
726.58	298.00
726.91	297.10
727.24	296.21
727.57	295.29
727.91	294.31
728.24	293.81
728.57	292.83
728.90	292.14
729.23	290.43
729.56	290.29
729.89	289.50
730.22	288.69
730.55	287.79
730.89	286.88
731.22	285.67
731.55	284.98
731.88	284.24
732.21	283.14
732.54	282.19
732.87	281.26
733.20	280.57
733.53	279.64
733.86	278.88
734.19	277.98
734.52	277.45
734.85	278.21
735.18	276.79
735.51	276.67
735.84	276.07
736.17	275.98
736.50	274.50
736.83	276.07
737.16	275.10
737.49	274.33
737.82	273.45
738.15	273.36
738.48	272.43
738.81	271.43
739.14	270.36
739.47	269.60
739.80	268.88
740.13	268.21
740.46	267.38
740.79	266.29
741.12	265.60
741.45	264.64
741.78	262.81
742.11	263.07
742.44	261.98
742.77	261.55
743.10	260.88
743.43	259.98
743.75	257.12
744.08	259.21
744.41	258.67
744.74	258.00
745.07	256.88
745.40	257.02
745.73	257.43
746.06	257.24
746.39	257.02
746.71	256.33
747.04	255.62
747.37	254.71
747.70	254.81
748.03	254.43
748.36	254.10
748.68	253.38
749.01	252.36
749.34	251.81
749.67	251.50
750.00	251.45
750.33	252.71
750.65	252.67
750.98	249.64
751.31	249.26
751.64	249.07
751.97	249.88
752.29	249.43
752.62	248.05
752.95	247.40
753.28	246.76
753.60	246.26
753.93	246.57
754.26	246.57
754.59	245.48
754.91	244.90
755.24	244.36
755.57	244.07
755.90	243.55
756.22	243.14
756.55	242.33
756.88	241.29
757.20	239.33
757.53	238.19
757.86	237.88
758.19	237.67
758.51	237.26
758.84	235.67
759.17	235.05
759.49	235.05
759.82	235.76
760.15	235.81
760.47	235.81
760.80	234.90
761.13	234.95
761.45	234.83
761.78	234.83
762.11	234.69
762.43	234.33
762.76	234.00
763.08	233.67
763.41	233.67
763.74	233.57
764.06	233.48
764.39	233.26
764.71	232.98
765.04	232.62
765.37	232.21
765.69	231.98
766.02	231.81
766.34	231.24
766.67	230.17
767.00	230.17
767.32	230.93
767.65	231.93
767.97	231.52
768.30	231.40
768.62	231.14
768.95	230.76
769.27	230.48
769.60	230.69
769.92	230.57
770.25	230.17
770.57	229.45
770.90	229.24
771.22	229.12
771.55	229.00
771.87	228.90
772.20	228.48
772.52	230.05
772.85	232.48
773.17	232.60
773.50	232.29
773.82	231.95
774.15	230.55
774.47	229.00
774.80	228.74
775.12	228.60
775.45	228.40
775.77	228.40
776.09	228.64
776.42	228.45
776.74	228.93
777.07	228.52
777.39	228.83
777.72	228.48
778.04	228.79
778.36	228.43
778.69	228.43
779.01	228.50
779.33	226.64
779.66	224.17
779.98	223.81
780.31	223.88
780.63	224.45
780.95	225.21
781.28	225.19
781.60	224.88
781.92	224.64
782.25	224.33
782.57	224.31
782.89	224.02
783.22	223.74
783.54	223.02
783.86	223.14
784.19	222.90
784.51	223.57
784.83	223.02
785.16	223.10
