SpectraSuite Data File
++++++++++++++++++++++++++++++++++++
Date: Tue Apr 02 18:38:19 EDT 2013
User: group
Dark Spectrum Present: No
Reference Spectrum Present: No
Number of Sampled Component Spectra: 1
Spectrometers: USB2E7196
Integration Time (usec): 580000 (USB2E7196)
Spectra Averaged: 2 (USB2E7196)
Boxcar Smoothing: 10 (USB2E7196)
Correct for Electrical Dark: No (USB2E7196)
Strobe/Lamp Enabled: No (USB2E7196)
Correct for Detector Non-linearity: No (USB2E7196)
Correct for Stray Light: No (USB2E7196)
Number of Pixels in Processed Spectrum: 2048
>>>>>Begin Processed Spectral Data<<<<<
339.09	0.00
339.48	192.00
339.86	198.00
340.24	198.50
340.63	195.00
341.01	230.50
341.39	199.50
341.78	208.50
342.16	210.50
342.54	204.00
342.93	198.29
343.31	208.00
343.69	208.71
344.07	209.05
344.46	209.93
344.84	210.64
345.22	209.60
345.60	210.02
345.99	210.24
346.37	210.19
346.75	210.48
347.13	210.50
347.52	210.71
347.90	211.60
348.28	211.69
348.66	212.26
349.05	211.60
349.43	211.76
349.81	212.00
350.19	211.95
350.57	212.17
350.96	212.29
351.34	212.76
351.72	212.81
352.10	213.12
352.48	212.88
352.87	212.86
353.25	213.00
353.63	213.07
354.01	213.00
354.39	213.31
354.77	213.26
355.15	213.86
355.54	213.69
355.92	213.02
356.30	213.02
356.68	214.33
357.06	214.55
357.44	214.07
357.82	213.79
358.20	214.57
358.58	214.48
358.97	214.33
359.35	214.48
359.73	215.07
360.11	214.98
360.49	214.83
360.87	214.98
361.25	215.14
361.63	215.83
362.01	215.93
362.39	215.64
362.77	215.76
363.15	215.50
363.53	215.50
363.91	215.81
364.29	215.81
364.67	213.83
365.05	213.90
365.43	214.57
365.81	214.86
366.19	215.07
366.57	215.95
366.95	216.14
367.33	215.95
367.71	215.67
368.09	216.19
368.47	216.36
368.85	216.29
369.23	216.76
369.61	215.88
369.99	216.45
370.37	216.62
370.75	217.55
371.13	217.21
371.51	216.93
371.89	216.98
372.27	217.33
372.65	217.40
373.03	217.50
373.41	217.02
373.78	217.00
374.16	216.00
374.54	215.29
374.92	214.74
375.30	214.67
375.68	214.33
376.06	214.33
376.44	214.24
376.82	214.31
377.19	214.00
377.57	214.10
377.95	213.38
378.33	213.43
378.71	212.38
379.09	212.93
379.47	213.38
379.84	213.12
380.22	212.55
380.60	212.26
380.98	212.05
381.36	212.12
381.73	211.83
382.11	212.12
382.49	212.12
382.87	212.17
383.25	212.07
383.62	214.71
384.00	214.45
384.38	214.52
384.76	215.17
385.13	215.88
385.51	215.83
385.89	215.69
386.27	215.62
386.64	216.05
387.02	215.71
387.40	215.52
387.78	215.55
388.15	215.71
388.53	215.62
388.91	215.86
389.29	215.67
389.66	215.83
390.04	215.55
390.42	216.17
390.79	216.33
391.17	216.43
391.55	213.93
391.92	213.86
392.30	214.17
392.68	213.60
393.05	213.52
393.43	213.50
393.81	213.69
394.18	213.45
394.56	213.33
394.94	214.05
395.31	213.86
395.69	214.60
396.06	215.00
396.44	215.02
396.82	214.90
397.19	215.90
397.57	215.93
397.95	216.31
398.32	215.60
398.70	215.71
399.07	216.07
399.45	216.12
399.82	216.14
400.20	216.07
400.58	215.79
400.95	215.05
401.33	215.76
401.70	217.33
402.08	217.57
402.45	217.55
402.83	217.81
403.20	217.93
403.58	217.57
403.95	218.29
404.33	218.86
404.71	219.31
405.08	220.79
405.46	221.26
405.83	221.69
406.21	222.12
406.58	222.74
406.96	223.14
407.33	223.81
407.70	224.60
408.08	226.50
408.45	227.62
408.83	228.93
409.20	229.31
409.58	228.88
409.95	230.29
410.33	231.55
410.70	232.07
411.08	233.57
411.45	235.17
411.82	236.10
412.20	238.10
412.57	240.50
412.95	240.00
413.32	241.90
413.69	243.48
414.07	245.43
414.44	247.55
414.82	250.02
415.19	252.64
415.56	255.36
415.94	257.07
416.31	260.43
416.68	263.26
417.06	267.43
417.43	271.36
417.81	275.24
418.18	279.43
418.55	283.93
418.93	288.57
419.30	293.33
419.67	298.62
420.04	303.62
420.42	308.55
420.79	317.05
421.16	323.52
421.54	331.64
421.91	339.07
422.28	346.05
422.66	353.40
423.03	362.67
423.40	370.90
423.77	379.26
424.15	388.19
424.52	397.38
424.89	406.90
425.26	416.12
425.64	425.10
426.01	435.26
426.38	445.64
426.75	456.83
427.13	467.67
427.50	478.95
427.87	491.02
428.24	503.19
428.61	513.69
428.99	526.90
429.36	539.50
429.73	552.10
430.10	566.33
430.47	580.38
430.85	593.10
431.22	607.52
431.59	624.74
431.96	638.86
432.33	656.14
432.70	672.29
433.08	691.48
433.45	709.64
433.82	727.26
434.19	747.43
434.56	767.14
434.93	786.21
435.30	805.62
435.68	826.33
436.05	847.31
436.42	866.45
436.79	885.26
437.16	905.50
437.53	928.17
437.90	948.76
438.27	970.71
438.64	992.19
439.01	1012.93
439.38	1029.71
439.75	1048.38
440.13	1067.71
440.50	1086.26
440.87	1102.33
441.24	1118.02
441.61	1136.26
441.98	1149.62
442.35	1164.00
442.72	1179.24
443.09	1194.52
443.46	1204.10
443.83	1210.36
444.20	1217.07
444.57	1224.64
444.94	1228.21
445.31	1231.50
445.68	1237.88
446.05	1238.57
446.42	1236.24
446.79	1234.98
447.16	1233.45
447.53	1231.81
447.90	1224.43
448.27	1218.33
448.64	1207.36
449.01	1200.00
449.37	1185.95
449.74	1172.69
450.11	1159.00
450.48	1141.98
450.85	1123.43
451.22	1107.71
451.59	1093.19
451.96	1079.57
452.33	1060.62
452.70	1044.86
453.07	1024.81
453.43	1002.12
453.80	983.33
454.17	965.95
454.54	947.64
454.91	927.29
455.28	908.14
455.65	890.38
456.02	875.48
456.38	860.21
456.75	842.45
457.12	826.52
457.49	811.17
457.86	794.74
458.23	782.83
458.59	769.38
458.96	756.14
459.33	743.50
459.70	730.38
460.07	720.45
460.43	708.64
460.80	698.45
461.17	690.00
461.54	679.64
461.91	669.55
462.27	659.26
462.64	651.98
463.01	643.29
463.38	635.17
463.74	622.88
464.11	615.21
464.48	608.05
464.85	601.36
465.21	595.98
465.58	589.76
465.95	581.52
466.32	575.48
466.68	568.57
467.05	562.55
467.42	556.88
467.78	550.74
468.15	544.67
468.52	540.52
468.88	533.90
469.25	528.69
469.62	524.88
469.98	520.52
470.35	515.95
470.72	511.57
471.08	506.64
471.45	503.29
471.82	500.19
472.18	496.38
472.55	493.31
472.92	488.88
473.28	485.93
473.65	482.93
474.02	479.17
474.38	477.10
474.75	475.00
475.11	472.33
475.48	470.50
475.85	468.81
476.21	466.21
476.58	464.60
476.94	463.45
477.31	462.24
477.67	460.83
478.04	459.57
478.41	459.33
478.77	460.74
479.14	459.40
479.50	458.57
479.87	457.95
480.23	457.88
480.60	457.98
480.96	457.45
481.33	458.14
481.69	458.48
482.06	458.74
482.42	459.05
482.79	459.64
483.15	460.36
483.52	461.38
483.88	461.98
484.25	462.88
484.61	463.74
484.98	464.55
485.34	466.52
485.71	468.52
486.07	469.83
486.44	470.19
486.80	472.52
487.17	474.57
487.53	477.62
487.90	480.07
488.26	483.33
488.62	487.14
488.99	490.10
489.35	493.62
489.72	496.83
490.08	500.50
490.44	504.29
490.81	508.55
491.17	512.52
491.54	516.95
491.90	521.64
492.26	525.88
492.63	530.88
492.99	535.67
493.36	541.02
493.72	546.79
494.08	552.31
494.45	558.62
494.81	565.02
495.17	571.07
495.54	577.98
495.90	584.19
496.26	590.29
496.63	596.71
496.99	603.74
497.35	610.90
497.72	618.14
498.08	625.88
498.44	633.17
498.80	641.36
499.17	649.71
499.53	658.36
499.89	668.29
500.26	676.98
500.62	685.83
500.98	695.14
501.34	703.76
501.71	713.81
502.07	722.40
502.43	731.48
502.79	740.36
503.16	749.10
503.52	758.81
503.88	768.14
504.24	778.00
504.60	788.14
504.97	798.19
505.33	808.45
505.69	819.12
506.05	829.52
506.41	840.14
506.78	850.07
507.14	859.50
507.50	869.81
507.86	880.14
508.22	890.55
508.59	900.31
508.95	911.52
509.31	922.60
509.67	933.52
510.03	944.60
510.39	955.67
510.75	966.14
511.12	976.24
511.48	987.86
511.84	998.36
512.20	1008.79
512.56	1019.29
512.92	1029.40
513.28	1039.86
513.64	1050.40
514.00	1060.76
514.37	1071.93
514.73	1082.76
515.09	1092.71
515.45	1102.74
515.81	1112.83
516.17	1123.52
516.53	1132.71
516.89	1141.10
517.25	1151.24
517.61	1161.07
517.97	1170.17
518.33	1180.12
518.69	1190.33
519.05	1198.71
519.41	1208.52
519.77	1218.67
520.13	1227.76
520.49	1236.24
520.85	1244.17
521.21	1253.60
521.57	1261.90
521.93	1269.29
522.29	1278.38
522.65	1284.98
523.01	1292.98
523.37	1300.88
523.73	1307.62
524.09	1315.71
524.45	1322.76
524.81	1330.00
525.17	1337.48
525.53	1344.67
525.89	1352.33
526.25	1359.43
526.61	1367.14
526.97	1373.38
527.33	1378.74
527.68	1386.60
528.04	1393.62
528.40	1399.43
528.76	1405.31
529.12	1411.21
529.48	1418.81
529.84	1423.62
530.20	1430.90
530.56	1436.74
530.91	1442.62
531.27	1448.79
531.63	1454.40
531.99	1459.33
532.35	1463.64
532.71	1468.24
533.07	1474.43
533.42	1481.05
533.78	1485.50
534.14	1489.71
534.50	1494.86
534.86	1501.33
535.21	1504.50
535.57	1509.90
535.93	1515.14
536.29	1520.57
536.65	1525.26
537.00	1527.45
537.36	1531.98
537.72	1534.93
538.08	1538.31
538.44	1540.98
538.79	1544.60
539.15	1547.57
539.51	1552.62
539.87	1557.50
540.22	1560.83
540.58	1562.45
540.94	1563.21
541.29	1566.36
541.65	1568.74
542.01	1571.29
542.37	1571.55
542.72	1573.62
543.08	1574.12
543.44	1576.74
543.79	1575.95
544.15	1577.83
544.51	1580.69
544.87	1581.71
545.22	1583.62
545.58	1586.14
545.94	1589.12
546.29	1590.31
546.65	1591.43
547.01	1591.24
547.36	1591.12
547.72	1591.86
548.07	1593.48
548.43	1594.17
548.79	1593.95
549.14	1594.10
549.50	1593.93
549.86	1594.64
550.21	1595.83
550.57	1596.50
550.92	1595.12
551.28	1596.24
551.64	1595.81
551.99	1595.71
552.35	1595.62
552.70	1595.26
553.06	1595.05
553.41	1593.38
553.77	1593.55
554.13	1593.02
554.48	1593.90
554.84	1594.52
555.19	1594.24
555.55	1595.62
555.90	1595.29
556.26	1595.43
556.61	1594.48
556.97	1593.90
557.32	1593.74
557.68	1592.10
558.03	1591.24
558.39	1591.50
558.74	1591.57
559.10	1590.17
559.45	1589.55
559.81	1588.48
560.16	1587.57
560.52	1586.10
560.87	1585.07
561.23	1583.69
561.58	1584.76
561.94	1583.10
562.29	1581.83
562.64	1580.60
563.00	1577.07
563.35	1575.00
563.71	1573.86
564.06	1573.64
564.42	1572.62
564.77	1571.50
565.12	1571.00
565.48	1572.64
565.83	1571.71
566.19	1569.69
566.54	1568.95
566.89	1568.02
567.25	1568.19
567.60	1568.50
567.96	1569.38
568.31	1569.21
568.66	1568.79
569.02	1565.40
569.37	1562.69
569.72	1560.60
570.08	1558.50
570.43	1556.88
570.78	1556.10
571.14	1554.19
571.49	1552.52
571.84	1550.43
572.20	1547.64
572.55	1544.76
572.90	1540.14
573.26	1537.02
573.61	1534.26
573.96	1531.98
574.31	1528.64
574.67	1525.19
575.02	1521.07
575.37	1515.81
575.72	1511.71
576.08	1508.26
576.43	1504.98
576.78	1502.45
577.13	1498.71
577.49	1495.55
577.84	1492.02
578.19	1487.62
578.54	1484.00
578.90	1480.05
579.25	1476.10
579.60	1472.21
579.95	1468.45
580.30	1464.36
580.66	1460.50
581.01	1456.69
581.36	1452.21
581.71	1447.55
582.06	1443.50
582.42	1438.88
582.77	1433.69
583.12	1429.55
583.47	1423.79
583.82	1418.93
584.17	1414.52
584.53	1410.17
584.88	1405.38
585.23	1401.31
585.58	1395.76
585.93	1390.05
586.28	1385.12
586.63	1380.31
586.98	1375.88
587.34	1371.36
587.69	1366.40
588.04	1360.55
588.39	1355.17
588.74	1349.55
589.09	1345.31
589.44	1339.45
589.79	1335.12
590.14	1330.74
590.49	1324.93
590.84	1319.43
591.19	1314.36
591.54	1309.69
591.89	1304.48
592.25	1301.38
592.60	1295.74
592.95	1291.81
593.30	1286.76
593.65	1281.10
594.00	1275.93
594.35	1276.48
594.70	1270.52
595.05	1265.36
595.40	1260.71
595.75	1255.36
596.10	1250.64
596.45	1245.26
596.80	1240.43
597.15	1235.14
597.50	1229.14
597.85	1225.10
598.19	1220.38
598.54	1215.14
598.89	1208.83
599.24	1203.74
599.59	1196.31
599.94	1190.45
600.29	1184.67
600.64	1179.93
600.99	1175.71
601.34	1170.31
601.69	1158.98
602.04	1153.69
602.39	1147.69
602.74	1142.79
603.08	1137.67
603.43	1132.98
603.78	1127.33
604.13	1121.67
604.48	1115.48
604.83	1111.21
605.18	1106.12
605.53	1100.64
605.87	1095.45
606.22	1090.67
606.57	1084.93
606.92	1079.81
607.27	1075.31
607.62	1070.07
607.96	1064.95
608.31	1058.81
608.66	1054.40
609.01	1048.40
609.36	1043.33
609.70	1038.81
610.05	1033.00
610.40	1028.43
610.75	1022.40
611.10	1016.81
611.44	1011.45
611.79	1006.45
612.14	1001.38
612.49	994.52
612.83	989.31
613.18	983.17
613.53	977.79
613.88	971.88
614.22	965.67
614.57	960.02
614.92	954.88
615.27	949.38
615.61	944.43
615.96	938.26
616.31	933.76
616.65	929.86
617.00	924.40
617.35	919.79
617.70	914.50
618.04	908.81
618.39	903.64
618.74	898.83
619.08	893.79
619.43	888.31
619.78	883.76
620.12	879.00
620.47	875.07
620.82	869.33
621.16	864.14
621.51	860.48
621.85	855.60
622.20	850.90
622.55	845.14
622.89	840.24
623.24	836.21
623.59	831.67
623.93	826.43
624.28	822.10
624.62	819.50
624.97	816.10
625.32	812.21
625.66	808.29
626.01	803.67
626.35	799.45
626.70	795.31
627.04	791.40
627.39	787.33
627.73	783.83
628.08	780.19
628.43	776.10
628.77	771.12
629.12	767.26
629.46	763.45
629.81	760.10
630.15	755.98
630.50	751.40
630.84	746.88
631.19	742.24
631.53	737.67
631.88	731.55
632.22	725.38
632.57	721.55
632.91	717.17
633.26	712.90
633.60	707.95
633.95	702.86
634.29	697.86
634.64	693.21
634.98	688.17
635.32	684.98
635.67	681.48
636.01	677.52
636.36	673.10
636.70	669.14
637.05	664.71
637.39	660.71
637.73	656.71
638.08	653.62
638.42	649.50
638.77	646.50
639.11	642.69
639.45	639.48
639.80	635.36
640.14	631.57
640.49	628.52
640.83	625.26
641.17	622.48
641.52	619.24
641.86	616.19
642.20	613.50
642.55	608.90
642.89	605.24
643.23	602.12
643.58	599.12
643.92	594.93
644.26	591.93
644.61	588.79
644.95	585.36
645.29	581.05
645.64	578.24
645.98	573.95
646.32	570.21
646.66	566.21
647.01	562.43
647.35	558.90
647.69	555.24
648.04	552.33
648.38	549.00
648.72	546.26
649.06	542.71
649.41	538.93
649.75	536.02
650.09	533.24
650.43	529.64
650.78	526.50
651.12	523.45
651.46	520.45
651.80	517.05
652.14	513.90
652.49	511.57
652.83	508.05
653.17	505.10
653.51	502.48
653.85	500.17
654.20	497.90
654.54	494.98
654.88	491.83
655.22	489.57
655.56	486.74
655.90	483.69
656.25	480.62
656.59	478.10
656.93	475.52
657.27	473.67
657.61	470.90
657.95	468.38
658.29	466.14
658.64	464.00
658.98	461.48
659.32	458.88
659.66	456.26
660.00	454.50
660.34	452.38
660.68	449.64
661.02	447.45
661.36	444.95
661.70	443.17
662.05	441.24
662.39	438.93
662.73	437.50
663.07	436.48
663.41	434.95
663.75	432.45
664.09	430.55
664.43	427.76
664.77	426.00
665.11	423.33
665.45	421.40
665.79	419.62
666.13	417.26
666.47	415.31
666.81	413.24
667.15	410.74
667.49	409.07
667.83	407.98
668.17	405.81
668.51	404.05
668.85	402.48
669.19	401.48
669.53	398.67
669.87	396.40
670.21	393.79
670.55	391.86
670.89	391.26
671.23	389.40
671.57	387.83
671.91	386.57
672.25	385.36
672.58	384.24
672.92	382.00
673.26	380.74
673.60	379.48
673.94	378.00
674.28	376.74
674.62	375.26
674.96	373.31
675.30	372.31
675.64	370.79
675.97	369.14
676.31	366.79
676.65	365.50
676.99	364.50
677.33	363.02
677.67	361.69
678.01	359.17
678.34	357.83
678.68	356.83
679.02	355.07
679.36	353.33
679.70	351.31
680.04	350.10
680.37	348.60
680.71	347.12
681.05	346.02
681.39	344.69
681.73	343.43
682.06	342.00
682.40	340.38
682.74	339.52
683.08	338.86
683.42	337.64
683.75	336.90
684.09	334.95
684.43	333.76
684.77	332.55
685.10	331.38
685.44	330.29
685.78	328.71
686.12	327.50
686.45	326.55
686.79	325.19
687.13	324.43
687.46	323.50
687.80	323.00
688.14	321.62
688.48	320.50
688.81	319.05
689.15	318.45
689.49	317.26
689.82	315.95
690.16	314.10
690.50	313.05
690.83	311.60
691.17	310.38
691.51	309.36
691.84	308.69
692.18	307.57
692.52	306.40
692.85	305.29
693.19	305.10
693.52	304.31
693.86	303.55
694.20	302.50
694.53	301.74
694.87	300.38
695.21	299.40
695.54	298.69
695.88	297.62
696.21	296.02
696.55	295.26
696.88	294.38
697.22	293.43
697.56	293.00
697.89	292.43
698.23	292.00
698.56	291.17
698.90	290.12
699.23	289.26
699.57	288.60
699.90	287.83
700.24	286.43
700.58	285.31
700.91	284.57
701.25	285.55
701.58	285.67
701.92	285.31
702.25	284.86
702.59	283.81
702.92	283.29
703.26	282.86
703.59	282.05
703.93	282.95
704.26	282.71
704.60	282.14
704.93	281.17
705.26	279.95
705.60	279.52
705.93	278.43
706.27	278.55
706.60	278.17
706.94	278.60
707.27	277.98
707.61	277.50
707.94	277.10
708.27	274.24
708.61	272.76
708.94	271.76
709.28	271.10
709.61	270.67
709.94	270.24
710.28	269.79
710.61	269.36
710.95	267.02
711.28	267.55
711.61	266.57
711.95	266.33
712.28	265.98
712.61	265.36
712.95	266.02
713.28	266.17
713.61	265.33
713.95	263.90
714.28	263.60
714.61	262.95
714.95	262.24
715.28	261.86
715.61	261.24
715.95	260.90
716.28	260.17
716.61	259.79
716.95	258.88
717.28	258.38
717.61	257.79
717.94	257.05
718.28	255.07
718.61	254.57
718.94	253.93
719.27	253.62
719.61	253.24
719.94	252.17
720.27	250.69
720.60	250.31
720.94	249.98
721.27	249.48
721.60	249.43
721.93	249.14
722.27	249.67
722.60	249.71
722.93	249.05
723.26	248.86
723.59	248.26
723.93	248.38
724.26	248.02
724.59	247.57
724.92	247.50
725.25	248.02
725.59	247.62
725.92	247.52
726.25	247.05
726.58	246.60
726.91	246.45
727.24	246.48
727.57	245.93
727.91	245.17
728.24	245.10
728.57	244.52
728.90	244.33
729.23	243.17
729.56	243.74
729.89	243.55
730.22	243.19
730.55	242.79
730.89	242.50
731.22	242.31
731.55	242.05
731.88	242.00
732.21	241.29
732.54	241.05
732.87	240.62
733.20	240.50
733.53	240.31
733.86	240.07
734.19	239.57
734.52	239.50
734.85	240.71
735.18	240.19
735.51	240.62
735.84	240.43
736.17	240.90
736.50	239.60
736.83	241.88
737.16	241.79
737.49	241.74
737.82	241.29
738.15	241.52
738.48	241.24
738.81	240.81
739.14	240.14
739.47	239.50
739.80	239.45
740.13	239.62
740.46	238.95
740.79	238.48
741.12	238.24
741.45	237.81
741.78	236.45
742.11	236.95
742.44	236.26
742.77	236.38
743.10	235.90
743.43	235.26
743.75	232.62
744.08	234.93
744.41	234.45
744.74	234.19
745.07	233.38
745.40	233.76
745.73	234.48
746.06	234.48
746.39	235.02
746.71	234.60
747.04	233.98
747.37	233.88
747.70	234.02
748.03	233.93
748.36	234.14
748.68	234.07
749.01	233.12
749.34	233.02
749.67	232.81
750.00	232.81
750.33	234.17
750.65	234.38
750.98	231.74
751.31	231.90
751.64	231.98
751.97	232.98
752.29	232.36
752.62	231.33
752.95	231.14
753.28	230.43
753.60	230.24
753.93	230.57
754.26	230.64
754.59	229.64
754.91	229.12
755.24	228.76
755.57	228.79
755.90	228.29
756.22	228.10
756.55	227.48
756.88	227.10
757.20	225.71
757.53	225.14
757.86	224.95
758.19	224.86
758.51	224.83
758.84	223.48
759.17	223.12
759.49	223.02
759.82	223.52
760.15	223.95
760.47	224.02
760.80	223.52
761.13	223.76
761.45	223.64
761.78	223.69
762.11	223.57
762.43	223.10
762.76	223.36
763.08	223.67
763.41	224.05
763.74	223.79
764.06	223.64
764.39	223.45
764.71	223.24
765.04	222.88
765.37	222.60
765.69	222.60
766.02	222.55
766.34	222.36
766.67	221.71
767.00	221.71
767.32	222.33
767.65	223.43
767.97	223.07
768.30	223.38
768.62	223.52
768.95	223.24
769.27	223.12
769.60	223.21
769.92	222.29
770.25	221.64
770.57	221.31
770.90	221.26
771.22	221.19
771.55	221.24
771.87	221.31
772.20	221.07
772.52	222.57
772.85	225.12
773.17	225.31
773.50	225.26
773.82	225.05
774.15	224.14
774.47	222.74
774.80	222.21
775.12	221.90
775.45	221.55
775.77	221.79
776.09	221.74
776.42	221.71
776.74	222.55
777.07	222.40
777.39	222.43
777.72	222.19
778.04	222.50
778.36	222.14
778.69	222.14
779.01	222.29
779.33	220.55
779.66	218.21
779.98	217.55
780.31	217.52
780.63	218.14
780.95	218.86
781.28	218.90
781.60	219.07
781.92	219.31
782.25	219.33
782.57	219.00
782.89	218.98
783.22	218.50
783.54	217.79
783.86	218.12
784.19	218.17
784.51	218.98
784.83	218.52
785.16	218.48
785.48	218.50
785.80	218.48
786.12	218.83
786.45	218.74
786.77	219.07
787.09	218.76
787.42	218.02
