SpectraSuite Data File
++++++++++++++++++++++++++++++++++++
Date: Tue Apr 02 18:39:58 EDT 2013
User: group
Dark Spectrum Present: No
Reference Spectrum Present: No
Number of Sampled Component Spectra: 1
Spectrometers: USB2E7196
Integration Time (usec): 580000 (USB2E7196)
Spectra Averaged: 2 (USB2E7196)
Boxcar Smoothing: 10 (USB2E7196)
Correct for Electrical Dark: No (USB2E7196)
Strobe/Lamp Enabled: No (USB2E7196)
Correct for Detector Non-linearity: No (USB2E7196)
Correct for Stray Light: No (USB2E7196)
Number of Pixels in Processed Spectrum: 2048
>>>>>Begin Processed Spectral Data<<<<<
339.09	0.00
339.48	195.00
339.86	195.50
340.24	199.00
340.63	198.00
341.01	229.50
341.39	205.00
341.78	202.50
342.16	209.00
342.54	205.00
342.93	196.86
343.31	206.57
343.69	207.00
344.07	207.48
344.46	208.14
344.84	208.64
345.22	207.45
345.60	207.57
345.99	208.05
346.37	207.83
346.75	207.88
347.13	207.98
347.52	208.24
347.90	208.79
348.28	208.62
348.66	209.29
349.05	208.57
349.43	208.64
349.81	208.86
350.19	208.86
350.57	209.10
350.96	209.31
351.34	209.43
351.72	209.45
352.10	209.38
352.48	209.10
352.87	209.10
353.25	209.24
353.63	209.45
354.01	209.31
354.39	209.81
354.77	209.95
355.15	210.81
355.54	210.48
355.92	210.14
356.30	210.33
356.68	211.57
357.06	211.93
357.44	211.62
357.82	211.55
358.20	212.48
358.58	212.71
358.97	213.07
359.35	213.60
359.73	214.33
360.11	214.71
360.49	215.05
360.87	215.05
361.25	215.43
361.63	216.17
362.01	216.55
362.39	216.29
362.77	216.48
363.15	216.31
363.53	216.64
363.91	216.81
364.29	216.81
364.67	215.05
365.05	215.02
365.43	215.31
365.81	215.76
366.19	216.12
366.57	216.52
366.95	216.40
367.33	216.17
367.71	216.14
368.09	216.50
368.47	216.52
368.85	216.60
369.23	217.07
369.61	216.38
369.99	216.64
370.37	217.12
370.75	218.24
371.13	217.79
371.51	217.52
371.89	217.74
372.27	218.10
372.65	218.38
373.03	218.55
373.41	218.50
373.78	218.50
374.16	217.69
374.54	217.36
374.92	217.02
375.30	217.10
375.68	216.83
376.06	217.05
376.44	216.88
376.82	217.12
377.19	216.88
377.57	216.79
377.95	216.24
378.33	216.05
378.71	214.74
379.09	215.07
379.47	215.24
379.84	214.98
380.22	214.64
380.60	214.31
380.98	214.07
381.36	214.24
381.73	213.79
382.11	214.10
382.49	214.26
382.87	214.07
383.25	214.07
383.62	216.31
384.00	215.90
384.38	216.02
384.76	216.45
385.13	217.24
385.51	217.07
385.89	216.90
386.27	217.19
386.64	217.62
387.02	217.43
387.40	217.40
387.78	217.36
388.15	217.57
388.53	217.40
388.91	217.57
389.29	217.12
389.66	217.38
390.04	216.95
390.42	216.90
390.79	217.21
391.17	217.00
391.55	214.69
391.92	214.45
392.30	214.52
392.68	214.02
393.05	213.62
393.43	213.71
393.81	213.86
394.18	213.33
394.56	213.21
394.94	213.69
395.31	213.38
395.69	214.05
396.06	214.17
396.44	214.36
396.82	214.19
397.19	215.33
397.57	215.21
397.95	215.69
398.32	215.33
398.70	215.50
399.07	216.00
399.45	215.64
399.82	215.67
400.20	215.36
400.58	215.24
400.95	214.62
401.33	215.12
401.70	216.69
402.08	216.71
402.45	216.64
402.83	217.07
403.20	217.48
403.58	217.33
403.95	218.07
404.33	218.48
404.71	218.71
405.08	219.86
405.46	220.14
405.83	220.19
406.21	220.62
406.58	221.10
406.96	221.48
407.33	222.64
407.70	223.33
408.08	225.67
408.45	226.71
408.83	227.79
409.20	228.31
409.58	227.81
409.95	229.21
410.33	230.45
410.70	230.67
411.08	231.93
411.45	233.33
411.82	233.90
412.20	235.64
412.57	238.31
412.95	238.12
413.32	240.10
413.69	241.83
414.07	243.55
414.44	245.43
414.82	247.48
415.19	249.98
415.56	252.69
415.94	254.12
416.31	257.14
416.68	260.02
417.06	263.52
417.43	267.50
417.81	271.10
418.18	275.02
418.55	279.31
418.93	283.50
419.30	287.52
419.67	292.69
420.04	297.55
420.42	302.43
420.79	309.98
421.16	315.69
421.54	323.17
421.91	329.55
422.28	336.02
422.66	343.38
423.03	351.52
423.40	358.52
423.77	366.36
424.15	374.12
424.52	382.50
424.89	391.52
425.26	400.36
425.64	408.60
426.01	417.69
426.38	427.36
426.75	437.74
427.13	447.98
427.50	458.45
427.87	469.38
428.24	480.00
428.61	489.52
428.99	501.79
429.36	513.43
429.73	526.31
430.10	538.43
430.47	550.95
430.85	563.00
431.22	577.05
431.59	592.86
431.96	606.64
432.33	621.81
432.70	637.07
433.08	654.24
433.45	670.90
433.82	687.76
434.19	706.33
434.56	724.86
434.93	742.05
435.30	758.67
435.68	777.36
436.05	796.36
436.42	814.43
436.79	832.07
437.16	850.62
437.53	869.31
437.90	889.60
438.27	908.62
438.64	928.07
439.01	946.21
439.38	961.60
439.75	976.76
440.13	995.26
440.50	1011.83
440.87	1025.60
441.24	1040.21
441.61	1055.12
441.98	1066.86
442.35	1079.45
442.72	1093.74
443.09	1108.79
443.46	1116.95
443.83	1122.90
444.20	1128.33
444.57	1134.79
444.94	1137.52
445.31	1141.64
445.68	1147.38
446.05	1149.38
446.42	1147.76
446.79	1146.98
447.16	1144.60
447.53	1144.50
447.90	1138.10
448.27	1131.10
448.64	1121.48
449.01	1114.36
449.37	1102.26
449.74	1090.17
450.11	1078.02
450.48	1061.81
450.85	1044.36
451.22	1030.64
451.59	1017.40
451.96	1005.21
452.33	988.36
452.70	973.55
453.07	955.26
453.43	934.83
453.80	916.40
454.17	899.21
454.54	881.50
454.91	863.86
455.28	846.14
455.65	829.07
456.02	816.62
456.38	802.79
456.75	786.29
457.12	772.69
457.49	758.90
457.86	743.21
458.23	732.26
458.59	719.48
458.96	706.76
459.33	694.67
459.70	682.05
460.07	672.12
460.43	661.21
460.80	651.52
461.17	642.79
461.54	634.33
461.91	625.67
462.27	617.17
462.64	609.74
463.01	601.64
463.38	594.83
463.74	583.38
464.11	576.21
464.48	569.48
464.85	561.83
465.21	556.81
465.58	551.62
465.95	544.19
466.32	538.93
466.68	533.29
467.05	527.83
467.42	522.98
467.78	517.69
468.15	512.31
468.52	508.29
468.88	501.62
469.25	496.38
469.62	492.88
469.98	488.62
470.35	484.71
470.72	480.93
471.08	476.00
471.45	473.14
471.82	470.45
472.18	467.02
472.55	465.02
472.92	461.00
473.28	457.93
473.65	455.43
474.02	452.48
474.38	450.07
474.75	447.90
475.11	445.45
475.48	443.79
475.85	442.62
476.21	440.71
476.58	440.24
476.94	438.88
477.31	437.12
477.67	436.14
478.04	434.88
478.41	433.86
478.77	435.07
479.14	433.74
479.50	432.79
479.87	432.38
480.23	431.64
480.60	431.12
480.96	430.76
481.33	431.19
481.69	431.57
482.06	431.93
482.42	432.40
482.79	432.83
483.15	433.36
483.52	434.00
483.88	434.69
484.25	434.86
484.61	435.81
484.98	437.21
485.34	439.24
485.71	440.88
486.07	442.64
486.44	442.26
486.80	444.10
487.17	445.60
487.53	448.10
487.90	450.48
488.26	453.88
488.62	456.88
488.99	458.90
489.35	461.50
489.72	464.10
490.08	467.38
490.44	470.57
490.81	474.17
491.17	477.45
491.54	481.19
491.90	485.07
492.26	488.93
492.63	492.88
492.99	496.52
493.36	500.79
493.72	505.31
494.08	510.12
494.45	515.10
494.81	520.45
495.17	525.33
495.54	530.86
495.90	535.83
496.26	541.12
496.63	546.98
496.99	552.36
497.35	558.88
497.72	564.71
498.08	571.21
498.44	577.88
498.80	584.90
499.17	591.55
499.53	598.83
499.89	606.21
500.26	613.43
500.62	620.90
500.98	628.98
501.34	636.64
501.71	644.93
502.07	652.50
502.43	660.48
502.79	668.36
503.16	676.05
503.52	684.52
503.88	692.43
504.24	701.02
504.60	709.95
504.97	719.12
505.33	727.52
505.69	736.90
506.05	745.12
506.41	753.55
506.78	762.38
507.14	770.14
507.50	779.24
507.86	788.17
508.22	796.67
508.59	804.36
508.95	813.64
509.31	823.07
509.67	832.24
510.03	840.33
510.39	848.67
510.75	857.88
511.12	865.60
511.48	874.38
511.84	882.86
512.20	890.95
512.56	898.52
512.92	907.31
513.28	915.40
513.64	923.90
514.00	932.36
514.37	941.36
514.73	949.83
515.09	958.19
515.45	965.76
515.81	973.52
516.17	982.17
516.53	988.90
516.89	996.45
517.25	1003.55
517.61	1012.64
517.97	1020.14
518.33	1027.81
518.69	1036.29
519.05	1044.21
519.41	1051.40
519.77	1060.07
520.13	1067.29
520.49	1074.40
520.85	1081.90
521.21	1089.29
521.57	1097.00
521.93	1102.55
522.29	1110.43
522.65	1116.29
523.01	1123.86
523.37	1130.43
523.73	1136.33
524.09	1143.43
524.45	1149.19
524.81	1155.81
525.17	1161.48
525.53	1168.00
525.89	1173.31
526.25	1179.02
526.61	1184.50
526.97	1190.81
527.33	1195.98
527.68	1203.71
528.04	1209.52
528.40	1214.31
528.76	1219.98
529.12	1224.93
529.48	1231.07
529.84	1235.60
530.20	1241.26
530.56	1246.24
530.91	1251.36
531.27	1257.52
531.63	1263.55
531.99	1268.33
532.35	1274.38
532.71	1279.69
533.07	1286.12
533.42	1294.07
533.78	1299.40
534.14	1305.12
534.50	1309.74
534.86	1315.50
535.21	1318.88
535.57	1324.43
535.93	1329.55
536.29	1335.00
536.65	1340.38
537.00	1345.31
537.36	1350.26
537.72	1355.05
538.08	1360.36
538.44	1365.12
538.79	1369.81
539.15	1373.57
539.51	1378.38
539.87	1382.24
540.22	1386.07
540.58	1390.02
540.94	1392.07
541.29	1395.74
541.65	1398.52
542.01	1403.50
542.37	1406.36
542.72	1409.88
543.08	1413.00
543.44	1417.14
543.79	1419.31
544.15	1423.12
544.51	1427.33
544.87	1431.55
545.22	1435.07
545.58	1438.67
545.94	1442.50
546.29	1445.86
546.65	1449.50
547.01	1452.45
547.36	1455.88
547.72	1459.67
548.07	1463.12
548.43	1466.55
548.79	1469.29
549.14	1473.43
549.50	1476.55
549.86	1480.17
550.21	1484.00
550.57	1488.36
550.92	1491.52
551.28	1496.69
551.64	1500.07
551.99	1503.95
552.35	1507.60
552.70	1511.21
553.06	1515.02
553.41	1518.45
553.77	1523.48
554.13	1527.19
554.48	1532.95
554.84	1538.33
555.19	1542.81
555.55	1548.48
555.90	1553.12
556.26	1558.69
556.61	1563.02
556.97	1566.81
557.32	1571.12
557.68	1575.48
558.03	1579.29
558.39	1583.45
558.74	1587.43
559.10	1591.67
559.45	1595.64
559.81	1600.36
560.16	1605.62
560.52	1608.88
560.87	1614.52
561.23	1618.26
561.58	1624.45
561.94	1628.00
562.29	1631.26
562.64	1636.12
563.00	1639.33
563.35	1643.48
563.71	1648.29
564.06	1653.40
564.42	1658.31
564.77	1663.95
565.12	1670.14
565.48	1677.29
565.83	1684.05
566.19	1689.19
566.54	1694.45
566.89	1699.76
567.25	1704.83
567.60	1711.17
567.96	1718.62
568.31	1723.88
568.66	1729.69
569.02	1732.43
569.37	1736.98
569.72	1741.67
570.08	1745.17
570.43	1749.24
570.78	1753.71
571.14	1758.02
571.49	1761.86
571.84	1766.67
572.20	1770.71
572.55	1772.81
572.90	1774.24
573.26	1775.60
573.61	1778.33
573.96	1781.10
574.31	1783.50
574.67	1787.36
575.02	1788.64
575.37	1789.90
575.72	1791.95
576.08	1793.88
576.43	1797.36
576.78	1799.19
577.13	1801.05
577.49	1803.38
577.84	1805.36
578.19	1807.21
578.54	1809.45
578.90	1811.79
579.25	1812.83
579.60	1813.40
579.95	1814.52
580.30	1815.74
580.66	1817.83
581.01	1819.12
581.36	1819.90
581.71	1820.88
582.06	1821.90
582.42	1822.83
582.77	1822.38
583.12	1822.00
583.47	1821.79
583.82	1821.40
584.17	1822.83
584.53	1824.67
584.88	1824.69
585.23	1825.43
585.58	1825.86
585.93	1824.02
586.28	1823.86
586.63	1823.76
586.98	1824.12
587.34	1825.50
587.69	1825.24
588.04	1824.60
588.39	1824.48
588.74	1823.43
589.09	1822.98
589.44	1819.17
589.79	1819.33
590.14	1819.93
590.49	1819.93
590.84	1818.52
591.19	1818.07
591.54	1815.98
591.89	1813.57
592.25	1814.67
592.60	1812.43
592.95	1811.29
593.30	1811.52
593.65	1809.24
594.00	1807.02
594.35	1810.93
594.70	1808.21
595.05	1806.60
595.40	1805.02
595.75	1802.38
596.10	1802.05
596.45	1800.19
596.80	1800.31
597.15	1797.52
597.50	1794.33
597.85	1792.19
598.19	1790.64
598.54	1788.31
598.89	1786.40
599.24	1784.52
599.59	1780.19
599.94	1777.83
600.29	1775.33
600.64	1773.17
600.99	1771.81
601.34	1770.17
601.69	1762.67
602.04	1759.83
602.39	1757.00
602.74	1755.00
603.08	1752.40
603.43	1749.83
603.78	1747.52
604.13	1744.24
604.48	1740.62
604.83	1738.52
605.18	1736.50
605.53	1732.67
605.87	1729.50
606.22	1726.43
606.57	1723.52
606.92	1720.69
607.27	1718.00
607.62	1714.79
607.96	1711.19
608.31	1707.83
608.66	1704.02
609.01	1699.60
609.36	1695.90
609.70	1692.05
610.05	1686.93
610.40	1683.24
610.75	1678.00
611.10	1673.79
611.44	1669.76
611.79	1665.55
612.14	1660.26
612.49	1654.95
612.83	1650.43
613.18	1645.12
613.53	1639.52
613.88	1633.14
614.22	1627.40
614.57	1621.55
614.92	1615.60
615.27	1610.33
615.61	1603.50
615.96	1598.31
616.31	1592.19
616.65	1587.76
617.00	1582.52
617.35	1577.29
617.70	1572.00
618.04	1566.69
618.39	1559.95
618.74	1554.02
619.08	1547.90
619.43	1543.31
619.78	1537.83
620.12	1533.05
620.47	1528.90
620.82	1523.45
621.16	1517.64
621.51	1513.52
621.85	1506.86
622.20	1500.83
622.55	1493.74
622.89	1488.45
623.24	1482.60
623.59	1476.93
623.93	1470.83
624.28	1465.60
624.62	1462.24
624.97	1457.74
625.32	1451.98
625.66	1446.81
626.01	1441.45
626.35	1437.62
626.70	1431.19
627.04	1425.60
627.39	1419.24
627.73	1412.98
628.08	1407.62
628.43	1402.74
628.77	1396.17
629.12	1391.90
629.46	1387.55
629.81	1382.29
630.15	1376.31
630.50	1370.29
630.84	1364.24
631.19	1357.19
631.53	1350.69
631.88	1341.98
632.22	1334.93
632.57	1329.57
632.91	1323.36
633.26	1317.90
633.60	1310.31
633.95	1304.69
634.29	1298.05
634.64	1292.81
634.98	1286.57
635.32	1281.21
635.67	1275.48
636.01	1268.93
636.36	1262.12
636.70	1256.62
637.05	1250.83
637.39	1245.36
637.73	1239.81
638.08	1235.60
638.42	1230.62
638.77	1224.83
639.11	1219.17
639.45	1213.60
639.80	1206.45
640.14	1200.81
640.49	1193.74
640.83	1187.19
641.17	1180.79
641.52	1174.45
641.86	1167.74
642.20	1162.21
642.55	1155.74
642.89	1149.36
643.23	1143.21
643.58	1138.43
643.92	1130.67
644.26	1123.64
644.61	1117.31
644.95	1110.81
645.29	1102.67
645.64	1097.17
645.98	1090.62
646.32	1084.07
646.66	1076.38
647.01	1070.00
647.35	1063.81
647.69	1057.48
648.04	1051.98
648.38	1045.71
648.72	1040.02
649.06	1033.40
649.41	1026.36
649.75	1019.21
650.09	1012.95
650.43	1006.57
650.78	998.48
651.12	991.57
651.46	986.24
651.80	979.17
652.14	972.17
652.49	966.90
652.83	959.81
653.17	953.07
653.51	947.05
653.85	940.90
654.20	934.33
654.54	927.31
654.88	921.00
655.22	915.71
655.56	908.69
655.90	901.98
656.25	895.62
656.59	889.57
656.93	884.43
657.27	878.98
657.61	872.76
657.95	868.12
658.29	862.60
658.64	856.55
658.98	850.76
659.32	845.29
659.66	839.02
660.00	833.26
660.34	828.10
660.68	822.29
661.02	816.88
661.36	811.93
661.70	807.10
662.05	801.55
662.39	795.62
662.73	791.64
663.07	787.05
663.41	782.10
663.75	776.29
664.09	770.76
664.43	764.52
664.77	759.67
665.11	753.50
665.45	748.43
665.79	743.24
666.13	738.12
666.47	733.14
666.81	728.26
667.15	722.90
667.49	718.38
667.83	714.29
668.17	708.64
668.51	703.52
668.85	697.98
669.19	694.00
669.53	688.07
669.87	682.29
670.21	676.38
670.55	671.29
670.89	667.48
671.23	662.79
671.57	658.45
671.91	653.81
672.25	649.05
672.58	645.76
672.92	640.81
673.26	636.52
673.60	631.90
673.94	627.55
674.28	623.31
674.62	619.07
674.96	614.31
675.30	610.45
675.64	606.52
675.97	602.83
676.31	597.86
676.65	593.76
676.99	590.57
677.33	587.36
677.67	583.55
678.01	578.90
678.34	574.93
678.68	571.67
679.02	567.71
679.36	564.24
679.70	559.29
680.04	555.76
680.37	552.10
680.71	547.98
681.05	544.40
681.39	540.40
681.73	536.26
682.06	532.21
682.40	528.55
682.74	525.05
683.08	521.86
683.42	518.12
683.75	515.00
684.09	510.62
684.43	506.60
684.77	503.12
685.10	499.88
685.44	496.90
685.78	493.05
686.12	489.24
686.45	486.05
686.79	482.43
687.13	479.31
687.46	476.05
687.80	473.71
688.14	470.07
688.48	467.26
688.81	463.98
689.15	461.62
689.49	458.74
689.82	455.81
690.16	451.93
690.50	448.98
690.83	445.86
691.17	442.71
691.51	439.74
691.84	437.26
692.18	434.12
692.52	430.64
692.85	427.98
693.19	426.14
693.52	423.45
693.86	420.95
694.20	418.02
694.53	415.62
694.87	412.55
695.21	410.31
695.54	407.74
695.88	404.50
696.21	401.33
696.55	398.81
696.88	396.19
697.22	393.88
697.56	391.90
697.89	389.52
698.23	387.93
698.56	385.76
698.90	383.67
699.23	381.33
699.57	379.33
699.90	376.83
700.24	374.38
700.58	372.17
700.91	370.33
701.25	370.02
701.58	368.07
701.92	366.93
702.25	364.88
702.59	362.74
702.92	361.33
703.26	359.64
703.59	357.69
703.93	357.83
704.26	356.12
704.60	354.36
704.93	352.33
705.26	350.40
705.60	349.02
705.93	346.69
706.27	345.86
706.60	344.67
706.94	343.86
707.27	341.79
707.61	340.43
707.94	338.60
708.27	335.62
708.61	333.48
708.94	331.62
709.28	330.26
709.61	328.86
709.94	327.74
710.28	326.00
710.61	324.55
710.95	320.93
711.28	320.98
711.61	319.79
711.95	319.14
712.28	317.64
712.61	316.05
712.95	316.10
713.28	315.38
713.61	313.64
713.95	312.05
714.28	311.14
714.61	309.71
714.95	308.57
715.28	307.10
715.61	306.19
715.95	304.90
716.28	303.57
716.61	302.88
716.95	301.17
717.28	300.36
717.61	299.55
717.94	298.45
718.28	295.95
718.61	294.57
718.94	293.24
719.27	292.26
719.61	291.26
719.94	289.43
720.27	287.52
720.60	286.36
720.94	285.10
721.27	284.36
721.60	283.93
721.93	283.00
722.27	282.79
722.60	281.98
722.93	281.02
723.26	280.10
723.59	278.93
723.93	278.43
724.26	277.90
724.59	277.19
724.92	276.55
725.25	276.40
725.59	275.83
725.92	275.38
726.25	274.33
726.58	273.98
726.91	273.36
727.24	272.86
727.57	272.36
727.91	271.76
728.24	271.05
728.57	269.86
728.90	269.38
729.23	268.14
729.56	268.74
729.89	268.14
730.22	267.64
730.55	266.93
730.89	266.19
731.22	265.40
731.55	264.60
731.88	264.31
732.21	263.07
732.54	262.12
732.87	261.38
733.20	261.19
733.53	260.45
733.86	259.93
734.19	259.12
734.52	258.88
734.85	259.40
735.18	258.57
735.51	258.88
735.84	258.33
736.17	258.31
736.50	256.86
736.83	258.79
737.16	258.21
737.49	257.90
737.82	257.64
738.15	257.38
738.48	257.12
738.81	256.33
739.14	256.02
739.47	255.86
739.80	255.24
740.13	255.00
740.46	254.17
740.79	253.57
741.12	253.14
741.45	252.33
741.78	250.86
742.11	251.05
742.44	250.10
742.77	250.12
743.10	249.45
743.43	248.71
743.75	246.05
744.08	248.55
744.41	247.88
744.74	247.29
745.07	246.45
745.40	246.05
745.73	246.60
746.06	246.26
746.39	246.02
746.71	245.52
747.04	244.76
747.37	244.57
747.70	244.55
748.03	244.21
748.36	244.02
748.68	243.86
749.01	243.10
749.34	242.76
749.67	242.45
750.00	242.24
750.33	243.74
750.65	243.57
750.98	240.38
751.31	240.45
751.64	240.38
751.97	241.29
752.29	240.81
752.62	239.67
752.95	239.50
753.28	238.86
753.60	238.67
753.93	239.19
754.26	239.07
754.59	238.29
754.91	238.00
755.24	237.81
755.57	237.17
755.90	236.64
756.22	236.43
756.55	235.86
756.88	235.40
757.20	233.55
757.53	232.86
757.86	232.93
758.19	232.60
758.51	232.38
758.84	231.21
759.17	231.02
759.49	230.98
759.82	231.86
760.15	231.79
760.47	231.57
760.80	230.48
761.13	230.57
761.45	230.38
761.78	229.98
762.11	229.79
762.43	229.81
762.76	229.83
763.08	229.88
763.41	229.93
763.74	229.71
764.06	229.43
764.39	229.36
764.71	229.26
765.04	228.81
765.37	228.52
765.69	228.38
766.02	228.21
766.34	227.95
766.67	226.71
767.00	227.02
767.32	228.17
767.65	229.19
767.97	228.76
768.30	228.76
768.62	228.74
768.95	228.31
769.27	228.05
769.60	228.19
769.92	227.55
770.25	227.12
770.57	226.64
770.90	226.57
771.22	226.12
771.55	225.88
771.87	225.98
772.20	225.62
772.52	226.98
772.85	229.24
773.17	229.12
773.50	229.00
773.82	228.38
774.15	226.90
774.47	225.86
774.80	225.62
775.12	225.48
775.45	225.55
775.77	225.62
776.09	225.71
776.42	225.81
776.74	226.40
777.07	226.02
777.39	226.26
777.72	226.00
778.04	226.43
778.36	226.17
778.69	225.81
779.01	225.93
779.33	224.21
779.66	221.71
779.98	221.55
780.31	221.40
780.63	222.31
780.95	222.74
781.28	222.60
781.60	222.33
781.92	222.29
782.25	221.93
782.57	221.83
782.89	221.40
783.22	220.98
783.54	220.33
783.86	220.64
784.19	220.29
784.51	220.86
784.83	220.21
785.16	220.12
785.48	220.38
