SpectraSuite Data File
++++++++++++++++++++++++++++++++++++
Date: Tue Apr 02 18:44:37 EDT 2013
User: group
Dark Spectrum Present: No
Reference Spectrum Present: No
Number of Sampled Component Spectra: 1
Spectrometers: USB2E7196
Integration Time (usec): 580000 (USB2E7196)
Spectra Averaged: 2 (USB2E7196)
Boxcar Smoothing: 10 (USB2E7196)
Correct for Electrical Dark: No (USB2E7196)
Strobe/Lamp Enabled: No (USB2E7196)
Correct for Detector Non-linearity: No (USB2E7196)
Correct for Stray Light: No (USB2E7196)
Number of Pixels in Processed Spectrum: 2048
>>>>>Begin Processed Spectral Data<<<<<
339.09	0.00
339.48	194.50
339.86	192.50
340.24	195.50
340.63	197.00
341.01	235.00
341.39	200.50
341.78	205.00
342.16	214.00
342.54	205.50
342.93	198.10
343.31	207.90
343.69	208.52
344.07	209.21
344.46	210.10
344.84	210.69
345.22	209.26
345.60	209.76
345.99	210.05
346.37	209.83
346.75	209.93
347.13	209.93
347.52	210.12
347.90	210.43
348.28	210.48
348.66	210.88
349.05	210.40
349.43	210.86
349.81	210.90
350.19	210.98
350.57	211.36
350.96	211.67
351.34	211.93
351.72	212.05
352.10	212.12
352.48	211.81
352.87	211.67
353.25	211.81
353.63	211.67
354.01	211.64
354.39	211.71
354.77	211.81
355.15	212.33
355.54	212.14
355.92	211.81
356.30	211.86
356.68	213.00
357.06	212.93
357.44	212.45
357.82	212.40
358.20	213.21
358.58	213.19
358.97	213.02
359.35	213.43
359.73	213.76
360.11	213.90
360.49	214.12
360.87	214.40
361.25	214.76
361.63	215.55
362.01	215.60
362.39	215.45
362.77	215.81
363.15	215.74
363.53	216.00
363.91	216.10
364.29	215.88
364.67	214.00
365.05	214.14
365.43	214.40
365.81	214.74
366.19	214.86
366.57	215.48
366.95	215.57
367.33	215.00
367.71	214.98
368.09	215.26
368.47	215.26
368.85	215.07
369.23	215.29
369.61	214.55
369.99	215.26
370.37	215.88
370.75	216.83
371.13	216.33
371.51	215.79
371.89	215.93
372.27	216.19
372.65	216.48
373.03	216.64
373.41	216.57
373.78	216.55
374.16	215.55
374.54	214.88
374.92	214.64
375.30	214.95
375.68	214.45
376.06	214.64
376.44	214.57
376.82	214.86
377.19	214.76
377.57	214.62
377.95	213.98
378.33	213.60
378.71	212.26
379.09	212.64
379.47	213.10
379.84	212.79
380.22	212.79
380.60	212.52
380.98	212.10
381.36	211.98
381.73	211.55
382.11	211.86
382.49	211.93
382.87	211.81
383.25	211.81
383.62	214.52
384.00	213.90
384.38	213.81
384.76	214.21
385.13	215.02
385.51	215.17
385.89	215.02
386.27	215.00
386.64	215.24
387.02	215.10
387.40	215.05
387.78	215.24
388.15	215.26
388.53	215.17
388.91	215.36
389.29	215.38
389.66	216.05
390.04	215.79
390.42	216.38
390.79	216.48
391.17	216.31
391.55	214.00
391.92	214.12
392.30	214.29
392.68	213.88
393.05	213.90
393.43	214.07
393.81	214.12
394.18	213.98
394.56	214.05
394.94	214.40
395.31	214.24
395.69	214.98
396.06	215.38
396.44	215.69
396.82	215.69
397.19	216.55
397.57	216.00
397.95	216.43
398.32	215.79
398.70	216.10
399.07	216.57
399.45	216.43
399.82	216.45
400.20	216.40
400.58	216.31
400.95	215.12
401.33	215.40
401.70	216.74
402.08	216.88
402.45	216.90
402.83	217.48
403.20	217.81
403.58	217.76
403.95	217.98
404.33	218.26
404.71	218.62
405.08	219.93
405.46	220.07
405.83	220.36
406.21	220.67
406.58	221.17
406.96	221.21
407.33	221.74
407.70	222.45
408.08	224.43
408.45	225.29
408.83	226.81
409.20	227.36
409.58	227.10
409.95	228.19
410.33	229.19
410.70	229.52
411.08	230.69
411.45	231.33
411.82	232.24
412.20	234.21
412.57	236.45
412.95	236.12
413.32	238.10
413.69	239.36
414.07	241.02
414.44	242.67
414.82	245.10
415.19	247.64
415.56	249.79
415.94	251.19
416.31	254.10
416.68	256.81
417.06	259.93
417.43	263.48
417.81	266.74
418.18	270.12
418.55	273.88
418.93	277.81
419.30	282.19
419.67	286.76
420.04	290.71
420.42	295.31
420.79	302.48
421.16	307.83
421.54	314.62
421.91	320.86
422.28	327.02
422.66	333.33
423.03	340.83
423.40	347.79
423.77	355.00
424.15	361.98
424.52	369.07
424.89	377.74
425.26	384.98
425.64	392.83
426.01	401.45
426.38	410.00
426.75	419.57
427.13	429.10
427.50	438.74
427.87	448.36
428.24	457.95
428.61	466.29
428.99	477.62
429.36	488.19
429.73	499.31
430.10	510.74
430.47	522.14
430.85	532.69
431.22	545.12
431.59	559.83
431.96	572.62
432.33	587.10
432.70	600.86
433.08	617.38
433.45	632.45
433.82	647.83
434.19	665.10
434.56	681.36
434.93	696.43
435.30	712.12
435.68	730.05
436.05	747.55
436.42	764.21
436.79	779.67
437.16	796.93
437.53	814.74
437.90	832.14
438.27	849.83
438.64	868.38
439.01	886.00
439.38	899.40
439.75	914.07
440.13	931.02
440.50	945.62
440.87	958.31
441.24	971.98
441.61	986.38
441.98	996.95
442.35	1008.79
442.72	1022.10
443.09	1035.57
443.46	1043.36
443.83	1048.81
444.20	1054.12
444.57	1060.29
444.94	1063.21
445.31	1066.38
445.68	1072.98
446.05	1074.43
446.42	1073.02
446.79	1071.62
447.16	1069.86
447.53	1068.76
447.90	1062.02
448.27	1056.50
448.64	1048.02
449.01	1041.55
449.37	1030.48
449.74	1019.48
450.11	1008.33
450.48	993.36
450.85	977.48
451.22	964.69
451.59	952.26
451.96	940.05
452.33	924.69
452.70	910.55
453.07	893.74
453.43	873.33
453.80	857.29
454.17	841.40
454.54	825.50
454.91	809.21
455.28	793.38
455.65	778.60
456.02	766.86
456.38	754.14
456.75	738.60
457.12	725.05
457.49	712.55
457.86	699.07
458.23	689.38
458.59	677.62
458.96	665.57
459.33	654.74
459.70	644.67
460.07	636.07
460.43	626.26
460.80	617.98
461.17	611.21
461.54	602.62
461.91	594.62
462.27	586.29
462.64	579.57
463.01	571.83
463.38	565.57
463.74	555.21
464.11	548.76
464.48	543.17
464.85	536.88
465.21	532.40
465.58	526.95
465.95	520.29
466.32	515.74
466.68	510.52
467.05	505.88
467.42	501.21
467.78	496.12
468.15	491.76
468.52	487.98
468.88	481.98
469.25	477.43
469.62	474.24
469.98	471.07
470.35	467.69
470.72	464.26
471.08	459.33
471.45	456.71
471.82	453.60
472.18	449.93
472.55	447.76
472.92	444.02
473.28	441.19
473.65	438.33
474.02	435.14
474.38	433.64
474.75	431.81
475.11	429.45
475.48	428.07
475.85	426.26
476.21	424.24
476.58	423.26
476.94	422.05
477.31	420.48
477.67	418.98
478.04	417.79
478.41	417.14
478.77	418.79
479.14	417.40
479.50	417.02
479.87	416.52
480.23	416.24
480.60	415.76
480.96	415.50
481.33	416.67
481.69	416.67
482.06	416.31
482.42	416.57
482.79	416.90
483.15	417.14
483.52	417.90
483.88	418.60
484.25	419.24
484.61	419.98
484.98	420.81
485.34	422.36
485.71	423.79
486.07	425.19
486.44	424.52
486.80	426.05
487.17	427.43
487.53	430.21
487.90	432.10
488.26	435.33
488.62	438.36
488.99	439.76
489.35	442.67
489.72	445.17
490.08	447.64
490.44	450.24
490.81	453.69
491.17	456.81
491.54	460.10
491.90	464.21
492.26	468.10
492.63	471.71
492.99	475.12
493.36	479.05
493.72	483.36
494.08	487.67
494.45	492.71
494.81	497.57
495.17	501.83
495.54	507.76
495.90	512.17
496.26	516.95
496.63	522.79
496.99	527.71
497.35	533.52
497.72	539.43
498.08	545.19
498.44	551.21
498.80	557.88
499.17	564.24
499.53	569.86
499.89	576.45
500.26	582.88
500.62	589.45
500.98	596.90
501.34	603.74
501.71	611.14
502.07	617.79
502.43	625.31
502.79	632.07
503.16	638.55
503.52	645.83
503.88	652.67
504.24	660.05
504.60	667.95
504.97	675.93
505.33	683.38
505.69	691.93
506.05	699.00
506.41	706.10
506.78	713.52
507.14	721.17
507.50	728.69
507.86	737.12
508.22	745.45
508.59	752.74
508.95	760.55
509.31	769.21
509.67	777.69
510.03	784.79
510.39	792.71
510.75	800.26
511.12	807.88
511.48	816.02
511.84	823.50
512.20	831.14
512.56	838.33
512.92	846.36
513.28	853.76
513.64	861.43
514.00	869.12
514.37	876.62
514.73	883.98
515.09	892.07
515.45	898.83
515.81	905.64
516.17	912.17
516.53	918.62
516.89	923.74
517.25	930.05
517.61	937.26
517.97	943.79
518.33	950.40
518.69	957.10
519.05	963.29
519.41	969.64
519.77	976.79
520.13	982.64
520.49	987.98
520.85	993.71
521.21	1000.64
521.57	1006.31
521.93	1011.55
522.29	1017.71
522.65	1022.02
523.01	1027.48
523.37	1031.83
523.73	1037.00
524.09	1042.38
524.45	1047.64
524.81	1052.24
525.17	1056.38
525.53	1060.93
525.89	1065.43
526.25	1069.95
526.61	1073.69
526.97	1077.31
527.33	1080.45
527.68	1086.95
528.04	1090.83
528.40	1094.57
528.76	1098.24
529.12	1102.05
529.48	1106.83
529.84	1110.07
530.20	1114.83
530.56	1118.90
530.91	1124.55
531.27	1129.36
531.63	1133.24
531.99	1137.43
532.35	1141.55
532.71	1144.90
533.07	1149.55
533.42	1155.57
533.78	1159.64
534.14	1164.76
534.50	1169.00
534.86	1173.86
535.21	1175.52
535.57	1180.48
535.93	1184.40
536.29	1188.98
536.65	1193.10
537.00	1196.40
537.36	1200.19
537.72	1202.76
538.08	1206.62
538.44	1208.55
538.79	1211.52
539.15	1214.69
539.51	1217.48
539.87	1220.86
540.22	1224.98
540.58	1227.90
540.94	1229.40
541.29	1232.26
541.65	1234.38
542.01	1237.86
542.37	1240.74
542.72	1243.62
543.08	1245.17
543.44	1247.76
543.79	1248.79
544.15	1252.19
544.51	1255.48
544.87	1258.10
545.22	1261.64
545.58	1263.90
545.94	1267.29
546.29	1269.79
546.65	1272.95
547.01	1275.45
547.36	1277.67
547.72	1280.19
548.07	1283.07
548.43	1285.43
548.79	1287.60
549.14	1290.69
549.50	1293.43
549.86	1294.31
550.21	1297.29
550.57	1300.60
550.92	1303.60
551.28	1306.67
551.64	1308.93
551.99	1311.79
552.35	1314.98
552.70	1318.10
553.06	1321.55
553.41	1324.10
553.77	1329.00
554.13	1332.12
554.48	1337.50
554.84	1342.07
555.19	1345.38
555.55	1350.83
555.90	1354.24
556.26	1358.17
556.61	1361.76
556.97	1364.81
557.32	1370.07
557.68	1374.05
558.03	1378.50
558.39	1382.10
558.74	1386.05
559.10	1388.95
559.45	1392.76
559.81	1397.48
560.16	1401.69
560.52	1405.71
560.87	1410.69
561.23	1413.50
561.58	1419.71
561.94	1422.69
562.29	1427.45
562.64	1431.95
563.00	1435.24
563.35	1440.14
563.71	1445.43
564.06	1450.45
564.42	1456.38
564.77	1462.02
565.12	1468.26
565.48	1475.05
565.83	1481.21
566.19	1487.62
566.54	1494.21
566.89	1499.21
567.25	1505.00
567.60	1511.67
567.96	1518.81
568.31	1525.55
568.66	1532.83
569.02	1537.60
569.37	1543.43
569.72	1547.57
570.08	1553.36
570.43	1558.50
570.78	1563.86
571.14	1568.38
571.49	1573.52
571.84	1579.43
572.20	1583.98
572.55	1588.31
572.90	1590.79
573.26	1594.45
573.61	1598.64
573.96	1603.67
574.31	1608.69
574.67	1612.17
575.02	1615.83
575.37	1619.00
575.72	1622.40
576.08	1625.05
576.43	1627.86
576.78	1631.93
577.13	1636.71
577.49	1639.45
577.84	1643.36
578.19	1647.76
578.54	1652.76
578.90	1657.02
579.25	1658.86
579.60	1661.93
579.95	1664.81
580.30	1669.05
580.66	1673.90
581.01	1677.05
581.36	1680.12
581.71	1683.43
582.06	1687.86
582.42	1691.21
582.77	1693.79
583.12	1696.88
583.47	1700.36
583.82	1703.50
584.17	1705.71
584.53	1709.43
584.88	1713.38
585.23	1716.93
585.58	1718.93
585.93	1720.52
586.28	1723.05
586.63	1727.24
586.98	1730.43
587.34	1734.60
587.69	1737.57
588.04	1740.40
588.39	1742.26
588.74	1743.29
589.09	1746.02
589.44	1746.52
589.79	1747.76
590.14	1749.67
590.49	1751.02
590.84	1751.95
591.19	1754.26
591.54	1755.88
591.89	1755.24
592.25	1758.95
592.60	1758.88
592.95	1760.98
593.30	1762.76
593.65	1762.81
594.00	1761.64
594.35	1768.02
594.70	1766.95
595.05	1767.17
595.40	1767.81
595.75	1769.38
596.10	1771.88
596.45	1772.60
596.80	1774.79
597.15	1776.05
597.50	1776.52
597.85	1777.88
598.19	1778.81
598.54	1778.93
598.89	1779.57
599.24	1780.45
599.59	1779.17
599.94	1781.19
600.29	1781.24
600.64	1781.19
600.99	1782.83
601.34	1785.21
601.69	1779.55
602.04	1779.62
602.39	1779.71
602.74	1779.07
603.08	1778.60
603.43	1778.45
603.78	1777.31
604.13	1776.05
604.48	1775.60
604.83	1775.79
605.18	1775.40
605.53	1775.55
605.87	1774.38
606.22	1773.93
606.57	1773.67
606.92	1771.88
607.27	1769.93
607.62	1768.57
607.96	1768.21
608.31	1767.02
608.66	1765.71
609.01	1764.67
609.36	1763.29
609.70	1761.71
610.05	1758.64
610.40	1756.24
610.75	1753.14
611.10	1752.05
611.44	1749.90
611.79	1747.33
612.14	1744.95
612.49	1740.74
612.83	1737.31
613.18	1734.76
613.53	1732.24
613.88	1729.52
614.22	1727.52
614.57	1723.57
614.92	1720.24
615.27	1717.02
615.61	1712.40
615.96	1708.14
616.31	1704.14
616.65	1701.74
617.00	1698.57
617.35	1696.95
617.70	1694.79
618.04	1691.36
618.39	1687.69
618.74	1684.00
619.08	1679.98
619.43	1676.00
619.78	1673.67
620.12	1670.40
620.47	1667.12
620.82	1662.26
621.16	1658.00
621.51	1654.64
621.85	1650.29
622.20	1646.64
622.55	1641.52
622.89	1638.60
623.24	1635.02
623.59	1631.86
623.93	1628.05
624.28	1624.29
624.62	1621.64
624.97	1618.38
625.32	1615.05
625.66	1610.69
626.01	1606.69
626.35	1604.17
626.70	1599.98
627.04	1596.02
627.39	1592.29
627.73	1589.07
628.08	1586.64
628.43	1582.24
628.77	1577.21
629.12	1574.31
629.46	1571.14
629.81	1567.67
630.15	1562.62
630.50	1558.33
630.84	1553.40
631.19	1547.55
631.53	1542.29
631.88	1535.02
632.22	1528.17
632.57	1523.90
632.91	1519.36
633.26	1515.33
633.60	1509.64
633.95	1504.74
634.29	1498.83
634.64	1494.10
634.98	1488.14
635.32	1483.79
635.67	1480.71
636.01	1477.19
636.36	1472.33
636.70	1467.57
637.05	1463.31
637.39	1459.74
637.73	1455.38
638.08	1452.33
638.42	1448.98
638.77	1445.14
639.11	1440.93
639.45	1437.43
639.80	1431.95
640.14	1426.74
640.49	1421.36
640.83	1416.02
641.17	1411.74
641.52	1407.81
641.86	1402.48
642.20	1398.95
642.55	1392.95
642.89	1386.60
643.23	1381.12
643.58	1376.64
643.92	1370.14
644.26	1364.33
644.61	1358.93
644.95	1353.57
645.29	1346.43
645.64	1340.05
645.98	1333.86
646.32	1328.29
646.66	1322.10
647.01	1315.86
647.35	1310.62
647.69	1304.71
648.04	1299.50
648.38	1293.45
648.72	1287.33
649.06	1281.10
649.41	1274.71
649.75	1267.90
650.09	1261.90
650.43	1254.88
650.78	1247.81
651.12	1242.00
651.46	1235.74
651.80	1229.31
652.14	1223.14
652.49	1217.74
652.83	1211.86
653.17	1205.74
653.51	1199.79
653.85	1194.17
654.20	1187.83
654.54	1180.43
654.88	1173.93
655.22	1167.81
655.56	1161.69
655.90	1154.69
656.25	1148.95
656.59	1142.36
656.93	1137.07
657.27	1131.83
657.61	1125.31
657.95	1119.57
658.29	1112.76
658.64	1107.48
658.98	1101.02
659.32	1093.60
659.66	1086.05
660.00	1079.62
660.34	1073.43
660.68	1066.83
661.02	1059.79
661.36	1053.60
661.70	1047.64
662.05	1041.88
662.39	1035.95
662.73	1030.12
663.07	1025.71
663.41	1019.05
663.75	1012.29
664.09	1006.05
664.43	998.83
664.77	992.81
665.11	985.81
665.45	980.19
665.79	973.86
666.13	967.88
666.47	962.67
666.81	957.55
667.15	951.74
667.49	945.95
667.83	940.88
668.17	935.60
668.51	930.40
668.85	925.83
669.19	921.29
669.53	914.81
669.87	909.05
670.21	902.45
670.55	896.55
670.89	892.33
671.23	886.90
671.57	881.52
671.91	876.76
672.25	871.71
672.58	867.31
672.92	861.02
673.26	855.62
673.60	849.93
673.94	844.90
674.28	839.67
674.62	835.17
674.96	829.74
675.30	825.02
675.64	819.83
675.97	814.83
676.31	809.31
676.65	803.98
676.99	799.93
677.33	795.40
677.67	791.40
678.01	785.17
678.34	780.21
678.68	775.81
679.02	770.26
679.36	765.88
679.70	760.31
680.04	755.62
680.37	750.76
680.71	745.98
681.05	740.55
681.39	735.83
681.73	730.52
682.06	725.43
682.40	720.48
682.74	716.00
683.08	711.33
683.42	705.62
683.75	701.36
684.09	695.69
684.43	690.98
684.77	685.64
685.10	681.31
685.44	676.43
685.78	671.64
686.12	667.21
686.45	662.50
686.79	657.38
687.13	653.48
687.46	649.45
687.80	645.74
688.14	641.83
688.48	637.93
688.81	633.14
689.15	629.33
689.49	624.48
689.82	620.14
690.16	615.33
690.50	611.29
690.83	606.95
691.17	602.50
691.51	597.86
691.84	594.14
692.18	590.29
692.52	586.40
692.85	582.79
693.19	580.07
693.52	575.79
693.86	572.00
694.20	568.12
694.53	563.81
694.87	559.33
695.21	555.29
695.54	551.38
695.88	547.36
696.21	542.71
696.55	539.05
696.88	535.24
697.22	530.81
697.56	527.62
697.89	524.07
698.23	520.90
698.56	517.21
698.90	513.64
699.23	509.69
699.57	506.33
699.90	502.05
700.24	497.60
700.58	494.50
700.91	491.64
701.25	489.60
701.58	486.79
701.92	484.17
702.25	480.86
702.59	477.29
702.92	474.40
703.26	471.36
703.59	468.31
703.93	466.83
704.26	464.62
704.60	461.81
704.93	458.74
705.26	455.24
705.60	452.69
705.93	449.57
706.27	447.10
706.60	444.45
706.94	443.36
707.27	440.48
707.61	437.83
707.94	434.57
708.27	430.62
708.61	427.52
708.94	424.48
709.28	422.36
709.61	419.79
709.94	417.36
710.28	415.29
710.61	413.00
710.95	408.98
711.28	407.60
711.61	405.05
711.95	403.02
712.28	400.76
712.61	398.50
712.95	396.88
713.28	395.71
713.61	393.64
713.95	390.26
714.28	388.12
714.61	385.67
714.95	383.48
715.28	380.90
715.61	378.69
715.95	376.98
716.28	374.55
716.61	372.93
716.95	370.88
717.28	368.81
717.61	366.83
717.94	364.83
718.28	361.79
718.61	359.71
718.94	357.45
719.27	355.43
719.61	353.79
719.94	351.64
720.27	348.67
720.60	346.24
720.94	344.43
721.27	342.98
721.60	342.10
721.93	341.12
722.27	340.26
722.60	338.98
722.93	337.14
723.26	335.83
723.59	333.83
723.93	332.50
724.26	331.33
724.59	329.45
724.92	328.24
725.25	327.29
725.59	325.98
725.92	325.29
726.25	324.24
726.58	323.02
726.91	321.90
727.24	321.26
727.57	320.29
727.91	318.81
728.24	317.64
728.57	315.81
728.90	314.88
729.23	313.05
729.56	312.64
729.89	311.38
730.22	309.98
730.55	309.12
730.89	308.07
731.22	306.69
731.55	305.83
731.88	304.83
732.21	303.43
732.54	302.02
732.87	300.98
733.20	300.19
733.53	299.00
733.86	297.90
734.19	296.24
734.52	295.48
734.85	296.17
735.18	294.83
735.51	294.50
735.84	293.50
736.17	293.29
736.50	291.74
736.83	293.21
737.16	292.67
737.49	291.81
737.82	290.79
738.15	290.12
738.48	289.19
738.81	288.21
739.14	287.07
739.47	286.52
739.80	285.24
740.13	284.43
740.46	283.31
740.79	282.57
741.12	281.86
741.45	280.83
741.78	279.05
742.11	278.95
742.44	277.64
742.77	277.17
743.10	276.10
743.43	274.90
743.75	272.07
744.08	273.79
744.41	273.00
744.74	272.00
745.07	270.98
745.40	270.90
745.73	270.98
746.06	270.60
746.39	270.07
746.71	269.33
747.04	268.33
747.37	267.55
747.70	266.98
748.03	266.26
748.36	266.00
748.68	265.07
749.01	263.98
749.34	263.71
749.67	263.10
750.00	262.90
750.33	264.10
750.65	263.74
750.98	260.74
751.31	260.31
751.64	260.19
751.97	261.10
752.29	260.10
752.62	258.74
752.95	258.17
753.28	257.31
753.60	256.95
753.93	257.19
754.26	256.98
754.59	255.83
754.91	255.50
755.24	254.74
755.57	254.33
755.90	253.76
756.22	253.10
756.55	252.17
756.88	251.21
757.20	249.12
757.53	247.88
757.86	247.19
758.19	246.83
758.51	246.19
758.84	244.26
759.17	243.93
759.49	243.93
759.82	244.43
760.15	244.33
760.47	243.95
760.80	242.95
761.13	243.00
761.45	242.76
761.78	242.43
762.11	241.98
762.43	241.52
762.76	241.10
763.08	241.12
763.41	240.79
763.74	240.48
764.06	240.40
764.39	240.38
764.71	240.05
765.04	239.21
765.37	238.57
765.69	238.24
766.02	237.86
766.34	237.19
766.67	236.21
767.00	236.14
767.32	236.71
767.65	237.26
767.97	236.76
768.30	236.57
768.62	236.17
768.95	235.76
769.27	235.29
769.60	235.36
769.92	234.55
770.25	233.90
770.57	233.29
770.90	233.05
771.22	232.38
771.55	232.14
771.87	232.12
772.20	231.93
772.52	233.50
772.85	235.76
773.17	235.69
773.50	235.24
773.82	234.64
774.15	233.45
774.47	232.38
774.80	231.76
775.12	231.71
775.45	231.43
775.77	231.52
776.09	231.83
776.42	231.50
776.74	231.71
777.07	231.55
777.39	231.52
777.72	230.95
778.04	231.29
778.36	231.12
778.69	231.19
779.01	231.26
779.33	229.40
779.66	226.69
779.98	226.29
780.31	226.17
780.63	227.02
780.95	227.17
781.28	227.00
781.60	226.67
781.92	226.45
782.25	226.55
782.57	226.21
782.89	225.57
783.22	225.33
783.54	224.83
783.86	224.90
784.19	224.67
784.51	225.31
784.83	224.90
785.16	224.83
