SpectraSuite Data File
++++++++++++++++++++++++++++++++++++
Date: Tue Apr 02 18:39:45 EDT 2013
User: group
Dark Spectrum Present: No
Reference Spectrum Present: No
Number of Sampled Component Spectra: 1
Spectrometers: USB2E7196
Integration Time (usec): 580000 (USB2E7196)
Spectra Averaged: 2 (USB2E7196)
Boxcar Smoothing: 10 (USB2E7196)
Correct for Electrical Dark: No (USB2E7196)
Strobe/Lamp Enabled: No (USB2E7196)
Correct for Detector Non-linearity: No (USB2E7196)
Correct for Stray Light: No (USB2E7196)
Number of Pixels in Processed Spectrum: 2048
>>>>>Begin Processed Spectral Data<<<<<
339.09	0.00
339.48	195.00
339.86	196.00
340.24	192.00
340.63	193.50
341.01	235.00
341.39	199.50
341.78	208.50
342.16	210.50
342.54	208.50
342.93	197.88
343.31	207.60
343.69	208.10
344.07	208.57
344.46	209.48
344.84	210.40
345.22	209.17
345.60	209.62
345.99	209.79
346.37	209.79
346.75	209.93
347.13	210.26
347.52	210.40
347.90	210.98
348.28	211.21
348.66	211.74
349.05	211.17
349.43	211.12
349.81	211.12
350.19	211.36
350.57	211.40
350.96	211.67
351.34	212.14
351.72	212.26
352.10	212.29
352.48	212.21
352.87	212.02
353.25	212.07
353.63	212.02
354.01	211.95
354.39	211.90
354.77	211.98
355.15	212.43
355.54	212.24
355.92	211.57
356.30	211.36
356.68	212.74
357.06	212.74
357.44	212.62
357.82	212.67
358.20	213.62
358.58	213.79
358.97	213.81
359.35	213.93
359.73	214.55
360.11	214.76
360.49	214.81
360.87	214.86
361.25	215.10
361.63	215.57
362.01	215.64
362.39	215.57
362.77	215.62
363.15	215.40
363.53	215.52
363.91	215.86
364.29	215.83
364.67	213.88
365.05	214.02
365.43	214.31
365.81	214.55
366.19	214.36
366.57	215.12
366.95	214.98
367.33	214.76
367.71	214.67
368.09	215.29
368.47	215.43
368.85	215.55
369.23	216.17
369.61	215.74
369.99	216.60
370.37	216.98
370.75	218.02
371.13	217.83
371.51	217.71
371.89	217.67
372.27	217.71
372.65	217.88
373.03	217.79
373.41	217.62
373.78	217.57
374.16	216.83
374.54	216.38
374.92	216.40
375.30	216.33
375.68	215.69
376.06	215.50
376.44	215.40
376.82	215.48
377.19	215.00
377.57	215.00
377.95	214.07
378.33	214.07
378.71	213.00
379.09	213.07
379.47	213.43
379.84	213.31
380.22	213.29
380.60	213.02
380.98	212.98
381.36	212.79
381.73	212.50
382.11	212.76
382.49	212.79
382.87	212.62
383.25	212.95
383.62	215.48
384.00	215.00
384.38	215.07
384.76	215.48
385.13	216.40
385.51	216.52
385.89	216.38
386.27	216.26
386.64	216.36
387.02	216.50
387.40	215.98
387.78	215.90
388.15	216.07
388.53	216.02
388.91	216.36
389.29	216.36
389.66	216.95
390.04	216.76
390.42	216.95
390.79	217.19
391.17	216.83
391.55	214.50
391.92	214.45
392.30	214.74
392.68	214.40
393.05	214.33
393.43	214.19
393.81	214.45
394.18	214.07
394.56	214.24
394.94	214.52
395.31	214.67
395.69	215.45
396.06	215.76
396.44	216.02
396.82	215.71
397.19	216.55
397.57	216.14
397.95	216.38
398.32	216.00
398.70	216.19
399.07	216.90
399.45	216.83
399.82	217.07
400.20	216.83
400.58	216.67
400.95	215.67
401.33	216.40
401.70	217.74
402.08	218.24
402.45	218.19
402.83	218.90
403.20	219.10
403.58	218.76
403.95	219.07
404.33	219.50
404.71	219.98
405.08	221.74
405.46	222.07
405.83	222.52
406.21	222.93
406.58	223.33
406.96	223.40
407.33	224.40
407.70	225.07
408.08	227.29
408.45	228.21
408.83	229.40
409.20	229.86
409.58	229.50
409.95	230.45
410.33	231.55
410.70	231.62
411.08	232.95
411.45	234.17
411.82	235.05
412.20	236.71
412.57	239.12
412.95	238.62
413.32	240.50
413.69	242.10
414.07	243.86
414.44	246.21
414.82	248.69
415.19	251.19
415.56	253.60
415.94	255.17
416.31	258.29
416.68	261.21
417.06	264.60
417.43	268.38
417.81	272.00
418.18	276.07
418.55	280.07
418.93	284.50
419.30	289.24
419.67	293.95
420.04	298.52
420.42	303.14
420.79	310.69
421.16	316.90
421.54	324.17
421.91	331.05
422.28	337.60
422.66	344.86
423.03	353.40
423.40	361.07
423.77	368.57
424.15	376.43
424.52	384.95
424.89	394.48
425.26	402.98
425.64	412.05
426.01	420.67
426.38	430.69
426.75	440.81
427.13	450.86
427.50	461.33
427.87	472.67
428.24	483.76
428.61	493.24
428.99	505.00
429.36	516.74
429.73	528.79
430.10	540.95
430.47	553.62
430.85	564.95
431.22	578.26
431.59	594.57
431.96	608.07
432.33	623.55
432.70	638.52
433.08	655.81
433.45	671.67
433.82	688.26
434.19	707.00
434.56	725.45
434.93	742.95
435.30	760.31
435.68	779.55
436.05	798.38
436.42	817.31
436.79	835.36
437.16	854.19
437.53	874.19
437.90	893.67
438.27	913.52
438.64	933.83
439.01	953.33
439.38	969.14
439.75	985.40
440.13	1003.52
440.50	1020.88
440.87	1035.00
441.24	1050.07
441.61	1065.74
441.98	1077.19
442.35	1090.57
442.72	1104.74
443.09	1119.36
443.46	1127.90
443.83	1134.05
444.20	1138.29
444.57	1144.52
444.94	1148.07
445.31	1151.10
445.68	1156.98
446.05	1157.67
446.42	1156.33
446.79	1154.31
447.16	1151.62
447.53	1151.17
447.90	1144.43
448.27	1137.48
448.64	1128.10
449.01	1121.64
449.37	1110.45
449.74	1098.90
450.11	1086.05
450.48	1069.36
450.85	1052.33
451.22	1037.76
451.59	1024.33
451.96	1012.19
452.33	995.05
452.70	979.48
453.07	961.07
453.43	940.05
453.80	921.88
454.17	904.90
454.54	887.83
454.91	870.10
455.28	852.29
455.65	836.19
456.02	823.07
456.38	809.17
456.75	791.26
457.12	776.19
457.49	761.69
457.86	745.71
458.23	735.14
458.59	722.71
458.96	709.69
459.33	697.62
459.70	686.07
460.07	676.79
460.43	666.07
460.80	657.17
461.17	649.29
461.54	640.48
461.91	630.90
462.27	622.29
462.64	614.17
463.01	605.64
463.38	597.88
463.74	586.19
464.11	579.19
464.48	573.33
464.85	566.79
465.21	561.86
465.58	557.19
465.95	549.40
466.32	543.62
466.68	537.81
467.05	532.74
467.42	527.07
467.78	521.62
468.15	516.12
468.52	511.57
468.88	505.29
469.25	499.95
469.62	496.24
469.98	491.83
470.35	488.00
470.72	484.52
471.08	479.52
471.45	476.24
471.82	473.38
472.18	469.48
472.55	466.83
472.92	463.00
473.28	459.48
473.65	456.45
474.02	453.74
474.38	451.69
474.75	449.40
475.11	447.12
475.48	444.95
475.85	443.36
476.21	441.17
476.58	439.64
476.94	438.57
477.31	437.38
477.67	436.12
478.04	435.21
478.41	434.26
478.77	435.81
479.14	434.74
479.50	433.98
479.87	433.60
480.23	433.12
480.60	432.67
480.96	432.29
481.33	433.93
481.69	433.88
482.06	434.10
482.42	434.31
482.79	434.74
483.15	435.00
483.52	435.88
483.88	436.67
484.25	437.40
484.61	438.48
484.98	439.14
485.34	440.95
485.71	442.90
486.07	444.43
486.44	444.26
486.80	446.05
487.17	447.52
487.53	450.57
487.90	452.71
488.26	456.12
488.62	459.90
488.99	461.52
489.35	464.31
489.72	467.31
490.08	470.52
490.44	473.55
490.81	477.48
491.17	480.74
491.54	484.55
491.90	489.14
492.26	493.36
492.63	497.62
492.99	501.60
493.36	505.93
493.72	510.52
494.08	514.88
494.45	520.57
494.81	525.98
495.17	530.64
495.54	536.81
495.90	541.52
496.26	546.64
496.63	552.48
496.99	558.29
497.35	565.05
497.72	571.38
498.08	578.12
498.44	585.14
498.80	592.31
499.17	599.21
499.53	606.07
499.89	613.31
500.26	620.93
500.62	628.45
500.98	636.45
501.34	644.45
501.71	652.98
502.07	660.48
502.43	668.26
502.79	676.50
503.16	684.40
503.52	692.88
503.88	700.64
504.24	709.14
504.60	718.17
504.97	726.21
505.33	734.60
505.69	743.50
506.05	752.17
506.41	760.93
506.78	769.67
507.14	778.36
507.50	787.50
507.86	796.62
508.22	805.55
508.59	813.29
508.95	822.00
509.31	831.74
509.67	841.07
510.03	850.21
510.39	859.14
510.75	868.17
511.12	876.79
511.48	886.12
511.84	895.36
512.20	903.98
512.56	913.26
512.92	922.83
513.28	931.69
513.64	939.67
514.00	948.79
514.37	957.64
514.73	965.71
515.09	974.81
515.45	983.12
515.81	991.81
516.17	1000.45
516.53	1008.93
516.89	1015.60
517.25	1023.55
517.61	1032.02
517.97	1039.12
518.33	1046.40
518.69	1054.86
519.05	1062.45
519.41	1069.74
519.77	1078.43
520.13	1086.05
520.49	1093.10
520.85	1100.79
521.21	1109.33
521.57	1116.17
521.93	1122.71
522.29	1130.19
522.65	1136.24
523.01	1143.24
523.37	1149.19
523.73	1156.24
524.09	1162.40
524.45	1168.88
524.81	1174.83
525.17	1180.88
525.53	1187.74
525.89	1193.64
526.25	1199.81
526.61	1205.31
526.97	1210.67
527.33	1216.17
527.68	1223.64
528.04	1229.10
528.40	1234.52
528.76	1240.10
529.12	1246.33
529.48	1253.57
529.84	1259.52
530.20	1265.67
530.56	1271.10
530.91	1277.14
531.27	1283.38
531.63	1289.62
531.99	1294.29
532.35	1299.98
532.71	1304.50
533.07	1309.79
533.42	1317.88
533.78	1323.62
534.14	1329.52
534.50	1336.19
534.86	1342.21
535.21	1345.71
535.57	1351.98
535.93	1356.67
536.29	1362.50
536.65	1367.21
537.00	1371.74
537.36	1377.00
537.72	1381.31
538.08	1386.98
538.44	1392.07
538.79	1396.02
539.15	1400.02
539.51	1407.19
539.87	1411.45
540.22	1417.50
540.58	1422.86
540.94	1426.07
541.29	1429.88
541.65	1433.48
542.01	1438.67
542.37	1441.52
542.72	1445.12
543.08	1448.38
543.44	1453.33
543.79	1455.76
544.15	1459.83
544.51	1463.69
544.87	1466.93
545.22	1471.21
545.58	1474.69
545.94	1478.90
546.29	1483.31
546.65	1486.62
547.01	1488.98
547.36	1493.24
547.72	1496.74
548.07	1499.98
548.43	1502.21
548.79	1506.00
549.14	1510.19
549.50	1512.76
549.86	1516.55
550.21	1520.64
550.57	1524.55
550.92	1527.29
551.28	1531.86
551.64	1535.10
551.99	1539.02
552.35	1543.14
552.70	1546.60
553.06	1550.05
553.41	1553.38
553.77	1558.52
554.13	1563.43
554.48	1568.83
554.84	1573.81
555.19	1577.69
555.55	1584.26
555.90	1589.00
556.26	1592.95
556.61	1596.81
556.97	1600.26
557.32	1603.79
557.68	1607.76
558.03	1611.33
558.39	1616.02
558.74	1620.10
559.10	1624.67
559.45	1629.21
559.81	1633.10
560.16	1637.02
560.52	1641.31
560.87	1645.45
561.23	1647.88
561.58	1653.67
561.94	1657.07
562.29	1660.40
562.64	1665.00
563.00	1667.60
563.35	1671.81
563.71	1676.90
564.06	1682.48
564.42	1687.74
564.77	1693.29
565.12	1699.07
565.48	1706.10
565.83	1711.57
566.19	1716.17
566.54	1720.83
566.89	1725.12
567.25	1731.07
567.60	1737.29
567.96	1743.71
568.31	1750.29
568.66	1756.24
569.02	1759.31
569.37	1762.86
569.72	1767.50
570.08	1771.52
570.43	1774.71
570.78	1779.14
571.14	1782.67
571.49	1785.64
571.84	1788.81
572.20	1792.24
572.55	1794.95
572.90	1797.02
573.26	1799.29
573.61	1802.05
573.96	1805.26
574.31	1807.83
574.67	1810.57
575.02	1811.95
575.37	1812.88
575.72	1812.98
576.08	1814.62
576.43	1816.02
576.78	1818.24
577.13	1819.48
577.49	1821.38
577.84	1823.48
578.19	1824.33
578.54	1825.52
578.90	1827.57
579.25	1828.93
579.60	1829.24
579.95	1829.36
580.30	1829.88
580.66	1831.14
581.01	1831.86
581.36	1831.48
581.71	1832.10
582.06	1832.48
582.42	1832.64
582.77	1832.29
583.12	1831.98
583.47	1831.19
583.82	1831.62
584.17	1831.88
584.53	1832.05
584.88	1831.05
585.23	1831.07
585.58	1829.93
585.93	1828.81
586.28	1827.52
586.63	1827.43
586.98	1827.79
587.34	1828.36
587.69	1827.02
588.04	1825.79
588.39	1824.43
588.74	1822.64
589.09	1821.55
589.44	1817.98
589.79	1817.17
590.14	1815.60
590.49	1814.76
590.84	1812.81
591.19	1811.43
591.54	1810.33
591.89	1808.14
592.25	1808.38
592.60	1804.67
592.95	1804.31
593.30	1804.00
593.65	1801.55
594.00	1798.43
594.35	1801.45
594.70	1797.81
595.05	1795.19
595.40	1793.12
595.75	1791.33
596.10	1790.33
596.45	1787.71
596.80	1787.71
597.15	1785.79
597.50	1782.71
597.85	1781.02
598.19	1779.33
598.54	1775.93
598.89	1772.74
599.24	1771.07
599.59	1766.88
599.94	1765.83
600.29	1762.88
600.64	1758.93
600.99	1756.81
601.34	1755.36
601.69	1747.50
602.04	1744.93
602.39	1742.36
602.74	1739.74
603.08	1736.21
603.43	1733.81
603.78	1731.52
604.13	1727.52
604.48	1723.95
604.83	1722.21
605.18	1719.62
605.53	1716.67
605.87	1713.79
606.22	1710.48
606.57	1706.21
606.92	1702.67
607.27	1698.67
607.62	1695.57
607.96	1693.86
608.31	1690.71
608.66	1685.57
609.01	1681.07
609.36	1678.48
609.70	1675.26
610.05	1669.90
610.40	1666.21
610.75	1661.21
611.10	1656.69
611.44	1651.29
611.79	1646.60
612.14	1641.17
612.49	1633.86
612.83	1627.50
613.18	1621.88
613.53	1616.24
613.88	1610.64
614.22	1604.90
614.57	1599.36
614.92	1593.38
615.27	1586.31
615.61	1580.14
615.96	1574.81
616.31	1568.81
616.65	1562.55
617.00	1555.79
617.35	1550.93
617.70	1544.93
618.04	1538.43
618.39	1532.26
618.74	1527.24
619.08	1521.14
619.43	1515.29
619.78	1510.26
620.12	1505.83
620.47	1500.55
620.82	1494.48
621.16	1488.24
621.51	1483.21
621.85	1476.93
622.20	1470.76
622.55	1464.12
622.89	1457.64
623.24	1451.93
623.59	1446.33
623.93	1440.19
624.28	1435.00
624.62	1431.48
624.97	1426.76
625.32	1422.33
625.66	1415.86
626.01	1409.57
626.35	1404.02
626.70	1398.38
627.04	1393.79
627.39	1387.10
627.73	1381.93
628.08	1376.95
628.43	1372.48
628.77	1366.21
629.12	1360.81
629.46	1355.48
629.81	1350.45
630.15	1344.43
630.50	1338.14
630.84	1331.74
631.19	1325.12
631.53	1318.79
631.88	1309.57
632.22	1300.86
632.57	1294.36
632.91	1287.57
633.26	1281.52
633.60	1274.88
633.95	1268.43
634.29	1260.45
634.64	1254.33
634.98	1247.67
635.32	1241.86
635.67	1235.33
636.01	1229.74
636.36	1222.90
636.70	1216.93
637.05	1210.67
637.39	1205.55
637.73	1200.43
638.08	1195.83
638.42	1190.02
638.77	1184.33
639.11	1178.31
639.45	1173.83
639.80	1166.98
640.14	1161.88
640.49	1155.83
640.83	1149.24
641.17	1143.26
641.52	1137.93
641.86	1132.02
642.20	1126.52
642.55	1119.48
642.89	1113.31
643.23	1105.98
643.58	1101.02
643.92	1093.21
644.26	1086.43
644.61	1079.67
644.95	1071.98
645.29	1064.36
645.64	1058.26
645.98	1051.76
646.32	1045.81
646.66	1037.98
647.01	1031.29
647.35	1025.19
647.69	1018.69
648.04	1013.00
648.38	1006.24
648.72	999.86
649.06	993.26
649.41	985.93
649.75	979.38
650.09	972.33
650.43	965.50
650.78	957.90
651.12	951.93
651.46	945.57
651.80	939.19
652.14	933.55
652.49	927.74
652.83	921.57
653.17	914.60
653.51	908.55
653.85	903.98
654.20	897.86
654.54	890.64
654.88	884.48
655.22	878.93
655.56	872.79
655.90	866.52
656.25	860.50
656.59	854.62
656.93	848.71
657.27	843.88
657.61	838.26
657.95	833.29
658.29	827.79
658.64	822.26
658.98	816.43
659.32	810.40
659.66	804.60
660.00	798.45
660.34	793.00
660.68	787.14
661.02	780.98
661.36	775.81
661.70	770.83
662.05	765.29
662.39	759.40
662.73	755.38
663.07	751.52
663.41	745.76
663.75	740.50
664.09	735.36
664.43	729.45
664.77	724.29
665.11	718.26
665.45	713.83
665.79	709.07
666.13	703.81
666.47	698.29
666.81	693.38
667.15	687.57
667.49	683.33
667.83	679.38
668.17	674.55
668.51	669.29
668.85	664.62
669.19	660.90
669.53	655.45
669.87	649.40
670.21	643.60
670.55	639.83
670.89	636.05
671.23	631.45
671.57	627.24
671.91	623.17
672.25	619.64
672.58	615.95
672.92	611.00
673.26	607.07
673.60	603.67
673.94	599.45
674.28	596.55
674.62	592.69
674.96	588.24
675.30	584.60
675.64	581.29
675.97	577.29
676.31	572.69
676.65	569.29
676.99	566.67
677.33	562.79
677.67	558.60
678.01	553.57
678.34	549.98
678.68	546.52
679.02	542.48
679.36	538.52
679.70	534.05
680.04	530.79
680.37	526.95
680.71	523.36
681.05	520.12
681.39	516.48
681.73	512.45
682.06	508.50
682.40	504.79
682.74	501.45
683.08	498.67
683.42	495.05
683.75	491.86
684.09	487.79
684.43	484.40
684.77	481.40
685.10	478.71
685.44	475.88
685.78	472.69
686.12	469.98
686.45	466.83
686.79	463.52
687.13	460.88
687.46	458.05
687.80	455.43
688.14	451.95
688.48	449.43
688.81	446.93
689.15	444.60
689.49	441.71
689.82	439.02
690.16	435.40
690.50	432.55
690.83	429.52
691.17	426.86
691.51	424.33
691.84	421.62
692.18	418.98
692.52	416.17
692.85	413.83
693.19	412.12
693.52	409.76
693.86	407.26
694.20	404.83
694.53	402.64
694.87	399.86
695.21	397.36
695.54	394.90
695.88	392.36
696.21	389.50
696.55	387.24
696.88	384.81
697.22	382.64
697.56	380.88
697.89	378.90
698.23	377.24
698.56	374.93
698.90	373.43
699.23	371.24
699.57	369.74
699.90	367.43
700.24	365.10
700.58	363.29
700.91	361.79
701.25	360.98
701.58	359.67
701.92	358.38
702.25	356.74
702.59	354.48
702.92	352.60
703.26	350.83
703.59	349.21
703.93	349.45
704.26	348.40
704.60	346.93
704.93	345.26
705.26	343.29
705.60	341.98
705.93	339.64
706.27	338.69
706.60	337.24
706.94	336.55
707.27	334.33
707.61	332.98
707.94	331.21
708.27	328.36
708.61	326.02
708.94	324.43
709.28	323.38
709.61	322.02
709.94	320.62
710.28	319.55
710.61	318.05
710.95	314.64
711.28	314.31
711.61	312.98
711.95	312.07
712.28	310.74
712.61	309.45
712.95	309.24
713.28	308.79
713.61	307.12
713.95	305.21
714.28	304.33
714.61	302.83
714.95	301.50
715.28	300.40
715.61	299.45
715.95	298.55
716.28	297.17
716.61	296.64
716.95	295.33
717.28	294.40
717.61	293.45
717.94	292.45
718.28	289.74
718.61	288.64
718.94	287.07
719.27	285.95
719.61	285.19
719.94	283.64
720.27	281.79
720.60	281.00
720.94	280.07
721.27	279.40
721.60	278.98
721.93	278.38
722.27	278.14
722.60	277.83
722.93	276.69
723.26	276.14
723.59	275.05
723.93	274.81
724.26	274.14
724.59	273.24
724.92	272.76
725.25	272.76
725.59	272.07
725.92	271.81
726.25	271.21
726.58	270.57
726.91	269.83
727.24	269.50
727.57	268.62
727.91	267.88
728.24	267.52
728.57	266.60
728.90	266.07
729.23	264.81
729.56	264.71
729.89	264.26
730.22	263.24
730.55	262.36
730.89	261.79
731.22	260.74
731.55	260.29
731.88	259.74
732.21	258.90
732.54	258.14
732.87	257.79
733.20	257.43
733.53	257.07
733.86	256.93
734.19	256.12
734.52	255.93
734.85	256.71
735.18	255.98
735.51	256.26
735.84	256.17
736.17	256.29
736.50	255.02
736.83	256.71
737.16	256.36
737.49	256.24
737.82	255.60
738.15	255.74
738.48	255.38
738.81	254.88
739.14	254.31
739.47	253.52
739.80	253.17
740.13	253.02
740.46	252.10
740.79	251.33
741.12	250.74
741.45	250.21
741.78	248.93
742.11	249.29
742.44	248.52
742.77	248.24
743.10	247.79
743.43	247.36
743.75	244.95
744.08	247.21
744.41	246.90
744.74	246.36
745.07	245.67
745.40	245.50
745.73	245.88
746.06	245.50
746.39	245.71
746.71	244.98
747.04	244.17
747.37	243.74
747.70	243.86
748.03	243.64
748.36	243.52
748.68	243.12
749.01	241.88
749.34	241.19
749.67	240.90
750.00	240.69
750.33	241.90
750.65	241.83
750.98	239.02
751.31	238.79
751.64	238.95
751.97	239.71
752.29	239.45
752.62	238.21
752.95	238.12
753.28	237.50
753.60	237.21
753.93	237.74
754.26	237.71
754.59	236.81
754.91	236.50
755.24	236.07
755.57	235.48
755.90	235.14
756.22	234.95
756.55	234.24
756.88	233.57
757.20	232.05
757.53	231.24
757.86	231.24
758.19	231.14
758.51	230.79
758.84	229.64
759.17	229.48
759.49	229.38
759.82	229.76
760.15	230.05
760.47	229.95
760.80	229.07
761.13	229.33
761.45	229.19
761.78	229.19
762.11	228.81
762.43	228.86
762.76	228.50
763.08	228.48
763.41	228.57
763.74	228.55
764.06	228.26
764.39	228.29
764.71	228.12
765.04	227.50
765.37	227.29
765.69	226.79
766.02	226.57
766.34	226.62
766.67	226.14
767.00	226.10
767.32	227.00
767.65	228.21
767.97	227.81
768.30	227.76
768.62	227.40
768.95	227.21
769.27	227.00
769.60	227.40
769.92	227.05
770.25	226.52
770.57	226.02
770.90	225.95
771.22	225.55
771.55	225.38
771.87	225.67
772.20	225.14
772.52	226.93
772.85	229.19
773.17	228.95
773.50	228.69
773.82	228.29
774.15	227.33
774.47	225.71
774.80	225.38
775.12	225.31
775.45	225.52
775.77	225.81
776.09	226.07
776.42	226.19
776.74	226.62
777.07	226.52
777.39	226.71
777.72	226.52
778.04	226.79
778.36	226.43
778.69	226.10
779.01	226.21
779.33	224.24
779.66	221.76
779.98	221.43
780.31	221.31
780.63	222.21
780.95	222.38
781.28	222.55
781.60	222.50
781.92	222.45
782.25	222.02
782.57	221.74
782.89	221.05
783.22	220.60
783.54	220.26
783.86	220.26
784.19	220.05
784.51	220.67
784.83	220.21
785.16	220.19
785.48	220.21
