SpectraSuite Data File
++++++++++++++++++++++++++++++++++++
Date: Tue Apr 02 18:38:57 EDT 2013
User: group
Dark Spectrum Present: No
Reference Spectrum Present: No
Number of Sampled Component Spectra: 1
Spectrometers: USB2E7196
Integration Time (usec): 580000 (USB2E7196)
Spectra Averaged: 2 (USB2E7196)
Boxcar Smoothing: 10 (USB2E7196)
Correct for Electrical Dark: No (USB2E7196)
Strobe/Lamp Enabled: No (USB2E7196)
Correct for Detector Non-linearity: No (USB2E7196)
Correct for Stray Light: No (USB2E7196)
Number of Pixels in Processed Spectrum: 2048
>>>>>Begin Processed Spectral Data<<<<<
339.09	0.00
339.48	189.50
339.86	192.50
340.24	194.50
340.63	197.50
341.01	230.50
341.39	198.50
341.78	204.50
342.16	210.00
342.54	199.50
342.93	197.07
343.31	206.95
343.69	207.88
344.07	208.60
344.46	209.40
344.84	210.21
345.22	209.26
345.60	210.00
345.99	210.10
346.37	210.10
346.75	210.60
347.13	210.76
347.52	210.83
347.90	211.60
348.28	211.50
348.66	212.00
349.05	211.52
349.43	211.55
349.81	211.83
350.19	212.12
350.57	212.38
350.96	212.69
351.34	213.07
351.72	213.07
352.10	213.24
352.48	213.19
352.87	213.05
353.25	213.10
353.63	212.74
354.01	213.05
354.39	213.36
354.77	213.50
355.15	214.38
355.54	214.21
355.92	213.71
356.30	213.74
356.68	214.88
357.06	215.00
357.44	214.64
357.82	214.38
358.20	215.00
358.58	215.00
358.97	215.07
359.35	215.33
359.73	215.74
360.11	215.83
360.49	216.05
360.87	216.17
361.25	216.45
361.63	217.40
362.01	217.40
362.39	217.00
362.77	217.29
363.15	216.98
363.53	217.00
363.91	217.02
364.29	217.21
364.67	215.24
365.05	215.38
365.43	215.69
365.81	216.02
366.19	216.24
366.57	216.95
366.95	216.71
367.33	216.26
367.71	216.14
368.09	216.33
368.47	216.36
368.85	216.33
369.23	216.45
369.61	215.55
369.99	216.26
370.37	216.71
370.75	217.55
371.13	216.93
371.51	216.86
371.89	217.10
372.27	217.02
372.65	217.36
373.03	217.36
373.41	217.21
373.78	217.12
374.16	216.12
374.54	215.45
374.92	215.36
375.30	215.31
375.68	214.86
376.06	214.93
376.44	214.83
376.82	214.64
377.19	214.71
377.57	214.71
377.95	213.86
378.33	213.55
378.71	212.10
379.09	212.55
379.47	212.57
379.84	212.33
380.22	212.26
380.60	211.76
380.98	211.69
381.36	211.60
381.73	211.29
382.11	211.98
382.49	212.07
382.87	211.98
383.25	212.05
383.62	214.55
384.00	213.81
384.38	213.48
384.76	213.93
385.13	214.52
385.51	214.55
385.89	214.45
386.27	214.67
386.64	215.05
387.02	214.81
387.40	214.62
387.78	214.86
388.15	215.17
388.53	215.19
388.91	215.14
389.29	215.02
389.66	215.24
390.04	214.69
390.42	215.00
390.79	215.05
391.17	214.90
391.55	212.79
391.92	213.24
392.30	213.60
392.68	213.48
393.05	213.43
393.43	213.55
393.81	213.62
394.18	213.12
394.56	213.12
394.94	213.57
395.31	213.55
395.69	213.98
396.06	214.07
396.44	214.19
396.82	213.90
397.19	215.26
397.57	215.19
397.95	215.50
398.32	214.74
398.70	214.88
399.07	215.62
399.45	215.57
399.82	215.50
400.20	215.31
400.58	215.14
400.95	214.57
401.33	214.83
401.70	216.36
402.08	216.86
402.45	217.00
402.83	217.40
403.20	217.81
403.58	217.69
403.95	218.17
404.33	218.67
404.71	219.21
405.08	220.31
405.46	220.55
405.83	220.83
406.21	221.57
406.58	222.05
406.96	222.21
407.33	222.90
407.70	223.62
408.08	226.00
408.45	226.86
408.83	227.79
409.20	228.57
409.58	228.40
409.95	229.50
410.33	230.55
410.70	231.12
411.08	232.43
411.45	233.83
411.82	234.79
412.20	236.83
412.57	239.24
412.95	239.21
413.32	241.21
413.69	242.83
414.07	244.86
414.44	246.83
414.82	249.10
415.19	251.95
415.56	254.64
415.94	256.24
416.31	259.64
416.68	262.67
417.06	266.43
417.43	270.40
417.81	274.38
418.18	278.62
418.55	282.98
418.93	287.52
419.30	292.33
419.67	297.31
420.04	302.24
420.42	307.40
420.79	315.12
421.16	321.55
421.54	329.45
421.91	336.10
422.28	343.69
422.66	351.21
423.03	359.86
423.40	368.10
423.77	376.14
424.15	384.14
424.52	393.10
424.89	402.90
425.26	411.38
425.64	420.17
426.01	429.81
426.38	439.74
426.75	450.76
427.13	461.17
427.50	472.62
427.87	483.67
428.24	495.33
428.61	505.36
428.99	518.31
429.36	530.55
429.73	543.36
430.10	556.57
430.47	570.02
430.85	582.19
431.22	596.55
431.59	613.98
431.96	628.81
432.33	645.10
432.70	660.79
433.08	679.83
433.45	696.90
433.82	714.26
434.19	733.98
434.56	752.64
434.93	770.62
435.30	788.81
435.68	809.55
436.05	829.24
436.42	849.02
436.79	866.71
437.16	886.33
437.53	907.26
437.90	927.79
438.27	948.86
438.64	970.36
439.01	989.98
439.38	1005.64
439.75	1022.36
440.13	1041.48
440.50	1059.57
440.87	1074.07
441.24	1090.21
441.61	1107.14
441.98	1119.38
442.35	1133.45
442.72	1148.52
443.09	1163.24
443.46	1171.36
443.83	1176.69
444.20	1182.29
444.57	1189.12
444.94	1192.90
445.31	1197.36
445.68	1203.26
446.05	1204.43
446.42	1202.64
446.79	1201.38
447.16	1199.40
447.53	1198.50
447.90	1191.64
448.27	1184.17
448.64	1174.10
449.01	1166.88
449.37	1153.98
449.74	1141.38
450.11	1128.43
450.48	1111.43
450.85	1093.57
451.22	1079.55
451.59	1066.74
451.96	1052.62
452.33	1034.64
452.70	1018.48
453.07	998.48
453.43	976.26
453.80	957.50
454.17	939.02
454.54	920.81
454.91	901.33
455.28	882.45
455.65	864.88
456.02	850.76
456.38	836.31
456.75	818.38
457.12	802.90
457.49	787.93
457.86	771.38
458.23	760.05
458.59	746.86
458.96	733.05
459.33	720.40
459.70	708.31
460.07	699.12
460.43	687.79
460.80	677.95
461.17	669.48
461.54	659.67
461.91	650.55
462.27	641.17
462.64	633.33
463.01	624.93
463.38	617.02
463.74	605.74
464.11	597.86
464.48	590.95
464.85	583.50
465.21	578.57
465.58	572.93
465.95	565.05
466.32	558.83
466.68	552.64
467.05	546.79
467.42	541.60
467.78	535.57
468.15	530.00
468.52	525.98
468.88	519.29
469.25	513.93
469.62	510.33
469.98	505.57
470.35	501.79
470.72	497.57
471.08	492.76
471.45	489.52
471.82	486.48
472.18	482.43
472.55	480.31
472.92	476.38
473.28	472.71
473.65	469.52
474.02	466.76
474.38	464.76
474.75	462.48
475.11	459.33
475.48	457.50
475.85	455.43
476.21	452.81
476.58	451.19
476.94	449.81
477.31	448.12
477.67	447.07
478.04	445.64
478.41	444.90
478.77	446.50
479.14	445.19
479.50	444.64
479.87	444.26
480.23	443.79
480.60	443.12
480.96	443.36
481.33	444.38
481.69	444.79
482.06	444.71
482.42	445.33
482.79	446.05
483.15	446.43
483.52	447.67
483.88	447.90
484.25	449.02
484.61	450.10
484.98	450.83
485.34	452.69
485.71	455.00
486.07	456.93
486.44	456.45
486.80	458.38
487.17	460.14
487.53	463.07
487.90	465.76
488.26	468.93
488.62	472.12
488.99	474.31
489.35	477.17
489.72	480.52
490.08	483.45
490.44	486.81
490.81	490.29
491.17	494.14
491.54	498.81
491.90	503.60
492.26	507.76
492.63	512.17
492.99	516.33
493.36	520.90
493.72	526.00
494.08	531.55
494.45	537.00
494.81	542.38
495.17	547.81
495.54	553.81
495.90	559.69
496.26	565.76
496.63	572.60
496.99	579.29
497.35	585.90
497.72	593.14
498.08	600.17
498.44	607.69
498.80	614.86
499.17	621.95
499.53	629.43
499.89	637.76
500.26	645.67
500.62	654.24
500.98	662.83
501.34	671.00
501.71	679.93
502.07	688.31
502.43	697.36
502.79	705.86
503.16	714.31
503.52	723.88
503.88	732.24
504.24	741.43
504.60	750.48
504.97	760.83
505.33	770.05
505.69	781.10
506.05	790.83
506.41	800.67
506.78	810.64
507.14	819.60
507.50	828.98
507.86	839.07
508.22	848.64
508.59	857.19
508.95	867.40
509.31	877.86
509.67	888.00
510.03	897.33
510.39	907.36
510.75	916.93
511.12	926.05
511.48	936.69
511.84	946.31
512.20	956.43
512.56	965.71
512.92	975.69
513.28	984.50
513.64	994.05
514.00	1003.19
514.37	1012.86
514.73	1023.36
515.09	1033.81
515.45	1043.48
515.81	1052.93
516.17	1063.24
516.53	1071.71
516.89	1079.62
517.25	1088.79
517.61	1098.93
517.97	1107.76
518.33	1116.81
518.69	1126.29
519.05	1134.88
519.41	1143.43
519.77	1153.19
520.13	1160.83
520.49	1168.98
520.85	1177.38
521.21	1186.69
521.57	1195.29
521.93	1203.64
522.29	1212.10
522.65	1219.88
523.01	1228.10
523.37	1235.55
523.73	1243.10
524.09	1251.33
524.45	1258.55
524.81	1266.14
525.17	1273.43
525.53	1281.14
525.89	1289.05
526.25	1297.07
526.61	1303.74
526.97	1310.50
527.33	1316.90
527.68	1326.64
528.04	1333.40
528.40	1340.14
528.76	1346.60
529.12	1353.45
529.48	1360.83
529.84	1366.43
530.20	1372.71
530.56	1379.17
530.91	1385.95
531.27	1393.12
531.63	1400.12
531.99	1406.67
532.35	1412.64
532.71	1418.48
533.07	1424.95
533.42	1433.60
533.78	1438.83
534.14	1446.21
534.50	1452.55
534.86	1459.14
535.21	1463.45
535.57	1470.50
535.93	1476.67
536.29	1483.33
536.65	1489.55
537.00	1494.17
537.36	1499.76
537.72	1504.26
538.08	1509.90
538.44	1515.02
538.79	1520.45
539.15	1524.64
539.51	1530.45
539.87	1536.36
540.22	1541.90
540.58	1547.48
540.94	1550.60
541.29	1556.29
541.65	1560.02
542.01	1564.90
542.37	1568.79
542.72	1572.83
543.08	1576.64
543.44	1581.95
543.79	1584.81
544.15	1589.48
544.51	1593.64
544.87	1599.19
545.22	1604.71
545.58	1609.02
545.94	1612.88
546.29	1617.19
546.65	1621.76
547.01	1625.50
547.36	1629.21
547.72	1632.38
548.07	1635.76
548.43	1638.14
548.79	1640.17
549.14	1644.05
549.50	1648.48
549.86	1651.31
550.21	1654.69
550.57	1658.45
550.92	1659.60
551.28	1664.17
551.64	1667.29
551.99	1671.40
552.35	1674.24
552.70	1676.98
553.06	1680.36
553.41	1683.55
553.77	1687.57
554.13	1691.10
554.48	1694.60
554.84	1698.00
555.19	1702.74
555.55	1707.24
555.90	1712.19
556.26	1716.02
556.61	1718.74
556.97	1720.64
557.32	1724.40
557.68	1727.31
558.03	1730.55
558.39	1734.24
558.74	1736.83
559.10	1739.50
559.45	1741.88
559.81	1744.64
560.16	1748.24
560.52	1750.86
560.87	1754.79
561.23	1756.29
561.58	1761.05
561.94	1763.38
562.29	1765.29
562.64	1767.05
563.00	1768.64
563.35	1770.24
563.71	1774.29
564.06	1778.17
564.42	1782.05
564.77	1784.76
565.12	1789.19
565.48	1794.02
565.83	1797.88
566.19	1801.98
566.54	1805.33
566.89	1809.05
567.25	1813.02
567.60	1816.60
567.96	1821.79
568.31	1826.43
568.66	1830.81
569.02	1830.98
569.37	1834.07
569.72	1837.31
570.08	1838.83
570.43	1840.45
570.78	1843.17
571.14	1844.29
571.49	1846.12
571.84	1847.95
572.20	1849.26
572.55	1850.98
572.90	1850.31
573.26	1851.00
573.61	1850.64
573.96	1851.43
574.31	1852.07
574.67	1851.76
575.02	1851.45
575.37	1849.19
575.72	1847.24
576.08	1847.26
576.43	1847.10
576.78	1846.60
577.13	1846.21
577.49	1847.45
577.84	1847.95
578.19	1847.98
578.54	1848.38
578.90	1847.93
579.25	1847.05
579.60	1846.67
579.95	1844.21
580.30	1843.74
580.66	1843.50
581.01	1842.45
581.36	1839.83
581.71	1838.71
582.06	1838.88
582.42	1837.74
582.77	1835.79
583.12	1834.14
583.47	1831.79
583.82	1831.38
584.17	1829.48
584.53	1828.79
584.88	1826.45
585.23	1824.50
585.58	1821.19
585.93	1817.60
586.28	1814.90
586.63	1813.00
586.98	1810.55
587.34	1809.17
587.69	1805.69
588.04	1801.76
588.39	1799.38
588.74	1796.74
589.09	1793.74
589.44	1787.93
589.79	1784.67
590.14	1782.31
590.49	1778.62
590.84	1774.10
591.19	1770.29
591.54	1767.67
591.89	1762.98
592.25	1760.98
592.60	1757.02
592.95	1754.60
593.30	1752.55
593.65	1748.76
594.00	1744.52
594.35	1746.64
594.70	1741.48
595.05	1738.71
595.40	1735.81
595.75	1731.29
596.10	1728.19
596.45	1724.98
596.80	1722.88
597.15	1720.10
597.50	1715.62
597.85	1713.45
598.19	1709.86
598.54	1706.38
598.89	1702.50
599.24	1699.31
599.59	1694.14
599.94	1690.19
600.29	1685.88
600.64	1680.81
600.99	1677.29
601.34	1673.43
601.69	1663.60
602.04	1659.93
602.39	1655.79
602.74	1651.21
603.08	1647.81
603.43	1644.83
603.78	1639.76
604.13	1634.26
604.48	1628.40
604.83	1625.07
605.18	1619.71
605.53	1615.36
605.87	1609.79
606.22	1604.64
606.57	1599.57
606.92	1594.64
607.27	1589.14
607.62	1584.05
607.96	1579.69
608.31	1574.31
608.66	1569.31
609.01	1564.02
609.36	1559.26
609.70	1552.69
610.05	1547.14
610.40	1541.86
610.75	1535.36
611.10	1530.19
611.44	1524.69
611.79	1518.74
612.14	1513.29
612.49	1507.00
612.83	1500.50
613.18	1494.43
613.53	1488.29
613.88	1481.88
614.22	1474.95
614.57	1468.81
614.92	1461.81
615.27	1455.57
615.61	1448.36
615.96	1441.93
616.31	1435.67
616.65	1430.00
617.00	1423.93
617.35	1418.19
617.70	1410.64
618.04	1403.48
618.39	1395.81
618.74	1389.64
619.08	1383.36
619.43	1375.98
619.78	1370.05
620.12	1364.33
620.47	1358.50
620.82	1351.31
621.16	1343.86
621.51	1338.79
621.85	1332.29
622.20	1325.50
622.55	1317.81
622.89	1312.05
623.24	1305.36
623.59	1298.71
623.93	1291.40
624.28	1285.14
624.62	1281.26
624.97	1276.31
625.32	1270.52
625.66	1265.02
626.01	1258.38
626.35	1252.60
626.70	1246.12
627.04	1240.24
627.39	1233.88
627.73	1229.10
628.08	1223.71
628.43	1218.81
628.77	1212.38
629.12	1207.55
629.46	1202.57
629.81	1197.19
630.15	1191.29
630.50	1184.71
630.84	1179.24
631.19	1173.71
631.53	1167.60
631.88	1158.52
632.22	1151.21
632.57	1145.50
632.91	1139.05
633.26	1133.67
633.60	1127.69
633.95	1121.55
634.29	1114.67
634.64	1108.31
634.98	1100.71
635.32	1095.55
635.67	1089.29
636.01	1082.52
636.36	1075.55
636.70	1070.05
637.05	1063.71
637.39	1057.60
637.73	1052.05
638.08	1046.55
638.42	1040.05
638.77	1034.67
639.11	1028.69
639.45	1022.93
639.80	1016.17
640.14	1010.21
640.49	1003.98
640.83	997.10
641.17	991.17
641.52	985.21
641.86	979.62
642.20	974.17
642.55	967.21
642.89	961.26
643.23	955.17
643.58	949.60
643.92	942.55
644.26	936.62
644.61	930.98
644.95	925.52
645.29	918.69
645.64	913.02
645.98	906.69
646.32	901.24
646.66	894.86
647.01	889.17
647.35	884.07
647.69	878.31
648.04	872.88
648.38	867.48
648.72	861.69
649.06	855.45
649.41	848.93
649.75	842.79
650.09	836.67
650.43	830.83
650.78	824.38
651.12	819.26
651.46	813.55
651.80	807.24
652.14	800.95
652.49	795.90
652.83	789.67
653.17	783.71
653.51	777.52
653.85	772.31
654.20	766.74
654.54	760.19
654.88	754.12
655.22	749.55
655.56	743.62
655.90	738.14
656.25	732.90
656.59	728.00
656.93	723.05
657.27	718.95
657.61	713.76
657.95	709.57
658.29	703.88
658.64	699.24
658.98	694.29
659.32	689.21
659.66	683.55
660.00	679.40
660.34	674.95
660.68	670.21
661.02	665.48
661.36	660.57
661.70	656.24
662.05	651.67
662.39	646.74
662.73	643.05
663.07	639.26
663.41	635.02
663.75	629.79
664.09	625.31
664.43	620.05
664.77	615.88
665.11	610.62
665.45	606.71
665.79	602.64
666.13	598.64
666.47	594.17
666.81	590.38
667.15	585.26
667.49	581.31
667.83	578.50
668.17	574.21
668.51	570.26
668.85	566.79
669.19	564.26
669.53	559.64
669.87	555.26
670.21	551.36
670.55	547.26
670.89	544.64
671.23	541.31
671.57	538.00
671.91	534.64
672.25	531.48
672.58	528.71
672.92	524.95
673.26	521.12
673.60	518.10
673.94	514.74
674.28	511.86
674.62	509.19
674.96	504.98
675.30	502.31
675.64	499.52
675.97	496.00
676.31	492.29
676.65	489.14
676.99	486.81
677.33	483.38
677.67	480.81
678.01	477.19
678.34	473.88
678.68	471.36
679.02	468.10
679.36	465.33
679.70	461.88
680.04	459.07
680.37	456.57
680.71	453.62
681.05	450.81
681.39	448.10
681.73	444.33
682.06	441.31
682.40	438.48
682.74	436.36
683.08	434.43
683.42	431.48
683.75	428.98
684.09	425.83
684.43	422.76
684.77	420.05
685.10	417.79
685.44	415.64
685.78	412.69
686.12	410.31
686.45	407.71
686.79	405.00
687.13	402.86
687.46	400.43
687.80	398.98
688.14	396.81
688.48	394.62
688.81	392.76
689.15	391.40
689.49	389.10
689.82	386.60
690.16	383.86
690.50	381.67
690.83	379.74
691.17	377.24
691.51	375.93
691.84	374.10
692.18	371.95
692.52	370.17
692.85	368.62
693.19	367.81
693.52	366.38
693.86	364.43
694.20	362.14
694.53	360.36
694.87	357.98
695.21	355.83
695.54	354.21
695.88	352.05
696.21	349.57
696.55	347.90
696.88	346.21
697.22	344.57
697.56	343.12
697.89	341.43
698.23	340.17
698.56	338.24
698.90	336.62
699.23	334.79
699.57	332.98
699.90	331.21
700.24	328.88
700.58	326.93
700.91	325.95
701.25	326.29
701.58	325.62
701.92	324.79
702.25	323.71
702.59	322.21
702.92	321.43
703.26	320.26
703.59	318.88
703.93	319.48
704.26	318.31
704.60	316.95
704.93	315.88
705.26	314.57
705.60	313.86
705.93	312.50
706.27	312.10
706.60	311.38
706.94	311.02
707.27	309.83
707.61	308.93
707.94	307.45
708.27	305.12
708.61	303.48
708.94	302.02
709.28	300.95
709.61	300.02
709.94	298.76
710.28	297.81
710.61	297.02
710.95	293.95
711.28	294.50
711.61	293.60
711.95	293.00
712.28	292.10
712.61	290.98
712.95	291.00
713.28	290.83
713.61	289.79
713.95	288.26
714.28	287.62
714.61	286.71
714.95	285.71
715.28	284.26
715.61	283.50
715.95	282.90
716.28	281.88
716.61	281.31
716.95	280.40
717.28	279.60
717.61	278.64
717.94	277.93
718.28	275.40
718.61	274.60
718.94	273.24
719.27	272.29
719.61	271.76
719.94	270.62
720.27	268.95
720.60	267.95
720.94	267.21
721.27	266.57
721.60	266.02
721.93	265.76
722.27	266.14
722.60	265.55
722.93	264.69
723.26	264.17
723.59	263.29
723.93	263.19
724.26	262.62
724.59	261.90
724.92	261.60
725.25	261.81
725.59	261.38
725.92	261.24
726.25	260.60
726.58	260.07
726.91	259.55
727.24	259.21
727.57	258.79
727.91	257.95
728.24	257.60
728.57	256.95
728.90	256.48
729.23	255.21
729.56	255.76
729.89	255.21
730.22	254.90
730.55	254.52
730.89	253.88
731.22	253.57
731.55	253.26
731.88	252.69
732.21	251.81
732.54	251.07
732.87	250.69
733.20	250.57
733.53	250.07
733.86	249.71
734.19	249.21
734.52	249.24
734.85	250.33
735.18	249.69
735.51	250.14
735.84	249.79
736.17	249.93
736.50	248.50
736.83	250.67
737.16	250.10
737.49	249.74
737.82	249.29
738.15	248.95
738.48	248.64
738.81	248.55
739.14	248.02
739.47	247.93
739.80	247.64
740.13	247.60
740.46	246.86
740.79	246.21
741.12	245.86
741.45	245.17
741.78	243.95
742.11	243.98
742.44	243.07
742.77	243.14
743.10	242.60
743.43	242.17
743.75	239.43
744.08	241.76
744.41	241.36
744.74	241.02
745.07	240.50
745.40	240.71
745.73	241.12
746.06	241.07
746.39	241.02
746.71	240.52
747.04	239.98
747.37	239.90
747.70	240.00
748.03	239.90
748.36	239.74
748.68	239.36
749.01	238.45
749.34	238.07
749.67	237.83
750.00	237.79
750.33	239.12
750.65	239.48
750.98	236.83
751.31	236.45
751.64	236.21
751.97	237.07
752.29	236.52
752.62	235.31
752.95	234.81
753.28	234.45
753.60	234.31
753.93	234.36
754.26	234.24
754.59	233.36
754.91	232.74
755.24	232.43
755.57	232.12
755.90	232.05
756.22	231.88
756.55	231.17
756.88	230.86
757.20	229.24
757.53	228.24
757.86	227.86
758.19	228.33
758.51	228.24
758.84	227.12
759.17	226.81
759.49	226.79
759.82	227.52
760.15	227.17
760.47	226.83
760.80	226.38
761.13	226.76
761.45	226.71
761.78	226.88
762.11	226.90
762.43	226.62
762.76	226.74
763.08	226.90
763.41	227.12
763.74	226.98
764.06	226.74
764.39	226.79
764.71	226.69
765.04	225.93
765.37	225.64
765.69	225.45
766.02	225.33
766.34	225.02
766.67	224.10
767.00	224.45
767.32	225.26
767.65	226.64
767.97	226.12
768.30	226.10
768.62	225.88
768.95	225.60
769.27	225.81
769.60	225.79
769.92	225.24
770.25	224.88
770.57	224.26
770.90	224.33
771.22	224.05
771.55	224.07
771.87	224.14
772.20	224.07
772.52	225.74
772.85	228.02
773.17	228.21
773.50	228.17
773.82	227.79
774.15	226.90
774.47	225.29
774.80	225.14
775.12	224.98
775.45	224.79
775.77	224.64
776.09	224.43
776.42	224.24
776.74	224.86
777.07	224.43
777.39	224.52
777.72	224.21
778.04	224.33
778.36	224.17
778.69	224.05
779.01	224.07
779.33	222.17
779.66	219.62
779.98	219.40
780.31	219.19
780.63	220.05
780.95	220.31
781.28	220.12
781.60	219.71
781.92	219.57
782.25	219.26
782.57	219.21
782.89	218.95
783.22	218.74
783.54	217.95
783.86	218.31
784.19	218.14
784.51	218.81
784.83	218.52
785.16	218.50
785.48	218.57
785.80	218.67
