SpectraSuite Data File
++++++++++++++++++++++++++++++++++++
Date: Tue Apr 02 18:45:17 EDT 2013
User: group
Dark Spectrum Present: No
Reference Spectrum Present: No
Number of Sampled Component Spectra: 1
Spectrometers: USB2E7196
Integration Time (usec): 580000 (USB2E7196)
Spectra Averaged: 2 (USB2E7196)
Boxcar Smoothing: 10 (USB2E7196)
Correct for Electrical Dark: No (USB2E7196)
Strobe/Lamp Enabled: No (USB2E7196)
Correct for Detector Non-linearity: No (USB2E7196)
Correct for Stray Light: No (USB2E7196)
Number of Pixels in Processed Spectrum: 2048
>>>>>Begin Processed Spectral Data<<<<<
339.09	0.00
339.48	195.50
339.86	198.00
340.24	195.00
340.63	199.50
341.01	233.50
341.39	198.50
341.78	204.50
342.16	211.50
342.54	207.00
342.93	197.12
343.31	206.93
343.69	207.33
344.07	207.50
344.46	208.26
344.84	208.55
345.22	207.21
345.60	207.81
345.99	208.07
346.37	207.93
346.75	207.86
347.13	208.05
347.52	208.17
347.90	208.64
348.28	208.64
348.66	209.07
349.05	208.31
349.43	208.62
349.81	208.86
350.19	208.74
350.57	209.05
350.96	209.36
351.34	209.57
351.72	209.62
352.10	209.98
352.48	209.62
352.87	209.64
353.25	209.76
353.63	209.74
354.01	209.76
354.39	209.90
354.77	210.07
355.15	210.48
355.54	210.29
355.92	209.83
356.30	210.14
356.68	211.43
357.06	211.74
357.44	211.64
357.82	211.88
358.20	213.12
358.58	213.21
358.97	213.50
359.35	214.10
359.73	214.67
360.11	214.62
360.49	214.95
360.87	214.98
361.25	215.36
361.63	216.05
362.01	216.24
362.39	216.26
362.77	216.64
363.15	216.57
363.53	216.76
363.91	217.10
364.29	217.17
364.67	215.38
365.05	215.24
365.43	215.55
365.81	215.90
366.19	216.10
366.57	216.98
366.95	216.81
367.33	216.33
367.71	216.45
368.09	216.90
368.47	217.12
368.85	217.33
369.23	217.67
369.61	216.88
369.99	217.50
370.37	217.79
370.75	218.55
371.13	218.21
371.51	218.12
371.89	218.24
372.27	218.38
372.65	218.33
373.03	218.52
373.41	218.48
373.78	218.19
374.16	217.12
374.54	216.48
374.92	216.55
375.30	216.57
375.68	216.05
376.06	216.12
376.44	215.98
376.82	216.02
377.19	215.88
377.57	215.88
377.95	215.17
378.33	214.81
378.71	213.52
379.09	213.83
379.47	214.00
379.84	213.57
380.22	213.12
380.60	213.14
380.98	213.12
381.36	212.93
381.73	212.55
382.11	212.86
382.49	212.76
382.87	212.24
383.25	212.19
383.62	214.69
384.00	214.38
384.38	214.38
384.76	214.88
385.13	215.69
385.51	215.79
385.89	215.52
386.27	215.83
386.64	216.40
387.02	216.21
387.40	215.76
387.78	215.76
388.15	215.88
388.53	215.67
388.91	215.95
389.29	215.79
389.66	216.14
390.04	215.76
390.42	216.19
390.79	216.26
391.17	216.02
391.55	213.79
391.92	213.79
392.30	213.98
392.68	213.21
393.05	213.00
393.43	213.00
393.81	213.26
394.18	212.81
394.56	212.83
394.94	213.21
395.31	213.21
395.69	213.86
396.06	214.38
396.44	214.62
396.82	214.31
397.19	215.52
397.57	215.17
397.95	215.71
398.32	214.98
398.70	215.29
399.07	215.86
399.45	215.60
399.82	215.50
400.20	215.26
400.58	215.43
400.95	214.40
401.33	214.83
401.70	216.31
402.08	216.43
402.45	216.50
402.83	217.10
403.20	217.64
403.58	217.52
403.95	217.83
404.33	218.24
404.71	218.45
405.08	219.60
405.46	220.10
405.83	220.48
406.21	221.07
406.58	221.52
406.96	221.98
407.33	222.67
407.70	223.55
408.08	225.64
408.45	226.76
408.83	227.95
409.20	228.55
409.58	228.10
409.95	229.43
410.33	230.19
410.70	230.33
411.08	231.48
411.45	232.50
411.82	233.21
412.20	234.86
412.57	237.24
412.95	236.88
413.32	238.55
413.69	239.62
414.07	241.10
414.44	242.83
414.82	244.79
415.19	247.17
415.56	249.24
415.94	250.45
416.31	253.07
416.68	255.93
417.06	259.00
417.43	262.43
417.81	265.90
418.18	269.62
418.55	273.36
418.93	277.19
419.30	281.45
419.67	286.05
420.04	290.26
420.42	294.52
420.79	301.69
421.16	307.33
421.54	314.12
421.91	320.24
422.28	326.48
422.66	333.10
423.03	340.74
423.40	347.76
423.77	355.14
424.15	362.33
424.52	369.67
424.89	378.14
425.26	385.55
425.64	393.02
426.01	400.98
426.38	409.86
426.75	419.50
427.13	428.69
427.50	438.52
427.87	448.38
428.24	458.43
428.61	466.83
428.99	477.95
429.36	488.62
429.73	500.07
430.10	511.95
430.47	523.86
430.85	534.57
431.22	546.57
431.59	561.17
431.96	573.67
432.33	588.05
432.70	601.52
433.08	617.57
433.45	632.33
433.82	647.81
434.19	664.81
434.56	680.93
434.93	696.67
435.30	711.71
435.68	729.17
436.05	746.36
436.42	762.86
436.79	778.00
437.16	795.43
437.53	813.24
437.90	830.33
438.27	847.71
438.64	866.21
439.01	884.17
439.38	897.81
439.75	912.31
440.13	928.88
440.50	944.31
440.87	956.90
441.24	970.43
441.61	985.07
441.98	996.05
442.35	1008.02
442.72	1020.38
443.09	1033.50
443.46	1041.40
443.83	1046.50
444.20	1050.93
444.57	1057.33
444.94	1060.60
445.31	1063.52
445.68	1068.98
446.05	1069.90
446.42	1068.17
446.79	1066.74
447.16	1064.57
447.53	1063.98
447.90	1057.57
448.27	1051.36
448.64	1042.83
449.01	1037.07
449.37	1026.17
449.74	1014.90
450.11	1003.69
450.48	989.62
450.85	974.38
451.22	961.64
451.59	949.76
451.96	938.55
452.33	923.50
452.70	909.19
453.07	892.76
453.43	873.98
453.80	857.52
454.17	842.05
454.54	825.95
454.91	809.74
455.28	793.62
455.65	778.88
456.02	767.64
456.38	755.38
456.75	740.12
457.12	726.21
457.49	713.33
457.86	699.24
458.23	689.24
458.59	677.90
458.96	665.71
459.33	654.69
459.70	644.55
460.07	636.19
460.43	626.21
460.80	617.76
461.17	609.98
461.54	602.31
461.91	594.17
462.27	586.00
462.64	579.36
463.01	572.07
463.38	565.69
463.74	554.76
464.11	548.05
464.48	542.00
464.85	536.07
465.21	532.02
465.58	527.60
465.95	520.52
466.32	515.29
466.68	510.26
467.05	505.38
467.42	500.24
467.78	494.21
468.15	489.71
468.52	485.83
468.88	480.43
469.25	475.48
469.62	471.86
469.98	468.43
470.35	465.12
470.72	461.33
471.08	456.57
471.45	454.02
471.82	451.55
472.18	447.83
472.55	445.26
472.92	441.29
473.28	437.86
473.65	435.57
474.02	432.83
474.38	430.83
474.75	428.88
475.11	426.48
475.48	425.38
475.85	423.43
476.21	421.26
476.58	420.05
476.94	418.98
477.31	417.69
477.67	416.17
478.04	414.88
478.41	414.24
478.77	415.69
479.14	414.48
479.50	413.57
479.87	413.38
480.23	412.98
480.60	412.43
480.96	412.43
481.33	413.10
481.69	413.26
482.06	413.67
482.42	414.21
482.79	415.07
483.15	415.07
483.52	416.19
483.88	416.76
484.25	417.17
484.61	418.10
484.98	419.19
485.34	420.83
485.71	422.48
486.07	424.00
486.44	423.62
486.80	425.55
487.17	427.10
487.53	429.69
487.90	432.14
488.26	435.43
488.62	438.24
488.99	440.07
489.35	442.74
489.72	445.31
490.08	447.76
490.44	450.14
490.81	453.60
491.17	455.95
491.54	459.76
491.90	463.19
492.26	466.83
492.63	470.38
492.99	473.93
493.36	477.93
493.72	482.17
494.08	486.71
494.45	491.48
494.81	496.69
495.17	500.76
495.54	505.48
495.90	509.90
496.26	514.88
496.63	520.36
496.99	525.76
497.35	531.26
497.72	537.48
498.08	543.36
498.44	549.57
498.80	556.64
499.17	562.19
499.53	569.05
499.89	575.76
500.26	582.83
500.62	589.55
500.98	596.71
501.34	603.55
501.71	610.67
502.07	617.69
502.43	624.17
502.79	631.12
503.16	638.55
503.52	646.14
503.88	652.95
504.24	660.83
504.60	668.26
504.97	675.90
505.33	682.98
505.69	691.33
506.05	698.74
506.41	706.31
506.78	714.21
507.14	721.36
507.50	729.12
507.86	737.12
508.22	745.79
508.59	752.57
508.95	760.45
509.31	769.45
509.67	777.05
510.03	784.71
510.39	792.43
510.75	799.88
511.12	807.05
511.48	814.98
511.84	822.40
512.20	830.21
512.56	837.69
512.92	845.79
513.28	853.76
513.64	860.64
514.00	868.00
514.37	876.19
514.73	884.00
515.09	891.62
515.45	897.69
515.81	903.90
516.17	910.62
516.53	916.79
516.89	921.74
517.25	928.33
517.61	934.93
517.97	941.81
518.33	948.40
518.69	955.45
519.05	961.60
519.41	966.95
519.77	974.24
520.13	980.57
520.49	985.71
520.85	991.00
521.21	999.00
521.57	1004.79
521.93	1009.07
522.29	1014.48
522.65	1018.90
523.01	1025.02
523.37	1030.02
523.73	1036.14
524.09	1041.07
524.45	1046.02
524.81	1050.62
525.17	1055.98
525.53	1060.79
525.89	1065.76
526.25	1070.21
526.61	1074.62
526.97	1079.52
527.33	1083.12
527.68	1089.02
528.04	1094.00
528.40	1097.55
528.76	1100.40
529.12	1104.29
529.48	1109.83
529.84	1114.05
530.20	1118.24
530.56	1122.52
530.91	1127.48
531.27	1131.50
531.63	1135.86
531.99	1139.67
532.35	1143.86
532.71	1147.60
533.07	1151.52
533.42	1157.64
533.78	1161.60
534.14	1165.67
534.50	1169.81
534.86	1174.74
535.21	1176.98
535.57	1181.64
535.93	1185.38
536.29	1189.71
536.65	1193.83
537.00	1196.79
537.36	1199.81
537.72	1203.50
538.08	1206.48
538.44	1208.79
538.79	1212.02
539.15	1215.29
539.51	1218.86
539.87	1222.57
540.22	1225.62
540.58	1228.88
540.94	1230.02
541.29	1232.79
541.65	1234.76
542.01	1238.14
542.37	1240.19
542.72	1242.26
543.08	1243.98
543.44	1247.36
543.79	1249.02
544.15	1252.05
544.51	1254.98
544.87	1258.48
545.22	1262.17
545.58	1264.60
545.94	1267.45
546.29	1270.21
546.65	1273.24
547.01	1275.24
547.36	1277.10
547.72	1280.19
548.07	1282.93
548.43	1285.07
548.79	1287.55
549.14	1290.17
549.50	1292.93
549.86	1294.81
550.21	1298.02
550.57	1300.79
550.92	1302.81
551.28	1306.19
551.64	1308.00
551.99	1310.98
552.35	1313.14
552.70	1315.36
553.06	1318.57
553.41	1322.24
553.77	1326.57
554.13	1330.52
554.48	1335.62
554.84	1340.79
555.19	1344.05
555.55	1348.81
555.90	1351.74
556.26	1355.79
556.61	1360.12
556.97	1362.26
557.32	1365.76
557.68	1369.02
558.03	1372.48
558.39	1376.38
558.74	1380.36
559.10	1384.60
559.45	1388.00
559.81	1392.36
560.16	1395.55
560.52	1399.50
560.87	1404.07
561.23	1407.17
561.58	1412.40
561.94	1416.14
562.29	1419.38
562.64	1424.83
563.00	1428.67
563.35	1434.36
563.71	1439.62
564.06	1445.10
564.42	1450.64
564.77	1456.31
565.12	1462.69
565.48	1470.33
565.83	1476.48
566.19	1481.10
566.54	1487.00
566.89	1492.60
567.25	1498.62
567.60	1506.17
567.96	1514.55
568.31	1520.60
568.66	1527.36
569.02	1531.40
569.37	1535.98
569.72	1541.90
570.08	1546.88
570.43	1551.31
570.78	1557.00
571.14	1563.07
571.49	1568.02
571.84	1574.12
572.20	1579.74
572.55	1585.60
572.90	1588.45
573.26	1592.71
573.61	1597.55
573.96	1601.62
574.31	1606.81
574.67	1611.14
575.02	1614.31
575.37	1615.90
575.72	1619.24
576.08	1622.81
576.43	1626.88
576.78	1631.38
577.13	1635.45
577.49	1638.74
577.84	1643.07
578.19	1646.90
578.54	1649.50
578.90	1654.24
579.25	1657.57
579.60	1660.50
579.95	1662.69
580.30	1666.67
580.66	1670.48
581.01	1674.52
581.36	1677.83
581.71	1680.86
582.06	1684.83
582.42	1688.88
582.77	1691.93
583.12	1695.19
583.47	1698.62
583.82	1701.83
584.17	1704.74
584.53	1708.12
584.88	1711.02
585.23	1714.76
585.58	1718.07
585.93	1720.98
586.28	1722.29
586.63	1725.38
586.98	1728.79
587.34	1732.43
587.69	1735.17
588.04	1737.74
588.39	1740.26
588.74	1742.67
589.09	1745.69
589.44	1746.76
589.79	1748.60
590.14	1751.60
590.49	1753.24
590.84	1754.05
591.19	1756.07
591.54	1758.48
591.89	1758.79
592.25	1762.19
592.60	1762.17
592.95	1763.38
593.30	1765.38
593.65	1767.31
594.00	1767.24
594.35	1773.55
594.70	1773.55
595.05	1774.64
595.40	1775.12
595.75	1776.10
596.10	1777.17
596.45	1777.67
596.80	1779.50
597.15	1780.50
597.50	1780.93
597.85	1782.21
598.19	1782.57
598.54	1782.62
598.89	1782.64
599.24	1784.40
599.59	1784.64
599.94	1785.64
600.29	1784.71
600.64	1783.83
600.99	1784.45
601.34	1786.14
601.69	1780.19
602.04	1779.62
602.39	1778.83
602.74	1779.40
603.08	1778.12
603.43	1778.45
603.78	1777.60
604.13	1776.98
604.48	1776.69
604.83	1777.05
605.18	1776.50
605.53	1777.19
605.87	1776.50
606.22	1775.95
606.57	1774.38
606.92	1772.14
607.27	1771.74
607.62	1771.67
607.96	1771.29
608.31	1770.19
608.66	1768.50
609.01	1766.55
609.36	1765.55
609.70	1765.00
610.05	1763.00
610.40	1762.17
610.75	1759.93
611.10	1758.50
611.44	1755.81
611.79	1752.76
612.14	1749.55
612.49	1747.02
612.83	1743.69
613.18	1740.88
613.53	1738.02
613.88	1734.43
614.22	1731.26
614.57	1726.95
614.92	1722.90
615.27	1718.95
615.61	1715.69
615.96	1711.71
616.31	1709.50
616.65	1708.10
617.00	1704.76
617.35	1702.12
617.70	1698.21
618.04	1695.14
618.39	1690.69
618.74	1687.67
619.08	1684.45
619.43	1681.31
619.78	1677.38
620.12	1675.12
620.47	1672.14
620.82	1668.07
621.16	1664.45
621.51	1661.48
621.85	1658.12
622.20	1654.81
622.55	1651.19
622.89	1647.52
623.24	1644.86
623.59	1641.19
623.93	1636.00
624.28	1632.26
624.62	1629.90
624.97	1627.62
625.32	1622.95
625.66	1620.00
626.01	1615.21
626.35	1612.14
626.70	1607.62
627.04	1604.05
627.39	1599.02
627.73	1595.74
628.08	1592.40
628.43	1588.57
628.77	1584.21
629.12	1581.26
629.46	1577.50
629.81	1574.10
630.15	1569.55
630.50	1564.45
630.84	1559.90
631.19	1555.62
631.53	1550.88
631.88	1543.45
632.22	1537.02
632.57	1533.02
632.91	1528.02
633.26	1524.40
633.60	1519.12
633.95	1514.52
634.29	1508.98
634.64	1504.45
634.98	1499.38
635.32	1495.98
635.67	1493.05
636.01	1488.64
636.36	1483.48
636.70	1479.33
637.05	1473.79
637.39	1468.83
637.73	1464.93
638.08	1460.12
638.42	1455.43
638.77	1451.48
639.11	1447.83
639.45	1443.50
639.80	1437.81
640.14	1433.43
640.49	1428.17
640.83	1422.43
641.17	1417.86
641.52	1414.10
641.86	1409.67
642.20	1405.33
642.55	1397.95
642.89	1391.36
643.23	1385.52
643.58	1380.48
643.92	1373.43
644.26	1368.33
644.61	1364.10
644.95	1358.07
645.29	1352.60
645.64	1347.48
645.98	1341.17
646.32	1335.29
646.66	1329.57
647.01	1324.07
647.35	1318.10
647.69	1312.98
648.04	1307.83
648.38	1301.95
648.72	1295.71
649.06	1289.07
649.41	1281.93
649.75	1276.55
650.09	1271.00
650.43	1264.88
650.78	1258.10
651.12	1252.86
651.46	1246.67
651.80	1240.00
652.14	1234.02
652.49	1228.55
652.83	1221.71
653.17	1214.83
653.51	1208.40
653.85	1202.86
654.20	1197.07
654.54	1189.71
654.88	1182.69
655.22	1177.17
655.56	1170.48
655.90	1164.12
656.25	1157.57
656.59	1151.86
656.93	1145.88
657.27	1140.24
657.61	1134.90
657.95	1129.64
658.29	1123.71
658.64	1118.33
658.98	1111.83
659.32	1105.14
659.66	1098.12
660.00	1092.31
660.34	1086.24
660.68	1080.26
661.02	1072.74
661.36	1066.50
661.70	1061.83
662.05	1055.71
662.39	1049.55
662.73	1044.57
663.07	1039.17
663.41	1033.33
663.75	1027.60
664.09	1022.45
664.43	1015.90
664.77	1009.38
665.11	1002.19
665.45	996.21
665.79	990.02
666.13	984.17
666.47	978.69
666.81	972.88
667.15	966.90
667.49	961.57
667.83	956.50
668.17	951.67
668.51	946.40
668.85	940.10
669.19	935.83
669.53	929.48
669.87	923.26
670.21	917.50
670.55	911.57
670.89	906.31
671.23	901.12
671.57	896.00
671.91	891.36
672.25	886.60
672.58	882.36
672.92	876.81
673.26	871.43
673.60	866.24
673.94	861.69
674.28	856.67
674.62	851.79
674.96	846.19
675.30	841.33
675.64	836.07
675.97	831.74
676.31	825.95
676.65	821.12
676.99	817.05
677.33	811.79
677.67	807.79
678.01	802.05
678.34	796.40
678.68	791.31
679.02	785.69
679.36	780.67
679.70	774.55
680.04	769.55
680.37	764.40
680.71	759.62
681.05	754.21
681.39	749.05
681.73	743.48
682.06	738.67
682.40	734.38
682.74	730.31
683.08	725.67
683.42	720.17
683.75	715.60
684.09	709.88
684.43	705.14
684.77	699.74
685.10	695.40
685.44	690.64
685.78	685.81
686.12	681.12
686.45	676.60
686.79	671.83
687.13	667.95
687.46	663.36
687.80	659.43
688.14	655.31
688.48	651.00
688.81	647.52
689.15	643.93
689.49	638.86
689.82	633.71
690.16	628.60
690.50	624.69
690.83	619.98
691.17	615.24
691.51	610.79
691.84	607.00
692.18	602.52
692.52	598.62
692.85	595.12
693.19	592.19
693.52	588.17
693.86	584.12
694.20	579.60
694.53	575.81
694.87	570.71
695.21	566.29
695.54	562.38
695.88	557.43
696.21	552.71
696.55	548.71
696.88	544.98
697.22	541.26
697.56	537.93
697.89	534.07
698.23	531.36
698.56	527.57
698.90	524.10
699.23	520.48
699.57	516.62
699.90	512.31
700.24	507.48
700.58	503.95
700.91	500.81
701.25	499.38
701.58	496.62
701.92	494.12
702.25	491.38
702.59	487.86
702.92	485.26
703.26	481.95
703.59	479.05
703.93	477.57
704.26	475.00
704.60	471.33
704.93	468.36
705.26	464.62
705.60	462.24
705.93	458.62
706.27	456.00
706.60	453.31
706.94	451.43
707.27	448.52
707.61	445.71
707.94	442.86
708.27	438.36
708.61	434.88
708.94	431.83
709.28	429.00
709.61	426.50
709.94	423.67
710.28	421.67
710.61	419.19
710.95	414.90
711.28	413.88
711.61	411.45
711.95	409.81
712.28	407.43
712.61	405.07
712.95	403.79
713.28	402.17
713.61	399.86
713.95	396.83
714.28	394.98
714.61	392.86
714.95	390.64
715.28	388.00
715.61	385.76
715.95	383.88
716.28	381.60
716.61	379.69
716.95	377.24
717.28	374.86
717.61	372.62
717.94	370.71
718.28	366.88
718.61	364.79
718.94	362.12
719.27	360.05
719.61	357.81
719.94	355.21
720.27	352.55
720.60	350.45
720.94	348.48
721.27	346.57
721.60	345.43
721.93	343.76
722.27	343.24
722.60	341.88
722.93	339.93
723.26	338.43
723.59	336.57
723.93	335.67
724.26	334.45
724.59	332.98
724.92	331.93
725.25	331.31
725.59	330.02
725.92	328.81
726.25	327.95
726.58	326.86
726.91	325.52
727.24	324.69
727.57	323.43
727.91	322.05
728.24	321.19
728.57	319.21
728.90	318.45
729.23	316.48
729.56	316.31
729.89	315.26
730.22	313.67
730.55	312.57
730.89	311.50
731.22	310.24
731.55	309.00
731.88	307.79
732.21	306.10
732.54	305.17
732.87	304.21
733.20	303.12
733.53	302.12
733.86	301.38
734.19	299.88
734.52	299.17
734.85	299.74
735.18	298.52
735.51	298.52
735.84	297.57
736.17	297.19
736.50	295.19
736.83	296.71
737.16	296.21
737.49	295.31
737.82	294.00
738.15	293.26
738.48	292.71
738.81	291.71
739.14	290.95
739.47	290.05
739.80	289.33
740.13	288.67
740.46	287.52
740.79	286.38
741.12	285.45
741.45	284.45
741.78	282.45
742.11	282.50
742.44	281.02
742.77	280.40
743.10	279.05
743.43	278.10
743.75	274.98
744.08	276.74
744.41	275.81
744.74	275.02
745.07	273.90
745.40	273.29
745.73	273.45
746.06	272.86
746.39	272.21
746.71	271.24
747.04	270.43
747.37	269.69
747.70	269.57
748.03	268.98
748.36	268.64
748.68	268.14
749.01	266.50
749.34	265.88
749.67	265.10
750.00	264.93
750.33	265.98
750.65	265.38
750.98	262.36
751.31	261.95
751.64	261.62
751.97	262.38
752.29	261.69
752.62	259.90
752.95	259.07
753.28	258.74
753.60	258.05
753.93	257.67
754.26	257.52
754.59	256.45
754.91	255.76
755.24	254.95
755.57	254.43
755.90	254.00
756.22	253.26
756.55	252.43
756.88	251.57
757.20	249.74
757.53	248.95
757.86	248.64
758.19	248.21
758.51	247.62
758.84	245.98
759.17	245.36
759.49	245.17
759.82	245.88
760.15	245.17
760.47	244.95
760.80	244.19
761.13	244.05
761.45	243.17
761.78	242.95
762.11	242.76
762.43	242.00
762.76	241.43
763.08	241.43
763.41	241.26
763.74	240.95
764.06	240.50
764.39	240.21
764.71	239.62
765.04	239.10
765.37	238.57
765.69	238.19
766.02	237.76
766.34	237.33
766.67	236.21
767.00	236.19
767.32	236.93
767.65	237.76
767.97	237.24
768.30	237.29
768.62	236.88
768.95	236.24
769.27	236.05
769.60	236.19
769.92	235.67
770.25	235.00
770.57	234.36
770.90	234.02
771.22	233.55
771.55	233.50
771.87	233.31
772.20	233.14
772.52	234.79
772.85	237.38
773.17	237.14
773.50	236.79
773.82	236.48
774.15	235.12
774.47	233.60
774.80	233.14
775.12	233.10
775.45	233.05
775.77	233.07
776.09	233.12
776.42	232.93
776.74	233.36
777.07	233.19
777.39	233.17
777.72	233.00
778.04	233.36
778.36	232.88
778.69	232.93
779.01	232.76
779.33	230.64
779.66	227.74
779.98	227.62
780.31	227.19
780.63	227.95
780.95	228.33
781.28	228.40
781.60	228.10
781.92	227.93
782.25	227.69
782.57	227.57
782.89	227.26
783.22	227.02
783.54	226.38
783.86	226.38
784.19	226.26
784.51	226.88
784.83	226.48
