SpectraSuite Data File
++++++++++++++++++++++++++++++++++++
Date: Tue Apr 02 18:38:25 EDT 2013
User: group
Dark Spectrum Present: No
Reference Spectrum Present: No
Number of Sampled Component Spectra: 1
Spectrometers: USB2E7196
Integration Time (usec): 580000 (USB2E7196)
Spectra Averaged: 2 (USB2E7196)
Boxcar Smoothing: 10 (USB2E7196)
Correct for Electrical Dark: No (USB2E7196)
Strobe/Lamp Enabled: No (USB2E7196)
Correct for Detector Non-linearity: No (USB2E7196)
Correct for Stray Light: No (USB2E7196)
Number of Pixels in Processed Spectrum: 2048
>>>>>Begin Processed Spectral Data<<<<<
339.09	0.00
339.48	194.50
339.86	192.50
340.24	195.00
340.63	198.00
341.01	235.50
341.39	205.00
341.78	206.50
342.16	214.00
342.54	207.00
342.93	199.60
343.31	209.60
343.69	210.24
344.07	210.98
344.46	212.00
344.84	212.74
345.22	211.33
345.60	211.69
345.99	211.88
346.37	211.67
346.75	211.83
347.13	211.86
347.52	212.29
347.90	212.93
348.28	212.95
348.66	213.60
349.05	212.90
349.43	212.83
349.81	213.10
350.19	213.38
350.57	213.52
350.96	213.67
351.34	213.76
351.72	213.95
352.10	214.14
352.48	213.93
352.87	213.74
353.25	214.14
353.63	214.17
354.01	214.19
354.39	214.43
354.77	214.45
355.15	215.29
355.54	214.86
355.92	214.26
356.30	214.36
356.68	215.45
357.06	215.57
357.44	215.14
357.82	214.95
358.20	215.71
358.58	215.67
358.97	215.57
359.35	215.76
359.73	215.88
360.11	215.57
360.49	215.57
360.87	215.64
361.25	215.76
361.63	216.24
362.01	216.36
362.39	215.95
362.77	216.14
363.15	215.69
363.53	215.40
363.91	215.67
364.29	215.38
364.67	213.57
365.05	213.50
365.43	214.07
365.81	214.36
366.19	214.33
366.57	214.79
366.95	214.76
367.33	214.43
367.71	214.36
368.09	214.86
368.47	214.81
368.85	214.69
369.23	214.95
369.61	214.05
369.99	214.74
370.37	215.12
370.75	215.79
371.13	215.29
371.51	215.26
371.89	215.36
372.27	215.67
372.65	215.74
373.03	215.71
373.41	215.38
373.78	215.33
374.16	214.43
374.54	213.98
374.92	213.69
375.30	213.76
375.68	213.79
376.06	213.79
376.44	213.64
376.82	213.62
377.19	213.55
377.57	213.76
377.95	212.98
378.33	212.93
378.71	211.86
379.09	212.02
379.47	212.17
379.84	211.98
380.22	211.52
380.60	211.45
380.98	211.52
381.36	211.55
381.73	211.38
382.11	211.90
382.49	212.10
382.87	212.17
383.25	212.26
383.62	214.38
384.00	214.12
384.38	214.21
384.76	214.90
385.13	215.50
385.51	215.50
385.89	215.31
386.27	215.19
386.64	215.55
387.02	215.64
387.40	215.67
387.78	215.81
388.15	216.14
388.53	215.95
388.91	216.07
389.29	215.81
389.66	216.02
390.04	215.71
390.42	216.00
390.79	215.93
391.17	216.00
391.55	213.83
391.92	213.76
392.30	214.19
392.68	213.76
393.05	213.60
393.43	213.88
393.81	214.00
394.18	213.98
394.56	213.98
394.94	214.26
395.31	213.79
395.69	214.48
396.06	214.76
396.44	215.02
396.82	214.86
397.19	216.02
397.57	215.81
397.95	216.05
398.32	215.38
398.70	215.95
399.07	216.33
399.45	216.21
399.82	216.38
400.20	216.07
400.58	216.17
400.95	215.67
401.33	215.98
401.70	217.67
402.08	217.90
402.45	218.00
402.83	218.62
403.20	219.17
403.58	218.98
403.95	219.36
404.33	219.55
404.71	219.88
405.08	221.17
405.46	221.40
405.83	221.81
406.21	222.31
406.58	222.60
406.96	222.76
407.33	223.67
407.70	224.29
408.08	226.67
408.45	227.60
408.83	228.45
409.20	228.93
409.58	228.62
409.95	229.98
410.33	231.31
410.70	231.93
411.08	233.26
411.45	234.38
411.82	235.36
412.20	237.67
412.57	240.45
412.95	240.36
413.32	242.45
413.69	244.31
414.07	246.29
414.44	248.33
414.82	250.74
415.19	253.38
415.56	256.33
415.94	257.86
416.31	261.07
416.68	264.55
417.06	268.64
417.43	272.40
417.81	276.12
418.18	280.43
418.55	284.60
418.93	289.55
419.30	294.43
419.67	299.76
420.04	304.36
420.42	309.14
420.79	317.00
421.16	323.67
421.54	331.45
421.91	338.67
422.28	345.90
422.66	353.43
423.03	362.31
423.40	370.33
423.77	378.74
424.15	387.21
424.52	395.81
424.89	405.52
425.26	415.17
425.64	424.36
426.01	434.12
426.38	444.57
426.75	455.43
427.13	466.29
427.50	477.71
427.87	489.90
428.24	502.02
428.61	512.19
428.99	525.64
429.36	538.12
429.73	552.17
430.10	565.71
430.47	579.88
430.85	592.86
431.22	607.98
431.59	625.55
431.96	640.60
432.33	657.83
432.70	674.33
433.08	693.10
433.45	711.19
433.82	729.24
434.19	749.40
434.56	769.33
434.93	788.14
435.30	806.74
435.68	827.64
436.05	847.76
436.42	867.95
436.79	886.81
437.16	907.74
437.53	928.57
437.90	950.21
438.27	971.60
438.64	993.17
439.01	1013.00
439.38	1029.19
439.75	1047.05
440.13	1067.24
440.50	1086.43
440.87	1102.29
441.24	1118.10
441.61	1135.60
441.98	1148.40
442.35	1163.14
442.72	1178.86
443.09	1195.33
443.46	1204.64
443.83	1211.24
444.20	1217.40
444.57	1224.69
444.94	1228.14
445.31	1232.60
445.68	1238.71
446.05	1240.14
446.42	1239.10
446.79	1237.76
447.16	1236.14
447.53	1234.95
447.90	1226.67
448.27	1218.02
448.64	1207.81
449.01	1200.90
449.37	1188.02
449.74	1175.88
450.11	1161.98
450.48	1145.19
450.85	1126.02
451.22	1110.45
451.59	1096.62
451.96	1083.19
452.33	1064.26
452.70	1047.50
453.07	1026.14
453.43	1002.69
453.80	983.38
454.17	964.17
454.54	946.26
454.91	927.12
455.28	907.79
455.65	890.86
456.02	877.00
456.38	861.33
456.75	842.95
457.12	826.69
457.49	810.64
457.86	794.07
458.23	781.55
458.59	768.02
458.96	754.21
459.33	740.79
459.70	727.64
460.07	718.10
460.43	706.57
460.80	696.81
461.17	688.62
461.54	678.50
461.91	669.02
462.27	659.17
462.64	650.38
463.01	641.76
463.38	633.76
463.74	621.76
464.11	614.19
464.48	606.98
464.85	599.81
465.21	594.88
465.58	589.10
465.95	581.17
466.32	575.55
466.68	569.33
467.05	564.00
467.42	558.50
467.78	551.93
468.15	545.83
468.52	541.76
468.88	535.14
469.25	529.74
469.62	525.88
469.98	521.21
470.35	517.26
470.72	513.05
471.08	507.57
471.45	503.95
471.82	500.36
472.18	496.24
472.55	493.64
472.92	489.40
473.28	485.79
473.65	482.33
474.02	478.76
474.38	476.98
474.75	474.69
475.11	471.88
475.48	470.00
475.85	468.17
476.21	466.17
476.58	464.60
476.94	463.38
477.31	461.95
477.67	460.31
478.04	458.74
478.41	457.69
478.77	458.95
479.14	457.64
479.50	457.17
479.87	457.24
480.23	456.81
480.60	456.19
480.96	455.95
481.33	456.93
481.69	456.93
482.06	456.64
482.42	457.07
482.79	457.64
483.15	458.43
483.52	459.95
483.88	460.02
484.25	460.93
484.61	462.26
484.98	463.26
485.34	465.62
485.71	467.81
486.07	469.60
486.44	469.83
486.80	472.33
487.17	474.43
487.53	477.00
487.90	479.36
488.26	483.05
488.62	486.62
488.99	489.33
489.35	493.12
489.72	496.74
490.08	500.07
490.44	503.62
490.81	507.60
491.17	511.43
491.54	516.12
491.90	520.57
492.26	525.07
492.63	530.12
492.99	534.48
493.36	539.95
493.72	545.57
494.08	551.10
494.45	557.45
494.81	563.60
495.17	569.60
495.54	576.69
495.90	583.17
496.26	589.26
496.63	596.38
496.99	603.05
497.35	610.26
497.72	617.69
498.08	625.33
498.44	632.88
498.80	640.93
499.17	649.10
499.53	657.60
499.89	666.14
500.26	675.02
500.62	683.60
500.98	692.52
501.34	701.45
501.71	711.24
502.07	720.26
502.43	729.19
502.79	738.33
503.16	747.67
503.52	756.62
503.88	766.52
504.24	776.43
504.60	787.02
504.97	797.38
505.33	807.69
505.69	819.10
506.05	829.57
506.41	839.79
506.78	850.12
507.14	860.48
507.50	871.10
507.86	881.36
508.22	892.67
508.59	902.86
508.95	914.31
509.31	926.19
509.67	937.10
510.03	947.76
510.39	958.76
510.75	969.21
511.12	980.86
511.48	991.98
511.84	1002.90
512.20	1013.74
512.56	1024.86
512.92	1035.12
513.28	1045.50
513.64	1056.83
514.00	1067.76
514.37	1078.93
514.73	1090.33
515.09	1101.50
515.45	1111.76
515.81	1121.74
516.17	1132.10
516.53	1140.86
516.89	1150.00
517.25	1159.76
517.61	1170.83
517.97	1180.26
518.33	1189.95
518.69	1199.55
519.05	1209.60
519.41	1219.33
519.77	1229.69
520.13	1238.60
520.49	1247.90
520.85	1256.55
521.21	1266.21
521.57	1275.86
521.93	1283.48
522.29	1292.29
522.65	1300.67
523.01	1310.24
523.37	1318.62
523.73	1327.31
524.09	1336.90
524.45	1344.24
524.81	1351.74
525.17	1359.05
525.53	1367.36
525.89	1375.38
526.25	1382.86
526.61	1389.43
526.97	1396.45
527.33	1402.90
527.68	1412.36
528.04	1419.81
528.40	1427.05
528.76	1433.05
529.12	1439.62
529.48	1447.81
529.84	1453.76
530.20	1460.14
530.56	1466.17
530.91	1472.48
531.27	1479.38
531.63	1485.62
531.99	1492.12
532.35	1498.40
532.71	1504.95
533.07	1511.86
533.42	1520.36
533.78	1526.31
534.14	1532.74
534.50	1537.67
534.86	1545.10
535.21	1547.74
535.57	1554.90
535.93	1559.64
536.29	1566.48
536.65	1571.71
537.00	1576.98
537.36	1582.69
537.72	1587.24
538.08	1591.93
538.44	1596.55
538.79	1600.90
539.15	1605.05
539.51	1610.29
539.87	1614.90
540.22	1618.98
540.58	1623.00
540.94	1624.81
541.29	1629.07
541.65	1632.19
542.01	1636.67
542.37	1637.74
542.72	1641.43
543.08	1642.67
543.44	1646.10
543.79	1646.88
544.15	1649.48
544.51	1652.74
544.87	1655.45
545.22	1658.40
545.58	1660.52
545.94	1663.02
546.29	1665.10
546.65	1667.36
547.01	1667.71
547.36	1669.31
547.72	1671.24
548.07	1672.12
548.43	1672.95
548.79	1673.38
549.14	1674.33
549.50	1675.26
549.86	1676.05
550.21	1676.57
550.57	1678.36
550.92	1679.12
551.28	1679.90
551.64	1679.81
551.99	1679.67
552.35	1679.45
552.70	1679.24
553.06	1680.48
553.41	1680.60
553.77	1681.83
554.13	1681.69
554.48	1683.21
554.84	1685.57
555.19	1684.45
555.55	1686.60
555.90	1687.48
556.26	1689.07
556.61	1688.95
556.97	1688.74
557.32	1689.24
557.68	1690.14
558.03	1690.21
558.39	1690.98
558.74	1691.62
559.10	1692.40
559.45	1692.31
559.81	1692.10
560.16	1692.36
560.52	1692.07
560.87	1692.29
561.23	1691.19
561.58	1693.12
561.94	1693.05
562.29	1691.71
562.64	1692.83
563.00	1690.21
563.35	1689.93
563.71	1687.98
564.06	1688.83
564.42	1689.07
564.77	1689.24
565.12	1689.19
565.48	1690.29
565.83	1689.24
566.19	1689.12
566.54	1688.10
566.89	1687.48
567.25	1688.05
567.60	1689.14
567.96	1689.55
568.31	1690.02
568.66	1689.57
569.02	1686.93
569.37	1685.02
569.72	1682.74
570.08	1680.50
570.43	1679.81
570.78	1678.57
571.14	1677.55
571.49	1676.12
571.84	1674.74
572.20	1672.79
572.55	1670.83
572.90	1666.64
573.26	1664.38
573.61	1661.88
573.96	1660.95
574.31	1658.26
574.67	1654.98
575.02	1651.33
575.37	1647.48
575.72	1643.67
576.08	1640.17
576.43	1637.05
576.78	1633.38
577.13	1630.24
577.49	1626.31
577.84	1623.26
578.19	1618.81
578.54	1616.02
578.90	1612.14
579.25	1608.17
579.60	1603.57
579.95	1598.93
580.30	1594.90
580.66	1591.40
581.01	1587.43
581.36	1581.62
581.71	1577.24
582.06	1573.83
582.42	1568.88
582.77	1563.83
583.12	1559.40
583.47	1554.90
583.82	1550.19
584.17	1545.74
584.53	1542.02
584.88	1537.88
585.23	1533.17
585.58	1528.48
585.93	1522.90
586.28	1518.00
586.63	1512.67
586.98	1508.48
587.34	1504.79
587.69	1500.05
588.04	1494.43
588.39	1488.55
588.74	1483.67
589.09	1478.67
589.44	1471.71
589.79	1467.05
590.14	1462.17
590.49	1456.38
590.84	1450.40
591.19	1445.31
591.54	1440.64
591.89	1435.36
592.25	1432.21
592.60	1425.79
592.95	1420.40
593.30	1415.26
593.65	1409.26
594.00	1403.21
594.35	1404.07
594.70	1397.14
595.05	1392.14
595.40	1386.40
595.75	1380.48
596.10	1375.62
596.45	1370.52
596.80	1365.38
597.15	1359.90
597.50	1353.76
597.85	1348.62
598.19	1343.10
598.54	1336.69
598.89	1331.33
599.24	1325.88
599.59	1318.83
599.94	1313.50
600.29	1308.29
600.64	1302.26
600.99	1296.36
601.34	1291.67
601.69	1279.64
602.04	1273.48
602.39	1266.29
602.74	1261.60
603.08	1255.88
603.43	1250.86
603.78	1244.83
604.13	1239.71
604.48	1233.55
604.83	1228.14
605.18	1222.74
605.53	1217.52
605.87	1212.24
606.22	1206.21
606.57	1199.74
606.92	1194.14
607.27	1188.79
607.62	1182.31
607.96	1177.12
608.31	1172.36
608.66	1166.07
609.01	1159.83
609.36	1155.17
609.70	1150.71
610.05	1144.88
610.40	1140.62
610.75	1133.48
611.10	1128.00
611.44	1121.45
611.79	1115.48
612.14	1109.74
612.49	1102.88
612.83	1096.62
613.18	1090.98
613.53	1084.93
613.88	1079.21
614.22	1072.48
614.57	1066.40
614.92	1060.81
615.27	1054.79
615.61	1048.29
615.96	1042.88
616.31	1037.36
616.65	1032.40
617.00	1026.93
617.35	1020.48
617.70	1013.62
618.04	1008.57
618.39	1002.83
618.74	998.12
619.08	992.62
619.43	986.90
619.78	982.02
620.12	976.79
620.47	970.95
620.82	964.95
621.16	958.95
621.51	955.02
621.85	949.24
622.20	943.93
622.55	937.81
622.89	932.98
623.24	927.95
623.59	922.76
623.93	916.86
624.28	911.55
624.62	909.29
624.97	906.21
625.32	901.60
625.66	896.19
626.01	890.60
626.35	885.88
626.70	881.29
627.04	877.12
627.39	872.26
627.73	868.29
628.08	863.62
628.43	858.88
628.77	852.62
629.12	848.69
629.46	844.93
629.81	841.10
630.15	835.86
630.50	830.50
630.84	825.45
631.19	820.14
631.53	815.10
631.88	807.29
632.22	800.33
632.57	795.07
632.91	790.12
633.26	785.74
633.60	780.55
633.95	775.45
634.29	769.38
634.64	764.90
634.98	759.31
635.32	755.71
635.67	752.02
636.01	748.19
636.36	743.00
636.70	737.55
637.05	732.62
637.39	728.38
637.73	724.33
638.08	720.48
638.42	716.10
638.77	712.00
639.11	707.95
639.45	704.45
639.80	699.64
640.14	695.57
640.49	690.79
640.83	686.38
641.17	682.21
641.52	678.69
641.86	674.67
642.20	671.74
642.55	667.31
642.89	662.93
643.23	658.17
643.58	654.64
643.92	650.45
644.26	646.29
644.61	642.81
644.95	638.69
645.29	633.95
645.64	630.17
645.98	625.14
646.32	621.55
646.66	616.93
647.01	613.31
647.35	609.81
647.69	606.52
648.04	602.86
648.38	598.90
648.72	594.83
649.06	590.36
649.41	586.21
649.75	581.79
650.09	578.57
650.43	575.36
650.78	570.86
651.12	567.02
651.46	563.40
651.80	559.07
652.14	555.40
652.49	552.33
652.83	548.83
653.17	545.90
653.51	541.90
653.85	538.93
654.20	535.36
654.54	531.36
654.88	527.07
655.22	524.52
655.56	521.45
655.90	518.57
656.25	515.71
656.59	511.86
656.93	509.14
657.27	506.33
657.61	503.10
657.95	500.57
658.29	497.81
658.64	495.60
658.98	492.36
659.32	489.45
659.66	486.86
660.00	484.52
660.34	481.86
660.68	479.19
661.02	476.07
661.36	473.43
661.70	471.17
662.05	469.07
662.39	466.05
662.73	463.90
663.07	462.24
663.41	459.90
663.75	457.60
664.09	455.17
664.43	451.24
664.77	448.71
665.11	445.88
665.45	443.62
665.79	441.24
666.13	439.26
666.47	437.02
666.81	435.10
667.15	432.24
667.49	430.33
667.83	429.02
668.17	426.95
668.51	424.71
668.85	422.64
669.19	421.52
669.53	418.83
669.87	416.07
670.21	412.90
670.55	411.17
670.89	410.14
671.23	408.02
671.57	406.62
671.91	404.98
672.25	403.48
672.58	402.29
672.92	399.81
673.26	397.88
673.60	395.86
673.94	393.71
674.28	392.45
674.62	390.67
674.96	388.31
675.30	387.07
675.64	385.76
675.97	383.88
676.31	381.55
676.65	380.38
676.99	379.90
677.33	378.38
677.67	376.45
678.01	373.83
678.34	372.36
678.68	371.26
679.02	369.26
679.36	367.69
679.70	365.29
680.04	363.93
680.37	362.57
680.71	361.07
681.05	359.55
681.39	357.74
681.73	355.88
682.06	354.45
682.40	353.02
682.74	351.64
683.08	351.00
683.42	349.50
683.75	348.24
684.09	346.00
684.43	344.55
684.77	342.90
685.10	341.86
685.44	340.69
685.78	339.05
686.12	337.88
686.45	336.62
686.79	335.52
687.13	334.64
687.46	333.21
687.80	332.74
688.14	331.71
688.48	330.81
688.81	329.69
689.15	328.98
689.49	327.64
689.82	326.40
690.16	324.36
690.50	323.07
690.83	321.40
691.17	319.83
691.51	318.88
691.84	318.29
692.18	316.93
692.52	315.26
692.85	314.43
693.19	314.31
693.52	313.24
693.86	311.86
694.20	310.67
694.53	309.86
694.87	308.31
695.21	306.67
695.54	305.38
695.88	304.21
696.21	302.52
696.55	301.40
696.88	300.38
697.22	299.24
697.56	298.24
697.89	297.57
698.23	297.10
698.56	295.79
698.90	294.67
699.23	293.81
699.57	293.45
699.90	292.33
700.24	290.83
700.58	289.88
700.91	289.38
701.25	289.76
701.58	289.19
701.92	288.81
702.25	288.05
702.59	287.02
702.92	286.52
703.26	285.98
703.59	285.24
703.93	285.90
704.26	285.64
704.60	285.26
704.93	284.17
705.26	283.19
705.60	282.88
705.93	281.64
706.27	281.69
706.60	281.55
706.94	281.55
707.27	280.69
707.61	279.83
707.94	279.21
708.27	277.17
708.61	276.10
708.94	275.26
709.28	274.62
709.61	273.93
709.94	273.31
710.28	272.60
710.61	272.12
710.95	269.88
711.28	270.52
711.61	269.67
711.95	269.76
712.28	269.05
712.61	268.48
712.95	269.26
713.28	269.29
713.61	267.95
713.95	266.98
714.28	266.52
714.61	266.21
714.95	265.55
715.28	264.79
715.61	264.17
715.95	263.69
716.28	263.17
716.61	263.14
716.95	262.40
717.28	261.90
717.61	261.33
717.94	260.86
718.28	258.83
718.61	258.43
718.94	257.38
719.27	257.10
719.61	256.74
719.94	255.43
720.27	253.74
720.60	253.12
720.94	252.40
721.27	252.00
721.60	251.98
721.93	251.43
722.27	251.67
722.60	251.62
722.93	250.79
723.26	250.57
723.59	249.62
723.93	249.60
724.26	249.36
724.59	248.69
724.92	248.48
725.25	248.88
725.59	248.33
725.92	248.43
726.25	248.00
726.58	247.55
726.91	247.43
727.24	247.40
727.57	247.14
727.91	246.55
728.24	246.45
728.57	245.60
728.90	245.60
729.23	244.60
729.56	245.14
729.89	245.10
730.22	244.48
730.55	244.29
730.89	243.83
731.22	243.43
731.55	243.43
731.88	242.81
732.21	241.88
732.54	241.67
732.87	241.40
733.20	241.38
733.53	241.05
733.86	241.00
734.19	240.57
734.52	240.71
734.85	241.95
735.18	241.17
735.51	241.64
735.84	241.55
736.17	242.00
736.50	240.69
736.83	243.07
737.16	243.00
737.49	243.07
737.82	242.55
738.15	242.71
738.48	242.24
738.81	242.12
739.14	241.55
739.47	241.24
739.80	240.57
740.13	240.48
740.46	240.12
740.79	239.48
741.12	239.05
741.45	238.60
741.78	237.29
742.11	237.95
742.44	237.36
742.77	237.14
743.10	236.60
743.43	236.38
743.75	233.69
744.08	236.24
744.41	235.71
744.74	235.62
745.07	234.83
745.40	235.05
745.73	235.98
746.06	236.14
746.39	236.21
746.71	236.24
747.04	235.81
747.37	235.55
747.70	235.74
748.03	235.60
748.36	235.57
748.68	234.98
749.01	233.95
749.34	233.55
749.67	233.45
750.00	233.40
750.33	234.83
750.65	234.88
750.98	232.10
751.31	232.00
751.64	232.05
751.97	233.33
752.29	233.10
752.62	231.93
752.95	231.62
753.28	231.14
753.60	230.76
753.93	230.79
754.26	230.76
754.59	230.00
754.91	229.79
755.24	229.79
755.57	229.95
755.90	229.88
756.22	229.67
756.55	229.38
756.88	229.05
757.20	227.55
757.53	226.60
757.86	226.55
758.19	226.76
758.51	226.55
758.84	225.19
759.17	224.79
759.49	224.60
759.82	225.60
760.15	225.64
760.47	225.57
760.80	225.19
761.13	225.60
761.45	225.40
761.78	225.45
762.11	224.98
762.43	224.69
762.76	224.50
763.08	224.57
763.41	224.50
763.74	224.40
764.06	224.07
764.39	224.43
764.71	224.26
765.04	223.76
765.37	223.19
765.69	222.90
766.02	222.81
766.34	222.55
766.67	221.36
767.00	221.67
767.32	222.64
767.65	223.83
767.97	223.48
768.30	223.62
768.62	223.57
768.95	223.36
769.27	223.45
769.60	223.79
769.92	223.31
770.25	222.86
770.57	222.31
770.90	222.38
771.22	221.93
771.55	221.90
771.87	222.05
772.20	222.14
772.52	224.02
772.85	226.19
773.17	226.26
773.50	226.40
773.82	226.02
774.15	224.90
774.47	223.43
774.80	223.02
775.12	222.83
775.45	222.74
775.77	222.74
776.09	222.69
776.42	222.38
776.74	223.00
777.07	222.93
777.39	223.24
777.72	222.83
778.04	223.19
778.36	223.00
778.69	222.90
779.01	223.10
779.33	220.93
779.66	218.62
779.98	218.57
780.31	218.40
780.63	219.33
780.95	219.67
781.28	219.79
781.60	219.64
781.92	219.71
782.25	219.36
782.57	219.38
782.89	218.95
783.22	218.93
783.54	218.48
783.86	218.67
784.19	218.31
784.51	219.00
784.83	218.71
785.16	218.45
785.48	218.43
785.80	218.26
786.12	218.83
786.45	218.64
786.77	218.71
787.09	218.74
