SpectraSuite Data File
++++++++++++++++++++++++++++++++++++
Date: Tue Apr 02 18:45:13 EDT 2013
User: group
Dark Spectrum Present: No
Reference Spectrum Present: No
Number of Sampled Component Spectra: 1
Spectrometers: USB2E7196
Integration Time (usec): 580000 (USB2E7196)
Spectra Averaged: 2 (USB2E7196)
Boxcar Smoothing: 10 (USB2E7196)
Correct for Electrical Dark: No (USB2E7196)
Strobe/Lamp Enabled: No (USB2E7196)
Correct for Detector Non-linearity: No (USB2E7196)
Correct for Stray Light: No (USB2E7196)
Number of Pixels in Processed Spectrum: 2048
>>>>>Begin Processed Spectral Data<<<<<
339.09	0.00
339.48	194.50
339.86	195.50
340.24	193.50
340.63	200.50
341.01	229.00
341.39	198.00
341.78	205.50
342.16	211.50
342.54	202.00
342.93	197.07
343.31	206.88
343.69	207.57
344.07	208.07
344.46	209.05
344.84	209.36
345.22	208.48
345.60	209.10
345.99	209.19
346.37	209.05
346.75	209.26
347.13	209.31
347.52	209.62
347.90	210.29
348.28	210.26
348.66	211.26
349.05	210.69
349.43	211.00
349.81	211.26
350.19	211.36
350.57	211.24
350.96	211.79
351.34	212.10
351.72	211.93
352.10	211.88
352.48	211.60
352.87	211.62
353.25	211.40
353.63	211.26
354.01	211.40
354.39	211.81
354.77	211.95
355.15	212.43
355.54	212.12
355.92	211.48
356.30	211.81
356.68	212.67
357.06	212.86
357.44	212.26
357.82	212.02
358.20	212.88
358.58	212.71
358.97	212.67
359.35	212.76
359.73	213.45
360.11	213.79
360.49	213.95
360.87	214.00
361.25	214.29
361.63	214.98
362.01	215.10
362.39	214.76
362.77	214.95
363.15	215.05
363.53	215.17
363.91	215.24
364.29	215.14
364.67	213.36
365.05	213.14
365.43	213.43
365.81	213.83
366.19	214.17
366.57	215.12
366.95	215.24
367.33	214.95
367.71	214.76
368.09	214.90
368.47	214.95
368.85	215.00
369.23	215.55
369.61	214.74
369.99	215.26
370.37	215.48
370.75	216.55
371.13	216.14
371.51	215.76
371.89	215.64
372.27	215.69
372.65	215.71
373.03	215.79
373.41	215.90
373.78	215.50
374.16	214.36
374.54	213.71
374.92	213.67
375.30	213.83
375.68	213.45
376.06	213.52
376.44	213.36
376.82	213.48
377.19	213.05
377.57	213.19
377.95	212.43
378.33	212.26
378.71	210.95
379.09	211.14
379.47	211.62
379.84	211.67
380.22	211.50
380.60	211.33
380.98	211.36
381.36	211.33
381.73	211.29
382.11	211.86
382.49	212.02
382.87	211.67
383.25	211.62
383.62	213.95
384.00	213.64
384.38	213.88
384.76	214.40
385.13	215.52
385.51	215.62
385.89	215.79
386.27	215.81
386.64	216.21
387.02	215.98
387.40	215.79
387.78	216.05
388.15	216.38
388.53	216.43
388.91	216.45
389.29	216.48
389.66	216.93
390.04	216.48
390.42	216.74
390.79	216.81
391.17	216.88
391.55	214.90
391.92	215.05
392.30	215.17
392.68	214.40
393.05	214.02
393.43	213.95
393.81	213.76
394.18	213.67
394.56	213.76
394.94	214.29
395.31	214.14
395.69	214.74
396.06	215.05
396.44	215.21
396.82	215.07
397.19	215.83
397.57	215.43
397.95	215.60
398.32	215.14
398.70	215.33
399.07	215.64
399.45	215.40
399.82	215.36
400.20	215.10
400.58	215.29
400.95	214.67
401.33	215.17
401.70	216.90
402.08	216.76
402.45	216.64
402.83	217.31
403.20	217.62
403.58	217.31
403.95	217.67
404.33	217.93
404.71	218.36
405.08	219.60
405.46	220.05
405.83	220.55
406.21	220.83
406.58	221.43
406.96	221.76
407.33	222.40
407.70	223.07
408.08	225.29
408.45	226.00
408.83	227.17
409.20	227.88
409.58	227.38
409.95	228.67
410.33	229.76
410.70	229.71
411.08	231.00
411.45	232.07
411.82	232.74
412.20	234.24
412.57	236.40
412.95	236.02
413.32	237.69
413.69	239.33
414.07	241.29
414.44	243.10
414.82	244.95
415.19	247.24
415.56	249.43
415.94	250.48
416.31	253.48
416.68	255.98
417.06	258.93
417.43	262.26
417.81	265.76
418.18	269.45
418.55	273.62
418.93	277.71
419.30	281.83
419.67	286.31
420.04	290.55
420.42	294.76
420.79	301.86
421.16	307.14
421.54	313.93
421.91	319.69
422.28	325.67
422.66	332.12
423.03	339.76
423.40	346.64
423.77	353.60
424.15	360.90
424.52	368.81
424.89	377.43
425.26	385.19
425.64	392.71
426.01	400.74
426.38	409.05
426.75	418.21
427.13	427.64
427.50	436.98
427.87	447.45
428.24	457.21
428.61	465.67
428.99	477.21
429.36	487.36
429.73	498.88
430.10	510.07
430.47	521.69
430.85	532.71
431.22	545.33
431.59	560.38
431.96	573.24
432.33	587.50
432.70	601.24
433.08	617.02
433.45	632.19
433.82	646.95
434.19	664.24
434.56	681.02
434.93	696.17
435.30	712.29
435.68	728.86
436.05	746.17
436.42	762.48
436.79	778.12
437.16	795.45
437.53	812.90
437.90	830.55
438.27	848.43
438.64	866.05
439.01	882.60
439.38	896.83
439.75	910.86
440.13	926.86
440.50	942.45
440.87	955.05
441.24	968.38
441.61	983.00
441.98	993.67
442.35	1005.40
442.72	1019.17
443.09	1032.00
443.46	1040.10
443.83	1045.26
444.20	1050.24
444.57	1056.31
444.94	1059.88
445.31	1063.36
445.68	1069.40
446.05	1071.45
446.42	1069.98
446.79	1069.26
447.16	1067.21
447.53	1066.69
447.90	1060.76
448.27	1053.45
448.64	1045.24
449.01	1039.69
449.37	1029.29
449.74	1019.02
450.11	1007.55
450.48	992.07
450.85	976.57
451.22	963.88
451.59	952.50
451.96	941.21
452.33	925.57
452.70	911.14
453.07	894.10
453.43	874.86
453.80	858.10
454.17	842.64
454.54	827.05
454.91	810.36
455.28	794.14
455.65	779.36
456.02	768.98
456.38	756.52
456.75	740.52
457.12	727.24
457.49	714.24
457.86	700.36
458.23	690.57
458.59	679.21
458.96	667.31
459.33	656.43
459.70	645.71
460.07	637.29
460.43	627.55
460.80	619.26
461.17	611.88
461.54	603.36
461.91	595.60
462.27	587.62
462.64	580.90
463.01	573.21
463.38	566.62
463.74	555.57
464.11	548.50
464.48	542.60
464.85	535.93
465.21	531.12
465.58	526.45
465.95	519.79
466.32	514.62
466.68	509.90
467.05	504.76
467.42	500.14
467.78	495.29
468.15	490.40
468.52	486.79
468.88	480.71
469.25	476.21
469.62	472.98
469.98	468.98
470.35	465.33
470.72	462.07
471.08	457.40
471.45	454.93
471.82	452.67
472.18	449.19
472.55	447.29
472.92	443.67
473.28	440.69
473.65	438.12
474.02	435.40
474.38	433.24
474.75	431.36
475.11	429.02
475.48	427.76
475.85	426.24
476.21	424.26
476.58	423.31
476.94	421.90
477.31	420.33
477.67	419.31
478.04	418.17
478.41	417.81
478.77	419.29
479.14	417.98
479.50	417.14
479.87	417.12
480.23	416.48
480.60	416.07
480.96	415.64
481.33	416.45
481.69	416.74
482.06	416.93
482.42	417.26
482.79	417.52
483.15	417.10
483.52	417.95
483.88	418.17
484.25	418.71
484.61	419.71
484.98	420.29
485.34	421.64
485.71	423.40
486.07	424.43
486.44	423.81
486.80	425.31
487.17	426.60
487.53	428.79
487.90	431.19
488.26	434.31
488.62	436.71
488.99	438.57
489.35	441.07
489.72	443.60
490.08	446.38
490.44	449.21
490.81	452.81
491.17	455.48
491.54	459.45
491.90	463.26
492.26	466.74
492.63	470.98
492.99	474.43
493.36	478.60
493.72	483.43
494.08	488.07
494.45	492.81
494.81	498.00
495.17	502.64
495.54	507.55
495.90	512.14
496.26	517.86
496.63	523.26
496.99	528.43
497.35	534.17
497.72	540.26
498.08	546.17
498.44	551.98
498.80	558.69
499.17	564.55
499.53	570.60
499.89	577.71
500.26	584.02
500.62	590.88
500.98	597.90
501.34	603.88
501.71	610.86
502.07	617.62
502.43	624.36
502.79	631.67
503.16	638.64
503.52	645.74
503.88	651.98
504.24	659.45
504.60	667.29
504.97	674.88
505.33	681.69
505.69	690.50
506.05	698.36
506.41	705.88
506.78	713.71
507.14	720.93
507.50	728.00
507.86	735.45
508.22	743.50
508.59	751.26
508.95	759.69
509.31	768.88
509.67	777.00
510.03	785.36
510.39	792.67
510.75	799.98
511.12	807.81
511.48	815.95
511.84	823.81
512.20	831.79
512.56	839.33
512.92	847.31
513.28	854.38
513.64	861.76
514.00	868.40
514.37	875.76
514.73	883.55
515.09	891.17
515.45	899.05
515.81	905.86
516.17	912.05
516.53	918.31
516.89	923.57
517.25	930.00
517.61	936.60
517.97	943.50
518.33	950.17
518.69	956.05
519.05	962.81
519.41	968.71
519.77	975.19
520.13	980.60
520.49	985.45
520.85	991.00
521.21	997.83
521.57	1003.95
521.93	1009.02
522.29	1014.52
522.65	1019.43
523.01	1024.57
523.37	1029.33
523.73	1034.45
524.09	1039.45
524.45	1044.24
524.81	1048.76
525.17	1053.05
525.53	1057.29
525.89	1061.64
526.25	1066.93
526.61	1070.55
526.97	1074.98
527.33	1078.57
527.68	1084.86
528.04	1089.60
528.40	1094.10
528.76	1097.64
529.12	1102.19
529.48	1107.79
529.84	1111.90
530.20	1116.38
530.56	1120.45
530.91	1125.12
531.27	1128.95
531.63	1133.48
531.99	1137.33
532.35	1141.36
532.71	1144.90
533.07	1150.14
533.42	1157.00
533.78	1161.02
534.14	1166.45
534.50	1170.26
534.86	1174.83
535.21	1177.38
535.57	1181.50
535.93	1184.50
536.29	1188.14
536.65	1191.69
537.00	1194.62
537.36	1198.79
537.72	1202.02
538.08	1205.43
538.44	1208.64
538.79	1212.38
539.15	1215.21
539.51	1219.26
539.87	1222.83
540.22	1226.36
540.58	1229.10
540.94	1230.40
541.29	1232.48
541.65	1234.33
542.01	1237.00
542.37	1239.40
542.72	1241.07
543.08	1243.76
543.44	1247.00
543.79	1249.10
544.15	1251.86
544.51	1254.60
544.87	1256.86
545.22	1259.90
545.58	1262.55
545.94	1264.86
546.29	1267.45
546.65	1270.36
547.01	1272.14
547.36	1274.93
547.72	1277.19
548.07	1279.88
548.43	1281.36
548.79	1283.93
549.14	1286.43
549.50	1290.17
549.86	1292.19
550.21	1295.69
550.57	1298.40
550.92	1300.33
551.28	1304.24
551.64	1306.79
551.99	1309.45
552.35	1312.57
552.70	1315.43
553.06	1318.26
553.41	1321.67
553.77	1326.52
554.13	1329.52
554.48	1333.95
554.84	1337.67
555.19	1342.45
555.55	1346.31
555.90	1350.00
556.26	1354.26
556.61	1357.57
556.97	1360.10
557.32	1364.60
557.68	1369.21
558.03	1373.17
558.39	1377.57
558.74	1380.67
559.10	1385.31
559.45	1389.62
559.81	1393.90
560.16	1397.62
560.52	1402.14
560.87	1406.52
561.23	1408.98
561.58	1415.17
561.94	1419.24
562.29	1423.48
562.64	1427.62
563.00	1431.45
563.35	1437.07
563.71	1442.17
564.06	1447.81
564.42	1453.05
564.77	1458.57
565.12	1463.83
565.48	1471.14
565.83	1476.38
566.19	1482.26
566.54	1487.31
566.89	1492.83
567.25	1498.98
567.60	1507.14
567.96	1514.71
568.31	1521.55
568.66	1528.24
569.02	1532.29
569.37	1537.40
569.72	1543.07
570.08	1547.98
570.43	1553.24
570.78	1558.83
571.14	1564.24
571.49	1569.60
571.84	1574.86
572.20	1579.00
572.55	1583.90
572.90	1587.93
573.26	1592.90
573.61	1596.52
573.96	1601.62
574.31	1605.57
574.67	1608.76
575.02	1611.12
575.37	1613.07
575.72	1615.79
576.08	1620.21
576.43	1624.19
576.78	1628.24
577.13	1632.19
577.49	1636.55
577.84	1640.62
578.19	1644.43
578.54	1647.81
578.90	1651.31
579.25	1655.12
579.60	1658.45
579.95	1660.95
580.30	1663.76
580.66	1667.95
581.01	1672.02
581.36	1675.05
581.71	1678.21
582.06	1683.52
582.42	1688.43
582.77	1691.64
583.12	1694.95
583.47	1697.21
583.82	1700.43
584.17	1703.48
584.53	1706.74
584.88	1709.81
585.23	1713.50
585.58	1715.88
585.93	1718.88
586.28	1722.02
586.63	1724.76
586.98	1728.57
587.34	1732.79
587.69	1735.40
588.04	1737.79
588.39	1740.38
588.74	1741.31
589.09	1744.31
589.44	1744.17
589.79	1744.81
590.14	1746.79
590.49	1748.33
590.84	1750.40
591.19	1752.29
591.54	1754.14
591.89	1754.76
592.25	1757.76
592.60	1758.55
592.95	1759.67
593.30	1761.26
593.65	1762.19
594.00	1762.67
594.35	1768.76
594.70	1768.50
595.05	1769.17
595.40	1769.48
595.75	1770.57
596.10	1772.81
596.45	1774.14
596.80	1776.67
597.15	1777.33
597.50	1778.19
597.85	1779.98
598.19	1780.07
598.54	1780.67
598.89	1781.12
599.24	1782.90
599.59	1782.14
599.94	1781.95
600.29	1782.69
600.64	1782.76
600.99	1782.62
601.34	1783.93
601.69	1778.52
602.04	1778.24
602.39	1777.81
602.74	1778.02
603.08	1777.29
603.43	1778.05
603.78	1778.02
604.13	1776.29
604.48	1776.31
604.83	1776.21
605.18	1776.05
605.53	1775.86
605.87	1775.10
606.22	1774.00
606.57	1772.00
606.92	1770.19
607.27	1770.05
607.62	1769.64
607.96	1768.76
608.31	1767.67
608.66	1765.71
609.01	1764.21
609.36	1763.95
609.70	1762.57
610.05	1759.79
610.40	1757.98
610.75	1754.88
611.10	1753.02
611.44	1750.33
611.79	1747.10
612.14	1744.10
612.49	1740.57
612.83	1738.07
613.18	1734.88
613.53	1732.55
613.88	1728.95
614.22	1725.69
614.57	1721.76
614.92	1717.26
615.27	1713.43
615.61	1709.67
615.96	1705.90
616.31	1703.07
616.65	1700.17
617.00	1698.36
617.35	1696.74
617.70	1694.38
618.04	1691.29
618.39	1686.38
618.74	1683.93
619.08	1680.12
619.43	1676.79
619.78	1673.45
620.12	1670.07
620.47	1667.43
620.82	1662.90
621.16	1659.48
621.51	1657.40
621.85	1653.57
622.20	1650.10
622.55	1645.95
622.89	1643.67
623.24	1641.24
623.59	1637.62
623.93	1632.38
624.28	1627.93
624.62	1625.00
624.97	1621.57
625.32	1618.00
625.66	1614.12
626.01	1611.07
626.35	1609.10
626.70	1605.29
627.04	1601.95
627.39	1597.02
627.73	1593.40
628.08	1590.98
628.43	1587.88
628.77	1583.71
629.12	1579.55
629.46	1576.50
629.81	1573.17
630.15	1568.29
630.50	1562.95
630.84	1558.38
631.19	1553.95
631.53	1549.50
631.88	1542.62
632.22	1536.86
632.57	1532.71
632.91	1527.52
633.26	1522.07
633.60	1516.17
633.95	1511.67
634.29	1505.69
634.64	1502.52
634.98	1496.88
635.32	1492.67
635.67	1489.02
636.01	1484.76
636.36	1480.33
636.70	1476.60
637.05	1472.31
637.39	1467.10
637.73	1463.43
638.08	1459.33
638.42	1455.17
638.77	1451.31
639.11	1447.31
639.45	1442.31
639.80	1436.74
640.14	1433.14
640.49	1428.00
640.83	1422.98
641.17	1418.38
641.52	1414.05
641.86	1408.93
642.20	1404.90
642.55	1398.17
642.89	1392.38
643.23	1386.38
643.58	1382.19
643.92	1374.40
644.26	1369.26
644.61	1365.29
644.95	1360.00
645.29	1353.76
645.64	1348.40
645.98	1341.21
646.32	1336.64
646.66	1330.83
647.01	1324.38
647.35	1318.43
647.69	1313.31
648.04	1308.52
648.38	1302.43
648.72	1297.07
649.06	1291.64
649.41	1285.12
649.75	1279.31
650.09	1273.05
650.43	1266.14
650.78	1259.93
651.12	1254.67
651.46	1247.50
651.80	1240.14
652.14	1233.36
652.49	1227.31
652.83	1221.50
653.17	1215.48
653.51	1208.74
653.85	1203.52
654.20	1197.74
654.54	1190.69
654.88	1184.31
655.22	1177.45
655.56	1171.12
655.90	1164.38
656.25	1156.98
656.59	1150.90
656.93	1145.36
657.27	1140.17
657.61	1134.69
657.95	1128.62
658.29	1122.14
658.64	1116.88
658.98	1111.12
659.32	1104.74
659.66	1099.07
660.00	1092.48
660.34	1086.14
660.68	1079.52
661.02	1071.98
661.36	1066.19
661.70	1061.19
662.05	1054.93
662.39	1048.95
662.73	1043.76
663.07	1039.02
663.41	1033.31
663.75	1026.81
664.09	1020.90
664.43	1014.05
664.77	1007.60
665.11	1001.14
665.45	996.10
665.79	990.24
666.13	984.36
666.47	979.19
666.81	972.43
667.15	966.76
667.49	961.79
667.83	957.24
668.17	952.43
668.51	946.69
668.85	941.17
669.19	936.52
669.53	930.90
669.87	924.88
670.21	918.19
670.55	912.45
670.89	908.12
671.23	902.74
671.57	896.81
671.91	891.67
672.25	886.48
672.58	881.48
672.92	875.38
673.26	869.90
673.60	864.29
673.94	859.67
674.28	854.71
674.62	849.88
674.96	844.07
675.30	838.79
675.64	834.00
675.97	828.55
676.31	822.60
676.65	817.43
676.99	813.74
677.33	808.81
677.67	804.00
678.01	798.62
678.34	793.24
678.68	789.64
679.02	784.60
679.36	779.21
679.70	773.62
680.04	769.21
680.37	763.86
680.71	758.88
681.05	754.40
681.39	749.02
681.73	743.90
682.06	738.81
682.40	734.67
682.74	730.02
683.08	725.52
683.42	720.76
683.75	716.38
684.09	710.29
684.43	705.71
684.77	700.38
685.10	695.57
685.44	691.00
685.78	685.36
686.12	681.26
686.45	676.95
686.79	672.43
687.13	668.12
687.46	663.88
687.80	660.05
688.14	655.14
688.48	651.29
688.81	646.79
689.15	642.88
689.49	638.24
689.82	633.48
690.16	628.55
690.50	624.00
690.83	618.98
691.17	614.00
691.51	609.33
691.84	605.45
692.18	601.10
692.52	596.76
692.85	593.10
693.19	589.40
693.52	585.19
693.86	580.55
694.20	576.38
694.53	573.02
694.87	568.60
695.21	564.67
695.54	560.67
695.88	556.60
696.21	551.95
696.55	547.90
696.88	544.02
697.22	540.26
697.56	536.76
697.89	533.19
698.23	530.17
698.56	526.50
698.90	523.17
699.23	519.64
699.57	516.10
699.90	511.83
700.24	507.69
700.58	504.12
700.91	501.14
701.25	499.02
701.58	495.93
701.92	492.98
702.25	489.79
702.59	486.31
702.92	483.14
703.26	480.12
703.59	477.00
703.93	475.62
704.26	473.07
704.60	470.21
704.93	467.60
705.26	464.29
705.60	461.86
705.93	458.36
706.27	455.71
706.60	453.31
706.94	451.76
707.27	448.33
707.61	445.50
707.94	442.45
708.27	438.02
708.61	434.88
708.94	432.00
709.28	429.17
709.61	426.29
709.94	423.57
710.28	421.05
710.61	418.38
710.95	414.21
711.28	412.90
711.61	409.93
711.95	407.50
712.28	405.29
712.61	402.36
712.95	401.05
713.28	399.38
713.61	396.88
713.95	394.14
714.28	392.76
714.61	390.64
714.95	388.76
715.28	386.95
715.61	384.55
715.95	382.67
716.28	380.40
716.61	378.93
716.95	376.64
717.28	374.57
717.61	372.38
717.94	370.52
718.28	366.86
718.61	365.19
718.94	363.05
719.27	361.29
719.61	359.83
719.94	357.38
720.27	354.74
720.60	352.64
720.94	350.83
721.27	349.26
721.60	348.14
721.93	346.29
722.27	344.98
722.60	343.55
722.93	341.62
723.26	340.19
723.59	337.98
723.93	336.52
724.26	334.93
724.59	333.69
724.92	332.40
725.25	331.98
725.59	330.50
725.92	329.48
726.25	327.98
726.58	326.98
726.91	326.10
727.24	324.67
727.57	323.40
727.91	321.95
728.24	320.36
728.57	318.86
728.90	317.81
729.23	315.81
729.56	315.45
729.89	314.07
730.22	312.71
730.55	311.69
730.89	310.95
731.22	309.95
731.55	308.79
731.88	307.64
732.21	306.14
732.54	305.02
732.87	303.95
733.20	303.14
733.53	301.74
733.86	300.52
734.19	299.24
734.52	298.74
734.85	299.12
735.18	298.02
735.51	297.45
735.84	296.57
736.17	296.45
736.50	294.48
736.83	296.10
737.16	295.57
737.49	294.88
737.82	293.79
738.15	293.00
738.48	291.76
738.81	290.86
739.14	289.62
739.47	288.76
739.80	287.67
740.13	287.00
740.46	286.14
740.79	285.05
741.12	284.45
741.45	283.02
741.78	280.93
742.11	280.79
742.44	279.26
742.77	278.76
743.10	277.52
743.43	276.93
743.75	274.00
744.08	275.67
744.41	274.71
744.74	273.79
745.07	272.69
745.40	272.57
745.73	272.50
746.06	271.83
746.39	271.48
746.71	270.60
747.04	269.31
747.37	268.40
747.70	268.24
748.03	267.57
748.36	267.26
748.68	266.52
749.01	265.40
749.34	264.88
749.67	264.02
750.00	263.90
750.33	264.81
750.65	264.79
750.98	261.60
751.31	260.93
751.64	260.67
751.97	261.43
752.29	260.76
752.62	259.26
752.95	258.69
753.28	257.69
753.60	257.19
753.93	257.40
754.26	257.07
754.59	255.95
754.91	255.36
755.24	254.60
755.57	254.10
755.90	253.29
756.22	253.10
756.55	252.57
756.88	251.40
757.20	249.48
757.53	247.93
757.86	247.43
758.19	247.05
758.51	246.31
758.84	244.71
759.17	244.19
759.49	243.95
759.82	244.40
760.15	244.21
760.47	243.88
760.80	242.90
761.13	242.81
761.45	242.45
761.78	242.12
762.11	241.93
762.43	241.60
762.76	241.26
763.08	241.02
763.41	240.81
763.74	240.71
764.06	240.50
764.39	240.31
764.71	240.05
765.04	239.57
765.37	239.19
765.69	238.95
766.02	238.43
766.34	237.90
766.67	237.12
767.00	237.24
767.32	238.19
767.65	239.21
767.97	238.69
768.30	238.45
768.62	238.14
768.95	237.62
769.27	237.38
769.60	237.55
769.92	236.83
770.25	236.10
770.57	235.43
770.90	234.86
771.22	234.19
771.55	233.98
771.87	233.90
772.20	233.36
772.52	234.86
772.85	237.02
773.17	237.12
773.50	236.83
773.82	236.19
774.15	234.48
774.47	232.95
774.80	232.43
775.12	232.21
775.45	232.10
775.77	232.17
776.09	232.10
776.42	231.83
776.74	232.33
777.07	232.07
777.39	231.93
777.72	231.74
778.04	232.12
778.36	231.64
778.69	231.62
779.01	231.81
779.33	229.76
779.66	227.29
779.98	226.69
780.31	226.26
780.63	227.00
780.95	227.48
781.28	227.29
781.60	227.33
781.92	227.33
782.25	226.81
782.57	226.19
782.89	225.62
783.22	225.36
783.54	224.81
783.86	224.98
784.19	225.00
784.51	225.33
784.83	224.90
