SpectraSuite Data File
++++++++++++++++++++++++++++++++++++
Date: Tue Apr 02 18:42:23 EDT 2013
User: group
Dark Spectrum Present: No
Reference Spectrum Present: No
Number of Sampled Component Spectra: 1
Spectrometers: USB2E7196
Integration Time (usec): 580000 (USB2E7196)
Spectra Averaged: 2 (USB2E7196)
Boxcar Smoothing: 10 (USB2E7196)
Correct for Electrical Dark: No (USB2E7196)
Strobe/Lamp Enabled: No (USB2E7196)
Correct for Detector Non-linearity: No (USB2E7196)
Correct for Stray Light: No (USB2E7196)
Number of Pixels in Processed Spectrum: 2048
>>>>>Begin Processed Spectral Data<<<<<
339.09	0.00
339.48	200.50
339.86	192.50
340.24	198.50
340.63	196.00
341.01	231.50
341.39	204.00
341.78	207.00
342.16	212.50
342.54	203.50
342.93	198.26
343.31	208.10
343.69	208.17
344.07	208.76
344.46	209.40
344.84	210.33
345.22	209.17
345.60	209.38
345.99	209.50
346.37	209.45
346.75	209.71
347.13	209.88
347.52	209.86
347.90	210.64
348.28	210.62
348.66	210.93
349.05	210.17
349.43	210.33
349.81	210.24
350.19	210.26
350.57	210.43
350.96	210.79
351.34	211.05
351.72	211.31
352.10	211.36
352.48	211.05
352.87	210.62
353.25	210.62
353.63	210.50
354.01	210.33
354.39	210.33
354.77	210.29
355.15	210.88
355.54	210.83
355.92	210.10
356.30	210.14
356.68	211.55
357.06	211.76
357.44	211.33
357.82	211.69
358.20	212.48
358.58	212.12
358.97	212.10
359.35	212.48
359.73	212.93
360.11	213.07
360.49	213.29
360.87	213.36
361.25	213.76
361.63	214.64
362.01	215.05
362.39	215.00
362.77	215.31
363.15	215.00
363.53	214.90
363.91	215.07
364.29	215.14
364.67	213.38
365.05	213.48
365.43	213.86
365.81	213.98
366.19	214.17
366.57	215.19
366.95	215.21
367.33	214.45
367.71	214.40
368.09	214.86
368.47	215.00
368.85	214.95
369.23	215.33
369.61	214.48
369.99	215.07
370.37	215.50
370.75	216.43
371.13	216.02
371.51	215.79
371.89	215.93
372.27	215.90
372.65	216.21
373.03	216.31
373.41	216.12
373.78	216.29
374.16	215.26
374.54	214.40
374.92	213.93
375.30	214.19
375.68	213.74
376.06	213.67
376.44	213.40
376.82	213.67
377.19	213.45
377.57	213.55
377.95	212.64
378.33	212.21
378.71	210.88
379.09	211.45
379.47	212.00
379.84	211.88
380.22	211.88
380.60	211.40
380.98	211.50
381.36	211.57
381.73	211.19
382.11	211.86
382.49	212.40
382.87	212.50
383.25	212.67
383.62	215.17
384.00	214.98
384.38	215.14
384.76	215.64
385.13	216.48
385.51	216.60
385.89	216.50
386.27	216.71
386.64	216.90
387.02	216.43
387.40	216.07
387.78	216.21
388.15	216.40
388.53	216.45
388.91	216.14
389.29	216.00
389.66	216.33
390.04	215.86
390.42	215.95
390.79	216.17
391.17	216.17
391.55	214.10
391.92	213.88
392.30	214.36
392.68	214.00
393.05	213.81
393.43	213.86
393.81	214.24
394.18	213.83
394.56	214.00
394.94	214.67
395.31	214.62
395.69	215.24
396.06	215.48
396.44	215.50
396.82	215.19
397.19	216.26
397.57	216.21
397.95	216.48
398.32	215.79
398.70	216.02
399.07	216.21
399.45	216.05
399.82	216.14
400.20	215.62
400.58	215.62
400.95	214.81
401.33	215.19
401.70	216.57
402.08	216.88
402.45	216.93
402.83	217.38
403.20	217.60
403.58	217.55
403.95	217.95
404.33	218.52
404.71	219.05
405.08	220.31
405.46	220.52
405.83	220.98
406.21	221.52
406.58	221.67
406.96	222.07
407.33	222.86
407.70	223.60
408.08	225.90
408.45	226.52
408.83	227.52
409.20	227.86
409.58	227.50
409.95	228.45
410.33	229.43
410.70	229.48
411.08	231.12
411.45	232.12
411.82	232.88
412.20	234.40
412.57	236.88
412.95	236.62
413.32	238.33
413.69	239.79
414.07	241.45
414.44	243.50
414.82	245.55
415.19	247.62
415.56	249.79
415.94	250.93
416.31	254.10
416.68	257.05
417.06	260.57
417.43	263.93
417.81	267.60
418.18	271.36
418.55	274.95
418.93	278.45
419.30	282.50
419.67	287.12
420.04	291.60
420.42	295.69
420.79	302.57
421.16	308.33
421.54	314.98
421.91	321.12
422.28	327.38
422.66	333.90
423.03	341.90
423.40	348.93
423.77	356.33
424.15	363.43
424.52	371.00
424.89	379.60
425.26	387.50
425.64	395.00
426.01	403.19
426.38	412.29
426.75	422.29
427.13	431.55
427.50	441.10
427.87	450.86
428.24	461.10
428.61	469.55
428.99	481.00
429.36	491.98
429.73	503.26
430.10	514.69
430.47	526.69
430.85	537.19
431.22	550.10
431.59	565.57
431.96	578.60
432.33	592.90
432.70	606.52
433.08	623.14
433.45	638.29
433.82	654.14
434.19	671.93
434.56	688.45
434.93	704.21
435.30	720.26
435.68	738.05
436.05	755.24
436.42	772.48
436.79	788.33
437.16	805.60
437.53	824.26
437.90	842.52
438.27	860.55
438.64	878.81
439.01	895.83
439.38	908.79
439.75	923.55
440.13	940.60
440.50	956.88
440.87	969.02
441.24	982.74
441.61	996.88
441.98	1007.93
442.35	1020.31
442.72	1033.55
443.09	1046.50
443.46	1053.90
443.83	1059.67
444.20	1064.83
444.57	1070.55
444.94	1073.19
445.31	1076.95
445.68	1082.62
446.05	1083.81
446.42	1082.62
446.79	1081.21
447.16	1080.02
447.53	1079.40
447.90	1073.50
448.27	1066.52
448.64	1058.17
449.01	1052.50
449.37	1041.71
449.74	1030.31
450.11	1018.83
450.48	1003.45
450.85	988.33
451.22	976.07
451.59	963.29
451.96	951.12
452.33	935.26
452.70	921.33
453.07	903.71
453.43	883.93
453.80	867.67
454.17	852.24
454.54	837.07
454.91	820.19
455.28	802.90
455.65	786.90
456.02	775.43
456.38	763.02
456.75	747.07
457.12	733.17
457.49	719.71
457.86	704.93
458.23	695.45
458.59	683.62
458.96	671.55
459.33	661.64
459.70	651.10
460.07	643.38
460.43	633.60
460.80	625.00
461.17	617.29
461.54	608.55
461.91	600.40
462.27	591.67
462.64	584.62
463.01	577.62
463.38	571.45
463.74	560.40
464.11	553.26
464.48	547.76
464.85	541.50
465.21	537.38
465.58	532.36
465.95	525.60
466.32	520.33
466.68	515.29
467.05	509.60
467.42	504.36
467.78	498.67
468.15	493.71
468.52	489.71
468.88	483.95
469.25	478.93
469.62	475.33
469.98	471.98
470.35	468.40
470.72	464.52
471.08	459.83
471.45	457.43
471.82	454.74
472.18	450.55
472.55	448.40
472.92	444.62
473.28	441.86
473.65	438.95
474.02	436.10
474.38	433.98
474.75	432.29
475.11	430.33
475.48	428.55
475.85	427.02
476.21	424.98
476.58	424.17
476.94	423.19
477.31	421.33
477.67	420.07
478.04	418.95
478.41	418.48
478.77	420.05
479.14	418.60
479.50	418.00
479.87	417.90
480.23	417.62
480.60	417.24
480.96	417.05
481.33	417.95
481.69	418.17
482.06	417.95
482.42	418.29
482.79	418.90
483.15	418.90
483.52	419.83
483.88	420.17
484.25	420.50
484.61	421.93
484.98	422.98
485.34	424.36
485.71	425.79
486.07	427.10
486.44	426.12
486.80	427.64
487.17	429.02
487.53	431.12
487.90	433.21
488.26	436.52
488.62	439.36
488.99	441.00
489.35	443.43
489.72	445.76
490.08	448.48
490.44	450.83
490.81	454.55
491.17	457.48
491.54	461.52
491.90	465.29
492.26	468.40
492.63	471.98
492.99	475.67
493.36	479.76
493.72	484.36
494.08	489.33
494.45	494.29
494.81	499.31
495.17	503.86
495.54	509.07
495.90	513.36
496.26	518.07
496.63	524.17
496.99	530.36
497.35	536.95
497.72	542.90
498.08	548.98
498.44	554.86
498.80	561.31
499.17	567.19
499.53	572.93
499.89	580.21
500.26	587.24
500.62	593.90
500.98	601.55
501.34	607.95
501.71	615.21
502.07	622.31
502.43	629.43
502.79	636.57
503.16	643.86
503.52	651.14
503.88	658.57
504.24	666.00
504.60	672.95
504.97	680.83
505.33	688.29
505.69	696.45
506.05	703.93
506.41	711.24
506.78	718.79
507.14	726.55
507.50	733.57
507.86	741.43
508.22	749.55
508.59	756.33
508.95	764.19
509.31	772.74
509.67	780.62
510.03	788.50
510.39	796.19
510.75	803.43
511.12	811.07
511.48	818.81
511.84	826.29
512.20	834.12
512.56	841.00
512.92	848.62
513.28	856.38
513.64	864.55
514.00	872.64
514.37	879.83
514.73	887.31
515.09	895.40
515.45	902.67
515.81	909.07
516.17	916.43
516.53	923.67
516.89	929.02
517.25	935.69
517.61	942.86
517.97	949.52
518.33	956.81
518.69	963.90
519.05	970.69
519.41	976.90
519.77	984.14
520.13	990.17
520.49	996.19
520.85	1001.55
521.21	1008.29
521.57	1014.07
521.93	1019.81
522.29	1026.00
522.65	1031.29
523.01	1036.81
523.37	1042.21
523.73	1047.24
524.09	1052.57
524.45	1058.57
524.81	1063.64
525.17	1068.00
525.53	1073.29
525.89	1077.43
526.25	1082.64
526.61	1086.52
526.97	1091.43
527.33	1095.26
527.68	1101.86
528.04	1105.52
528.40	1110.55
528.76	1113.81
529.12	1117.90
529.48	1122.67
529.84	1126.57
530.20	1131.67
530.56	1136.02
530.91	1140.76
531.27	1145.55
531.63	1149.86
531.99	1153.60
532.35	1158.21
532.71	1161.62
533.07	1165.86
533.42	1172.57
533.78	1176.33
534.14	1181.14
534.50	1184.43
534.86	1189.31
535.21	1192.05
535.57	1197.29
535.93	1201.07
536.29	1206.38
536.65	1210.79
537.00	1215.10
537.36	1218.69
537.72	1221.33
538.08	1224.55
538.44	1227.40
538.79	1231.43
539.15	1234.38
539.51	1238.00
539.87	1241.31
540.22	1245.55
540.58	1249.19
540.94	1249.81
541.29	1252.86
541.65	1255.10
542.01	1259.02
542.37	1261.64
542.72	1263.26
543.08	1265.29
543.44	1268.26
543.79	1268.57
544.15	1271.07
544.51	1274.60
544.87	1278.17
545.22	1281.55
545.58	1285.55
545.94	1288.57
546.29	1290.19
546.65	1293.00
547.01	1295.36
547.36	1298.31
547.72	1300.55
548.07	1303.12
548.43	1306.38
548.79	1308.02
549.14	1311.67
549.50	1314.43
549.86	1316.45
550.21	1320.24
550.57	1323.50
550.92	1325.88
551.28	1330.31
551.64	1333.14
551.99	1334.74
552.35	1337.69
552.70	1340.57
553.06	1343.10
553.41	1347.26
553.77	1352.38
554.13	1356.50
554.48	1360.60
554.84	1365.00
555.19	1369.36
555.55	1374.57
555.90	1378.55
556.26	1382.62
556.61	1385.90
556.97	1388.95
557.32	1392.43
557.68	1396.50
558.03	1400.67
558.39	1405.10
558.74	1408.55
559.10	1412.86
559.45	1417.57
559.81	1421.36
560.16	1424.52
560.52	1428.60
560.87	1431.86
561.23	1435.05
561.58	1440.40
561.94	1444.48
562.29	1447.40
562.64	1451.81
563.00	1455.29
563.35	1459.55
563.71	1464.95
564.06	1469.64
564.42	1474.69
564.77	1481.52
565.12	1487.67
565.48	1494.74
565.83	1500.55
566.19	1506.67
566.54	1511.74
566.89	1516.60
567.25	1522.50
567.60	1530.60
567.96	1537.98
568.31	1545.43
568.66	1551.98
569.02	1556.14
569.37	1561.55
569.72	1568.02
570.08	1572.90
570.43	1577.71
570.78	1583.19
571.14	1588.90
571.49	1594.45
571.84	1600.67
572.20	1605.12
572.55	1609.36
572.90	1611.88
573.26	1616.14
573.61	1620.74
573.96	1625.86
574.31	1630.95
574.67	1635.10
575.02	1637.86
575.37	1640.12
575.72	1642.19
576.08	1645.40
576.43	1648.90
576.78	1652.24
577.13	1656.48
577.49	1660.19
577.84	1664.67
578.19	1668.60
578.54	1672.24
578.90	1675.95
579.25	1678.69
579.60	1681.10
579.95	1683.02
580.30	1687.00
580.66	1690.50
581.01	1692.88
581.36	1695.12
581.71	1698.12
582.06	1702.79
582.42	1705.93
582.77	1708.43
583.12	1712.17
583.47	1715.10
583.82	1718.45
584.17	1722.00
584.53	1724.93
584.88	1728.43
585.23	1730.83
585.58	1733.07
585.93	1735.31
586.28	1738.57
586.63	1741.74
586.98	1745.10
587.34	1749.26
587.69	1751.14
588.04	1752.95
588.39	1755.86
588.74	1757.60
589.09	1759.69
589.44	1760.33
589.79	1761.17
590.14	1764.02
590.49	1764.38
590.84	1765.64
591.19	1767.33
591.54	1768.52
591.89	1768.69
592.25	1771.71
592.60	1772.36
592.95	1773.55
593.30	1774.62
593.65	1774.43
594.00	1774.55
594.35	1781.02
594.70	1779.86
595.05	1780.71
595.40	1781.74
595.75	1782.24
596.10	1783.48
596.45	1784.21
596.80	1784.52
597.15	1786.07
597.50	1784.98
597.85	1787.19
598.19	1787.71
598.54	1787.74
598.89	1788.00
599.24	1788.69
599.59	1787.62
599.94	1787.98
600.29	1788.00
600.64	1787.21
600.99	1787.55
601.34	1787.86
601.69	1781.36
602.04	1781.00
602.39	1781.38
602.74	1780.60
603.08	1779.60
603.43	1780.74
603.78	1779.79
604.13	1779.38
604.48	1778.14
604.83	1779.48
605.18	1779.26
605.53	1778.31
605.87	1776.95
606.22	1775.50
606.57	1772.55
606.92	1770.29
607.27	1770.05
607.62	1769.55
607.96	1769.67
608.31	1768.93
608.66	1766.74
609.01	1764.38
609.36	1764.07
609.70	1761.21
610.05	1759.12
610.40	1758.10
610.75	1753.90
611.10	1752.07
611.44	1749.24
611.79	1746.14
612.14	1742.64
612.49	1738.17
612.83	1734.40
613.18	1732.05
613.53	1727.76
613.88	1725.57
614.22	1722.86
614.57	1717.52
614.92	1712.83
615.27	1708.02
615.61	1702.86
615.96	1699.81
616.31	1696.21
616.65	1693.31
617.00	1689.95
617.35	1686.38
617.70	1681.33
618.04	1678.00
618.39	1673.00
618.74	1669.48
619.08	1666.10
619.43	1661.71
619.78	1657.88
620.12	1654.40
620.47	1649.98
620.82	1645.81
621.16	1640.93
621.51	1636.14
621.85	1631.98
622.20	1627.21
622.55	1622.76
622.89	1619.50
623.24	1615.67
623.59	1611.93
623.93	1606.88
624.28	1602.83
624.62	1600.60
624.97	1597.90
625.32	1593.76
625.66	1589.98
626.01	1585.33
626.35	1580.98
626.70	1576.55
627.04	1573.62
627.39	1569.38
627.73	1565.26
628.08	1562.74
628.43	1558.74
628.77	1554.38
629.12	1551.14
629.46	1547.93
629.81	1543.60
630.15	1538.74
630.50	1532.74
630.84	1528.21
631.19	1522.57
631.53	1517.48
631.88	1509.52
632.22	1502.26
632.57	1496.76
632.91	1490.79
633.26	1486.10
633.60	1481.24
633.95	1475.98
634.29	1469.93
634.64	1465.33
634.98	1459.55
635.32	1454.86
635.67	1451.19
636.01	1446.40
636.36	1439.71
636.70	1435.12
637.05	1430.12
637.39	1425.43
637.73	1421.02
638.08	1415.88
638.42	1411.29
638.77	1406.14
639.11	1401.62
639.45	1397.02
639.80	1392.21
640.14	1387.45
640.49	1381.95
640.83	1376.10
641.17	1370.67
641.52	1364.19
641.86	1358.48
642.20	1354.17
642.55	1347.76
642.89	1340.76
643.23	1334.76
643.58	1330.36
643.92	1323.05
644.26	1316.60
644.61	1310.31
644.95	1303.88
645.29	1297.62
645.64	1292.05
645.98	1285.12
646.32	1279.38
646.66	1272.95
647.01	1266.10
647.35	1260.60
647.69	1253.98
648.04	1248.36
648.38	1242.48
648.72	1236.74
649.06	1229.62
649.41	1222.38
649.75	1215.57
650.09	1209.05
650.43	1202.17
650.78	1194.76
651.12	1188.26
651.46	1181.88
651.80	1175.43
652.14	1168.71
652.49	1163.26
652.83	1156.17
653.17	1149.48
653.51	1142.50
653.85	1136.00
654.20	1129.50
654.54	1121.67
654.88	1114.67
655.22	1108.67
655.56	1101.71
655.90	1095.21
656.25	1088.79
656.59	1082.74
656.93	1076.45
657.27	1070.98
657.61	1064.21
657.95	1058.88
658.29	1052.36
658.64	1046.55
658.98	1039.21
659.32	1032.21
659.66	1025.21
660.00	1019.02
660.34	1012.95
660.68	1006.36
661.02	1000.62
661.36	993.88
661.70	988.90
662.05	982.88
662.39	976.19
662.73	970.69
663.07	965.69
663.41	959.93
663.75	953.31
664.09	947.24
664.43	940.33
664.77	934.71
665.11	927.67
665.45	922.12
665.79	916.36
666.13	910.52
666.47	905.76
666.81	899.86
667.15	893.12
667.49	887.57
667.83	883.36
668.17	877.31
668.51	872.10
668.85	866.48
669.19	862.00
669.53	855.50
669.87	849.38
670.21	842.48
670.55	836.14
670.89	831.12
671.23	826.14
671.57	820.48
671.91	815.33
672.25	810.76
672.58	806.26
672.92	800.62
673.26	795.88
673.60	791.00
673.94	785.69
674.28	781.05
674.62	776.60
674.96	770.43
675.30	766.10
675.64	761.12
675.97	755.76
676.31	749.62
676.65	745.00
676.99	741.17
677.33	736.86
677.67	733.64
678.01	728.33
678.34	723.57
678.68	719.55
679.02	714.19
679.36	708.79
679.70	703.24
680.04	698.55
680.37	693.81
680.71	688.76
681.05	684.21
681.39	679.86
681.73	675.05
682.06	670.86
682.40	665.98
682.74	661.81
683.08	657.71
683.42	653.14
683.75	648.88
684.09	643.71
684.43	638.64
684.77	633.14
685.10	629.67
685.44	625.12
685.78	620.52
686.12	616.43
686.45	611.86
686.79	607.36
687.13	603.29
687.46	598.98
687.80	595.12
688.14	590.57
688.48	586.45
688.81	582.40
689.15	578.50
689.49	574.26
689.82	570.64
690.16	565.62
690.50	561.67
690.83	557.38
691.17	553.02
691.51	549.21
691.84	545.62
692.18	540.90
692.52	536.88
692.85	533.60
693.19	531.00
693.52	527.57
693.86	524.02
694.20	520.29
694.53	516.88
694.87	513.21
695.21	509.43
695.54	505.98
695.88	502.14
696.21	497.98
696.55	494.64
696.88	490.93
697.22	488.05
697.56	485.38
697.89	481.71
698.23	478.81
698.56	475.26
698.90	471.81
699.23	468.40
699.57	465.12
699.90	461.64
700.24	457.95
700.58	454.88
700.91	452.24
701.25	450.83
701.58	448.64
701.92	446.07
702.25	443.74
702.59	440.60
702.92	437.74
703.26	435.12
703.59	432.14
703.93	431.07
704.26	428.50
704.60	425.83
704.93	423.57
705.26	420.90
705.60	419.40
705.93	416.83
706.27	414.79
706.60	412.74
706.94	410.81
707.27	408.10
707.61	406.02
707.94	403.62
708.27	399.90
708.61	396.52
708.94	393.95
709.28	391.57
709.61	389.50
709.94	387.86
710.28	385.69
710.61	383.93
710.95	379.86
711.28	378.88
711.61	376.50
711.95	374.83
712.28	372.40
712.61	369.74
712.95	368.95
713.28	367.95
713.61	365.64
713.95	363.31
714.28	361.79
714.61	359.95
714.95	357.74
715.28	355.48
715.61	353.88
715.95	352.17
716.28	350.26
716.61	348.60
716.95	346.36
717.28	344.81
717.61	343.00
717.94	341.48
718.28	338.79
718.61	337.50
718.94	335.45
719.27	334.31
719.61	333.05
719.94	330.98
720.27	328.40
720.60	327.10
720.94	325.52
721.27	323.95
721.60	322.83
721.93	321.33
722.27	320.79
722.60	319.79
722.93	318.02
723.26	317.07
723.59	315.67
723.93	314.86
724.26	313.17
724.59	311.83
724.92	310.86
725.25	310.12
725.59	308.74
725.92	307.95
726.25	306.67
726.58	305.76
726.91	304.43
727.24	303.40
727.57	302.31
727.91	301.21
728.24	300.40
728.57	298.90
728.90	298.43
729.23	296.64
729.56	296.24
729.89	295.14
730.22	293.90
730.55	292.93
730.89	291.71
731.22	291.43
731.55	290.57
731.88	289.98
732.21	288.69
732.54	287.95
732.87	287.12
733.20	286.33
733.53	285.69
733.86	284.88
734.19	284.21
734.52	283.62
734.85	284.00
735.18	282.71
735.51	282.76
735.84	282.26
736.17	282.36
736.50	280.88
736.83	282.79
737.16	282.12
737.49	281.60
737.82	280.55
738.15	279.67
738.48	278.60
738.81	277.24
739.14	276.38
739.47	275.40
739.80	274.64
740.13	274.02
740.46	272.67
740.79	271.43
741.12	270.67
741.45	269.76
741.78	268.17
742.11	268.29
742.44	267.00
742.77	266.60
743.10	265.57
743.43	264.67
743.75	261.79
744.08	263.76
744.41	262.90
744.74	262.33
745.07	261.31
745.40	261.43
745.73	261.98
746.06	261.43
746.39	261.14
746.71	260.55
747.04	259.64
747.37	259.31
747.70	259.48
748.03	259.07
748.36	258.88
748.68	258.21
749.01	257.05
749.34	256.50
749.67	255.71
750.00	255.45
750.33	256.86
750.65	256.52
750.98	253.31
751.31	253.00
751.64	252.79
751.97	253.74
752.29	252.90
752.62	251.36
752.95	250.88
753.28	250.43
753.60	249.93
753.93	250.29
754.26	249.88
754.59	249.02
754.91	248.31
755.24	247.71
755.57	247.29
755.90	247.07
756.22	246.57
756.55	245.95
756.88	244.90
757.20	242.93
757.53	242.12
757.86	241.90
758.19	241.60
758.51	241.00
758.84	239.60
759.17	239.10
759.49	238.74
759.82	239.38
760.15	238.98
760.47	238.64
760.80	238.00
761.13	237.81
761.45	237.19
761.78	236.98
762.11	236.69
762.43	236.33
762.76	235.69
763.08	235.79
763.41	235.67
763.74	235.74
764.06	235.50
764.39	235.19
764.71	235.10
765.04	234.60
765.37	234.33
765.69	234.21
766.02	234.02
766.34	233.83
766.67	232.67
767.00	232.76
767.32	233.60
767.65	234.36
767.97	234.00
768.30	234.07
768.62	233.67
768.95	233.31
769.27	233.21
769.60	233.52
769.92	232.79
770.25	232.24
770.57	231.67
770.90	231.29
771.22	231.26
771.55	230.95
771.87	230.81
772.20	230.71
772.52	231.88
772.85	234.10
773.17	233.81
773.50	233.93
773.82	233.52
774.15	232.40
774.47	230.98
774.80	230.67
775.12	230.62
775.45	230.45
775.77	230.45
776.09	230.52
776.42	230.33
776.74	230.90
777.07	230.43
777.39	230.38
777.72	230.02
778.04	230.00
778.36	229.64
778.69	229.60
779.01	229.45
779.33	227.64
779.66	225.48
779.98	225.40
780.31	225.10
780.63	225.69
780.95	225.88
781.28	225.67
781.60	225.55
781.92	225.36
782.25	225.40
782.57	225.43
782.89	224.90
783.22	224.48
783.54	223.90
783.86	224.21
784.19	224.14
784.51	224.74
784.83	224.24
785.16	224.29
