SpectraSuite Data File
++++++++++++++++++++++++++++++++++++
Date: Tue Apr 02 18:41:57 EDT 2013
User: group
Dark Spectrum Present: No
Reference Spectrum Present: No
Number of Sampled Component Spectra: 1
Spectrometers: USB2E7196
Integration Time (usec): 580000 (USB2E7196)
Spectra Averaged: 2 (USB2E7196)
Boxcar Smoothing: 10 (USB2E7196)
Correct for Electrical Dark: No (USB2E7196)
Strobe/Lamp Enabled: No (USB2E7196)
Correct for Detector Non-linearity: No (USB2E7196)
Correct for Stray Light: No (USB2E7196)
Number of Pixels in Processed Spectrum: 2048
>>>>>Begin Processed Spectral Data<<<<<
339.09	0.00
339.48	195.00
339.86	196.00
340.24	198.50
340.63	195.00
341.01	234.00
341.39	201.50
341.78	208.00
342.16	213.50
342.54	205.00
342.93	198.29
343.31	208.19
343.69	208.74
344.07	209.12
344.46	209.76
344.84	210.60
345.22	209.36
345.60	209.71
345.99	209.76
346.37	209.57
346.75	209.62
347.13	209.48
347.52	209.57
347.90	210.19
348.28	210.29
348.66	210.60
349.05	210.07
349.43	210.21
349.81	210.00
350.19	209.81
350.57	209.79
350.96	210.02
351.34	210.17
351.72	210.10
352.10	210.14
352.48	209.98
352.87	209.55
353.25	209.45
353.63	209.43
354.01	209.45
354.39	209.67
354.77	209.81
355.15	210.50
355.54	210.21
355.92	209.67
356.30	209.67
356.68	211.24
357.06	211.31
357.44	211.07
357.82	211.00
358.20	212.02
358.58	212.00
358.97	212.05
359.35	212.50
359.73	213.07
360.11	213.29
360.49	213.26
360.87	213.50
361.25	213.74
361.63	214.45
362.01	214.45
362.39	214.07
362.77	214.12
363.15	213.90
363.53	213.90
363.91	213.83
364.29	213.98
364.67	211.90
365.05	212.29
365.43	212.36
365.81	212.74
366.19	213.12
366.57	214.10
366.95	214.02
367.33	213.64
367.71	213.67
368.09	214.00
368.47	214.02
368.85	214.02
369.23	214.60
369.61	213.90
369.99	214.57
370.37	215.00
370.75	216.07
371.13	215.76
371.51	215.62
371.89	215.98
372.27	216.07
372.65	216.48
373.03	216.33
373.41	216.43
373.78	216.33
374.16	215.07
374.54	214.36
374.92	214.12
375.30	214.14
375.68	213.67
376.06	213.93
376.44	214.05
376.82	214.31
377.19	214.21
377.57	214.33
377.95	213.79
378.33	213.90
378.71	212.88
379.09	213.10
379.47	213.64
379.84	213.43
380.22	213.10
380.60	212.76
380.98	212.74
381.36	212.74
381.73	212.71
382.11	213.31
382.49	213.52
382.87	213.55
383.25	213.64
383.62	216.07
384.00	215.57
384.38	215.62
384.76	216.07
385.13	216.76
385.51	216.67
385.89	216.24
386.27	216.24
386.64	216.19
387.02	215.93
387.40	215.64
387.78	215.90
388.15	216.12
388.53	216.00
388.91	216.02
389.29	215.79
389.66	215.90
390.04	215.62
390.42	215.71
390.79	215.69
391.17	215.38
391.55	213.31
391.92	213.36
392.30	213.60
392.68	213.05
393.05	213.05
393.43	213.12
393.81	213.55
394.18	213.12
394.56	213.26
394.94	213.79
395.31	213.64
395.69	214.17
396.06	214.36
396.44	214.62
396.82	214.50
397.19	215.67
397.57	215.50
397.95	215.76
398.32	215.40
398.70	215.62
399.07	216.29
399.45	216.17
399.82	216.07
400.20	215.64
400.58	215.60
400.95	214.55
401.33	215.02
401.70	216.50
402.08	216.64
402.45	216.81
402.83	217.48
403.20	217.48
403.58	217.40
403.95	217.98
404.33	218.48
404.71	218.81
405.08	219.98
405.46	220.38
405.83	220.69
406.21	220.93
406.58	221.29
406.96	221.45
407.33	222.02
407.70	222.88
408.08	225.26
408.45	226.38
408.83	227.62
409.20	228.00
409.58	227.40
409.95	228.64
410.33	229.64
410.70	229.76
411.08	231.26
411.45	232.62
411.82	233.38
412.20	234.79
412.57	237.38
412.95	236.93
413.32	238.67
413.69	240.14
414.07	241.98
414.44	243.95
414.82	246.12
415.19	248.33
415.56	250.38
415.94	251.60
416.31	254.26
416.68	256.93
417.06	260.10
417.43	263.88
417.81	267.48
418.18	271.05
418.55	274.83
418.93	278.52
419.30	282.33
419.67	286.74
420.04	291.05
420.42	295.26
420.79	302.67
421.16	308.12
421.54	315.21
421.91	321.60
422.28	327.90
422.66	334.57
423.03	342.81
423.40	350.00
423.77	357.19
424.15	364.62
424.52	372.33
424.89	381.45
425.26	389.52
425.64	396.95
426.01	406.02
426.38	415.12
426.75	424.67
427.13	434.24
427.50	444.26
427.87	454.71
428.24	464.83
428.61	473.19
428.99	484.98
429.36	495.50
429.73	506.81
430.10	518.48
430.47	529.76
430.85	541.19
431.22	553.86
431.59	568.95
431.96	581.62
432.33	596.12
432.70	609.79
433.08	625.64
433.45	641.21
433.82	655.62
434.19	672.90
434.56	690.33
434.93	705.98
435.30	721.81
435.68	739.67
436.05	757.79
436.42	775.19
436.79	791.10
437.16	808.33
437.53	827.10
437.90	844.93
438.27	863.93
438.64	881.52
439.01	899.19
439.38	913.36
439.75	928.71
440.13	946.02
440.50	962.21
440.87	976.21
441.24	989.86
441.61	1005.33
441.98	1016.74
442.35	1028.86
442.72	1042.62
443.09	1057.05
443.46	1065.14
443.83	1070.52
444.20	1075.88
444.57	1081.90
444.94	1085.81
445.31	1089.00
445.68	1095.48
446.05	1096.48
446.42	1095.52
446.79	1094.00
447.16	1092.29
447.53	1091.00
447.90	1084.21
448.27	1077.33
448.64	1067.74
449.01	1060.93
449.37	1049.52
449.74	1038.19
450.11	1027.02
450.48	1011.81
450.85	994.81
451.22	982.14
451.59	969.48
451.96	957.45
452.33	941.76
452.70	926.95
453.07	909.26
453.43	888.76
453.80	872.02
454.17	855.62
454.54	839.76
454.91	822.81
455.28	806.69
455.65	791.38
456.02	779.90
456.38	766.74
456.75	751.64
457.12	737.98
457.49	724.81
457.86	709.95
458.23	699.83
458.59	688.14
458.96	674.81
459.33	663.57
459.70	652.79
460.07	644.26
460.43	634.40
460.80	625.81
461.17	618.71
461.54	610.12
461.91	601.69
462.27	593.43
462.64	586.71
463.01	578.90
463.38	572.31
463.74	561.40
464.11	554.81
464.48	548.93
464.85	542.67
465.21	537.88
465.58	533.05
465.95	526.31
466.32	521.67
466.68	516.81
467.05	511.86
467.42	506.67
467.78	501.36
468.15	496.50
468.52	493.05
468.88	486.81
469.25	481.88
469.62	478.95
469.98	475.19
470.35	471.36
470.72	468.00
471.08	463.38
471.45	460.48
471.82	458.00
472.18	454.10
472.55	451.90
472.92	448.43
473.28	445.60
473.65	442.69
474.02	439.38
474.38	437.45
474.75	436.05
475.11	433.50
475.48	431.64
475.85	429.74
476.21	427.60
476.58	426.48
476.94	425.76
477.31	424.33
477.67	423.33
478.04	421.95
478.41	420.95
478.77	422.48
479.14	421.12
479.50	420.24
479.87	420.24
480.23	419.86
480.60	419.55
480.96	419.14
481.33	419.98
481.69	420.26
482.06	420.40
482.42	420.12
482.79	420.71
483.15	421.38
483.52	422.29
483.88	422.36
484.25	423.02
484.61	423.74
484.98	424.21
485.34	425.64
485.71	427.12
486.07	428.43
486.44	428.02
486.80	429.45
487.17	430.98
487.53	433.19
487.90	435.36
488.26	438.19
488.62	440.95
488.99	442.69
489.35	445.26
489.72	447.76
490.08	450.19
490.44	453.00
490.81	455.86
491.17	459.10
491.54	463.24
491.90	466.98
492.26	470.79
492.63	474.60
492.99	477.98
493.36	482.52
493.72	487.05
494.08	491.38
494.45	496.19
494.81	501.31
495.17	505.67
495.54	511.02
495.90	515.67
496.26	520.36
496.63	525.71
496.99	531.50
497.35	537.45
497.72	544.02
498.08	549.83
498.44	556.21
498.80	562.36
499.17	568.12
499.53	574.14
499.89	581.12
500.26	588.31
500.62	594.79
500.98	601.71
501.34	608.67
501.71	616.07
502.07	623.45
502.43	630.86
502.79	637.81
503.16	644.64
503.52	652.45
503.88	659.60
504.24	667.45
504.60	674.76
504.97	682.93
505.33	690.29
505.69	699.12
506.05	706.67
506.41	714.69
506.78	722.10
507.14	730.50
507.50	738.02
507.86	746.07
508.22	754.33
508.59	761.60
508.95	769.36
509.31	778.02
509.67	785.67
510.03	792.79
510.39	801.21
510.75	808.95
511.12	816.21
511.48	824.26
511.84	831.95
512.20	840.00
512.56	847.02
512.92	854.93
513.28	861.90
513.64	869.40
514.00	876.83
514.37	884.83
514.73	892.19
515.09	900.10
515.45	906.64
515.81	913.76
516.17	921.33
516.53	928.38
516.89	934.67
517.25	941.69
517.61	949.14
517.97	955.64
518.33	961.90
518.69	968.52
519.05	975.48
519.41	981.21
519.77	988.81
520.13	995.45
520.49	1000.79
520.85	1006.45
521.21	1013.74
521.57	1019.76
521.93	1024.98
522.29	1030.98
522.65	1035.14
523.01	1041.60
523.37	1046.93
523.73	1051.93
524.09	1057.02
524.45	1061.57
524.81	1067.24
525.17	1072.07
525.53	1076.79
525.89	1082.24
526.25	1087.45
526.61	1091.45
526.97	1096.64
527.33	1100.55
527.68	1107.00
528.04	1112.36
528.40	1116.36
528.76	1119.64
529.12	1124.07
529.48	1129.93
529.84	1133.76
530.20	1139.52
530.56	1143.29
530.91	1147.71
531.27	1152.31
531.63	1157.17
531.99	1161.52
532.35	1165.26
532.71	1169.12
533.07	1174.33
533.42	1180.98
533.78	1185.33
534.14	1190.38
534.50	1194.64
534.86	1199.07
535.21	1201.05
535.57	1205.88
535.93	1210.69
536.29	1215.88
536.65	1220.21
537.00	1223.07
537.36	1227.02
537.72	1230.38
538.08	1234.17
538.44	1237.71
538.79	1241.93
539.15	1244.57
539.51	1248.40
539.87	1251.79
540.22	1255.52
540.58	1258.71
540.94	1259.93
541.29	1262.86
541.65	1264.98
542.01	1268.55
542.37	1270.79
542.72	1273.43
543.08	1275.69
543.44	1279.26
543.79	1280.19
544.15	1283.71
544.51	1287.52
544.87	1291.05
545.22	1293.45
545.58	1297.17
545.94	1300.19
546.29	1302.64
546.65	1305.21
547.01	1308.00
547.36	1311.50
547.72	1314.60
548.07	1317.57
548.43	1319.90
548.79	1322.64
549.14	1325.76
549.50	1329.19
549.86	1331.71
550.21	1334.67
550.57	1337.52
550.92	1339.88
551.28	1343.81
551.64	1345.86
551.99	1349.10
552.35	1352.10
552.70	1356.26
553.06	1359.14
553.41	1362.62
553.77	1367.31
554.13	1372.38
554.48	1376.93
554.84	1380.98
555.19	1385.38
555.55	1390.60
555.90	1394.86
556.26	1399.36
556.61	1402.90
556.97	1405.07
557.32	1409.43
557.68	1414.76
558.03	1419.52
558.39	1423.36
558.74	1427.88
559.10	1432.40
559.45	1436.12
559.81	1440.19
560.16	1444.62
560.52	1448.88
560.87	1454.29
561.23	1457.64
561.58	1463.93
561.94	1467.33
562.29	1471.31
562.64	1475.64
563.00	1478.55
563.35	1483.50
563.71	1487.95
564.06	1494.64
564.42	1500.90
564.77	1507.17
565.12	1512.67
565.48	1519.62
565.83	1526.55
566.19	1532.07
566.54	1537.95
566.89	1544.05
567.25	1550.81
567.60	1557.86
567.96	1565.55
568.31	1572.02
568.66	1579.10
569.02	1582.36
569.37	1588.33
569.72	1594.50
570.08	1599.67
570.43	1605.55
570.78	1611.71
571.14	1617.45
571.49	1621.98
571.84	1626.79
572.20	1631.14
572.55	1634.98
572.90	1637.38
573.26	1640.98
573.61	1645.38
573.96	1649.76
574.31	1654.19
574.67	1657.10
575.02	1659.05
575.37	1661.79
575.72	1664.33
576.08	1666.74
576.43	1670.76
576.78	1674.55
577.13	1678.17
577.49	1682.24
577.84	1686.52
578.19	1688.79
578.54	1692.81
578.90	1696.45
579.25	1699.79
579.60	1702.83
579.95	1705.90
580.30	1709.40
580.66	1712.57
581.01	1715.57
581.36	1717.76
581.71	1719.95
582.06	1724.26
582.42	1728.17
582.77	1729.74
583.12	1732.38
583.47	1735.62
583.82	1738.02
584.17	1740.93
584.53	1743.24
584.88	1744.69
585.23	1746.98
585.58	1749.64
585.93	1751.05
586.28	1752.86
586.63	1755.57
586.98	1757.83
587.34	1761.33
587.69	1763.38
588.04	1765.62
588.39	1767.50
588.74	1768.62
589.09	1770.81
589.44	1770.93
589.79	1772.24
590.14	1774.57
590.49	1775.05
590.84	1775.76
591.19	1777.79
591.54	1778.45
591.89	1779.29
592.25	1783.10
592.60	1783.12
592.95	1784.29
593.30	1785.48
593.65	1786.38
594.00	1785.71
594.35	1791.55
594.70	1790.45
595.05	1791.48
595.40	1791.60
595.75	1792.64
596.10	1794.21
596.45	1795.69
596.80	1796.67
597.15	1796.74
597.50	1797.05
597.85	1798.98
598.19	1798.67
598.54	1797.62
598.89	1797.57
599.24	1797.52
599.59	1796.00
599.94	1795.69
600.29	1794.76
600.64	1794.02
600.99	1793.86
601.34	1794.95
601.69	1789.43
602.04	1789.71
602.39	1788.60
602.74	1788.05
603.08	1786.86
603.43	1787.38
603.78	1784.81
604.13	1783.60
604.48	1782.26
604.83	1780.79
605.18	1778.95
605.53	1778.57
605.87	1777.17
606.22	1775.69
606.57	1774.19
606.92	1772.21
607.27	1771.52
607.62	1771.21
607.96	1770.40
608.31	1769.69
608.66	1767.36
609.01	1764.88
609.36	1762.45
609.70	1760.48
610.05	1757.62
610.40	1755.40
610.75	1751.40
611.10	1749.62
611.44	1747.38
611.79	1744.52
612.14	1741.38
612.49	1737.52
612.83	1733.48
613.18	1730.95
613.53	1727.62
613.88	1723.14
614.22	1718.93
614.57	1714.48
614.92	1709.71
615.27	1704.93
615.61	1698.93
615.96	1694.76
616.31	1690.26
616.65	1687.29
617.00	1682.67
617.35	1678.67
617.70	1674.52
618.04	1669.90
618.39	1665.10
618.74	1660.00
619.08	1656.14
619.43	1651.64
619.78	1647.93
620.12	1644.24
620.47	1640.05
620.82	1635.33
621.16	1631.33
621.51	1627.40
621.85	1622.57
622.20	1617.76
622.55	1612.55
622.89	1608.10
623.24	1603.79
623.59	1599.95
623.93	1594.81
624.28	1590.33
624.62	1588.95
624.97	1585.95
625.32	1581.98
625.66	1577.17
626.01	1572.88
626.35	1569.50
626.70	1565.19
627.04	1562.19
627.39	1558.31
627.73	1554.60
628.08	1551.40
628.43	1547.31
628.77	1542.45
629.12	1538.24
629.46	1534.71
629.81	1530.17
630.15	1526.45
630.50	1521.17
630.84	1515.86
631.19	1510.40
631.53	1506.33
631.88	1498.21
632.22	1490.79
632.57	1485.98
632.91	1480.60
633.26	1476.19
633.60	1469.29
633.95	1463.83
634.29	1456.88
634.64	1450.98
634.98	1444.69
635.32	1439.45
635.67	1434.98
636.01	1429.98
636.36	1424.24
636.70	1419.36
637.05	1414.88
637.39	1409.79
637.73	1405.40
638.08	1401.81
638.42	1397.10
638.77	1391.19
639.11	1386.17
639.45	1381.12
639.80	1374.74
640.14	1369.90
640.49	1363.62
640.83	1357.74
641.17	1352.50
641.52	1346.31
641.86	1341.26
642.20	1336.93
642.55	1329.71
642.89	1323.43
643.23	1316.95
643.58	1312.55
643.92	1305.29
644.26	1299.33
644.61	1292.98
644.95	1286.12
645.29	1279.14
645.64	1272.21
645.98	1266.55
646.32	1261.45
646.66	1254.57
647.01	1249.02
647.35	1243.17
647.69	1237.02
648.04	1232.24
648.38	1226.14
648.72	1220.76
649.06	1214.29
649.41	1206.81
649.75	1199.93
650.09	1192.95
650.43	1186.24
650.78	1178.24
651.12	1171.55
651.46	1164.88
651.80	1157.57
652.14	1151.76
652.49	1145.26
652.83	1139.43
653.17	1132.40
653.51	1124.31
653.85	1118.57
654.20	1111.57
654.54	1103.81
654.88	1096.40
655.22	1090.12
655.56	1082.93
655.90	1076.36
656.25	1069.10
656.59	1063.12
656.93	1057.79
657.27	1052.67
657.61	1046.40
657.95	1041.00
658.29	1035.14
658.64	1028.83
658.98	1022.71
659.32	1015.71
659.66	1008.90
660.00	1002.24
660.34	995.64
660.68	990.19
661.02	983.62
661.36	977.24
661.70	971.69
662.05	966.21
662.39	959.55
662.73	954.24
663.07	948.79
663.41	943.21
663.75	936.40
664.09	930.21
664.43	923.02
664.77	917.45
665.11	911.14
665.45	905.10
665.79	899.62
666.13	894.07
666.47	888.40
666.81	882.86
667.15	876.95
667.49	871.95
667.83	866.86
668.17	861.64
668.51	856.26
668.85	851.10
669.19	846.62
669.53	840.21
669.87	834.50
670.21	828.36
670.55	821.98
670.89	817.50
671.23	812.24
671.57	807.19
671.91	801.86
672.25	796.74
672.58	792.12
672.92	786.00
673.26	780.67
673.60	775.50
673.94	769.88
674.28	764.79
674.62	760.07
674.96	754.55
675.30	749.62
675.64	745.36
675.97	740.57
676.31	735.14
676.65	730.45
676.99	727.07
677.33	722.71
677.67	719.02
678.01	713.62
678.34	709.17
678.68	704.88
679.02	700.10
679.36	694.95
679.70	689.90
680.04	685.88
680.37	681.74
680.71	677.38
681.05	673.52
681.39	669.43
681.73	664.50
682.06	660.31
682.40	655.69
682.74	651.38
683.08	647.33
683.42	642.43
683.75	638.52
684.09	632.83
684.43	628.31
684.77	623.21
685.10	619.05
685.44	614.40
685.78	610.10
686.12	605.90
686.45	601.98
686.79	597.45
687.13	593.74
687.46	589.19
687.80	585.50
688.14	581.26
688.48	577.21
688.81	573.17
689.15	569.83
689.49	565.88
689.82	561.79
690.16	557.12
690.50	553.26
690.83	549.19
691.17	544.74
691.51	540.69
691.84	537.64
692.18	533.48
692.52	530.07
692.85	526.64
693.19	524.19
693.52	520.83
693.86	517.29
694.20	513.64
694.53	510.45
694.87	506.67
695.21	503.07
695.54	499.67
695.88	495.62
696.21	490.74
696.55	486.90
696.88	483.24
697.22	479.90
697.56	476.81
697.89	473.24
698.23	470.64
698.56	466.86
698.90	463.64
699.23	460.10
699.57	457.05
699.90	453.52
700.24	449.57
700.58	446.38
700.91	443.74
701.25	442.55
701.58	440.00
701.92	437.50
702.25	434.60
702.59	431.67
702.92	429.21
703.26	426.50
703.59	424.12
703.93	423.19
704.26	420.67
704.60	418.05
704.93	415.90
705.26	413.07
705.60	411.52
705.93	408.26
706.27	406.86
706.60	404.79
706.94	403.33
707.27	400.67
707.61	398.38
707.94	395.81
708.27	391.67
708.61	388.74
708.94	386.36
709.28	384.64
709.61	382.43
709.94	380.21
710.28	378.45
710.61	376.86
710.95	373.00
711.28	372.67
711.61	370.71
711.95	368.95
712.28	367.31
712.61	365.07
712.95	364.74
713.28	363.45
713.61	361.10
713.95	358.31
714.28	356.71
714.61	354.67
714.95	353.07
715.28	351.14
715.61	349.64
715.95	348.05
716.28	346.10
716.61	344.55
716.95	342.86
717.28	340.98
717.61	338.93
717.94	337.45
718.28	334.33
718.61	332.90
718.94	330.74
719.27	328.74
719.61	327.33
719.94	325.12
720.27	322.76
720.60	321.26
720.94	319.95
721.27	318.69
721.60	317.90
721.93	316.74
722.27	316.21
722.60	314.83
722.93	313.38
723.26	312.33
723.59	311.14
723.93	310.17
724.26	309.36
724.59	308.60
724.92	307.45
725.25	306.79
725.59	305.45
725.92	304.64
726.25	303.83
726.58	302.83
726.91	301.76
727.24	300.74
727.57	299.62
727.91	298.33
728.24	297.57
728.57	296.29
728.90	295.21
729.23	293.60
729.56	293.67
729.89	292.71
730.22	291.48
730.55	290.36
730.89	289.36
731.22	288.24
731.55	286.93
731.88	285.83
732.21	284.79
732.54	283.71
732.87	282.88
733.20	282.10
733.53	281.43
733.86	280.86
734.19	279.88
734.52	279.45
734.85	280.17
735.18	279.05
735.51	279.05
735.84	278.19
736.17	277.88
736.50	276.19
736.83	277.57
737.16	276.90
737.49	276.24
737.82	275.40
738.15	275.02
738.48	274.45
738.81	273.95
739.14	272.57
739.47	272.12
739.80	271.48
740.13	270.93
740.46	269.90
740.79	268.60
741.12	268.02
741.45	266.98
741.78	265.14
742.11	265.26
742.44	263.83
742.77	263.62
743.10	262.79
743.43	262.12
743.75	259.50
744.08	261.45
744.41	260.90
744.74	260.14
745.07	259.24
745.40	258.88
745.73	259.33
746.06	259.21
746.39	258.76
746.71	258.00
747.04	257.31
747.37	256.76
747.70	256.79
748.03	256.21
748.36	256.31
748.68	255.95
749.01	254.64
749.34	254.19
749.67	253.76
750.00	253.45
750.33	254.86
750.65	254.62
750.98	251.83
751.31	251.55
751.64	251.33
751.97	251.90
752.29	251.26
752.62	249.71
752.95	249.00
753.28	248.45
753.60	247.98
753.93	248.21
754.26	247.93
754.59	247.14
754.91	246.50
755.24	245.71
755.57	245.14
755.90	244.71
756.22	244.31
756.55	243.52
756.88	242.69
757.20	240.52
757.53	239.50
757.86	239.19
758.19	238.79
758.51	238.69
758.84	237.55
759.17	236.98
759.49	236.98
759.82	237.93
760.15	237.95
760.47	237.67
760.80	236.79
761.13	236.83
761.45	236.40
761.78	236.12
762.11	235.79
762.43	235.50
762.76	235.12
763.08	234.83
763.41	234.76
763.74	234.81
764.06	234.74
764.39	234.57
764.71	234.24
765.04	233.79
765.37	233.07
765.69	232.67
766.02	232.52
766.34	232.02
766.67	230.88
767.00	230.86
767.32	231.81
767.65	232.71
767.97	232.19
768.30	232.21
768.62	232.31
768.95	232.00
769.27	231.98
769.60	232.36
769.92	232.02
770.25	231.21
770.57	230.43
770.90	230.17
771.22	229.86
771.55	229.62
771.87	229.45
772.20	229.36
772.52	230.83
772.85	233.52
773.17	233.55
773.50	233.21
773.82	232.81
774.15	231.67
774.47	230.33
774.80	230.00
775.12	229.90
775.45	229.52
775.77	229.52
776.09	229.26
776.42	229.02
776.74	229.50
777.07	229.33
777.39	229.45
777.72	229.21
778.04	229.50
778.36	229.19
778.69	229.07
779.01	229.17
779.33	227.45
779.66	224.67
779.98	224.24
780.31	224.07
780.63	224.81
780.95	225.05
781.28	224.88
781.60	224.74
781.92	224.52
782.25	224.45
782.57	224.29
782.89	223.76
783.22	223.52
783.54	223.00
783.86	223.62
784.19	223.52
784.51	223.93
784.83	223.24
785.16	223.24
