SpectraSuite Data File
++++++++++++++++++++++++++++++++++++
Date: Tue Apr 02 18:43:03 EDT 2013
User: group
Dark Spectrum Present: No
Reference Spectrum Present: No
Number of Sampled Component Spectra: 1
Spectrometers: USB2E7196
Integration Time (usec): 580000 (USB2E7196)
Spectra Averaged: 2 (USB2E7196)
Boxcar Smoothing: 10 (USB2E7196)
Correct for Electrical Dark: No (USB2E7196)
Strobe/Lamp Enabled: No (USB2E7196)
Correct for Detector Non-linearity: No (USB2E7196)
Correct for Stray Light: No (USB2E7196)
Number of Pixels in Processed Spectrum: 2048
>>>>>Begin Processed Spectral Data<<<<<
339.09	0.00
339.48	190.00
339.86	193.00
340.24	193.00
340.63	200.50
341.01	233.50
341.39	201.00
341.78	205.00
342.16	214.50
342.54	205.50
342.93	197.43
343.31	207.38
343.69	208.29
344.07	208.83
344.46	209.64
344.84	210.19
345.22	208.95
345.60	209.43
345.99	209.71
346.37	209.71
346.75	209.79
347.13	209.88
347.52	210.05
347.90	210.83
348.28	211.05
348.66	211.64
349.05	210.98
349.43	211.05
349.81	211.31
350.19	211.40
350.57	211.64
350.96	211.95
351.34	212.21
351.72	212.31
352.10	212.38
352.48	212.48
352.87	212.21
353.25	212.31
353.63	212.12
354.01	212.05
354.39	211.81
354.77	212.00
355.15	212.60
355.54	212.60
355.92	211.83
356.30	211.88
356.68	213.05
357.06	213.31
357.44	213.07
357.82	213.26
358.20	214.33
358.58	214.26
358.97	214.24
359.35	214.48
359.73	214.83
360.11	215.07
360.49	214.95
360.87	215.12
361.25	215.24
361.63	215.88
362.01	216.12
362.39	216.24
362.77	216.55
363.15	216.67
363.53	216.55
363.91	216.62
364.29	216.33
364.67	214.45
365.05	214.52
365.43	214.86
365.81	214.86
366.19	215.07
366.57	215.98
366.95	215.88
367.33	215.33
367.71	215.19
368.09	215.55
368.47	215.74
368.85	215.90
369.23	216.33
369.61	215.69
369.99	216.38
370.37	216.55
370.75	217.12
371.13	216.64
371.51	216.48
371.89	216.69
372.27	216.88
372.65	217.12
373.03	217.00
373.41	216.83
373.78	216.88
374.16	215.60
374.54	214.81
374.92	214.83
375.30	214.98
375.68	214.62
376.06	214.67
376.44	214.24
376.82	214.24
377.19	214.02
377.57	214.14
377.95	213.45
378.33	213.29
378.71	212.12
379.09	212.45
379.47	212.69
379.84	212.62
380.22	212.57
380.60	212.19
380.98	212.31
381.36	212.19
381.73	211.83
382.11	212.45
382.49	212.52
382.87	212.17
383.25	212.19
383.62	214.52
384.00	214.05
384.38	214.57
384.76	215.05
385.13	215.83
385.51	215.88
385.89	215.74
386.27	215.98
386.64	216.29
387.02	216.05
387.40	215.83
387.78	215.98
388.15	215.90
388.53	215.86
388.91	215.88
389.29	215.86
389.66	215.90
390.04	215.57
390.42	215.93
390.79	215.98
391.17	215.74
391.55	213.57
391.92	213.76
392.30	213.81
392.68	213.38
393.05	213.38
393.43	213.38
393.81	213.38
394.18	212.93
394.56	213.36
394.94	213.93
395.31	213.88
395.69	214.45
396.06	214.88
396.44	215.05
396.82	214.83
397.19	216.07
397.57	216.19
397.95	216.38
398.32	215.69
398.70	215.93
399.07	216.67
399.45	216.64
399.82	216.38
400.20	216.10
400.58	215.90
400.95	215.17
401.33	215.57
401.70	217.00
402.08	217.26
402.45	217.12
402.83	217.60
403.20	217.90
403.58	217.69
403.95	218.07
404.33	218.52
404.71	218.98
405.08	219.88
405.46	220.00
405.83	220.50
406.21	220.93
406.58	221.38
406.96	221.62
407.33	222.36
407.70	223.21
408.08	225.62
408.45	226.67
408.83	227.71
409.20	228.12
409.58	227.57
409.95	228.57
410.33	229.36
410.70	229.40
411.08	230.67
411.45	231.52
411.82	232.36
412.20	234.12
412.57	236.52
412.95	236.10
413.32	237.88
413.69	238.90
414.07	240.86
414.44	242.71
414.82	244.45
415.19	246.74
415.56	248.81
415.94	249.90
416.31	252.50
416.68	255.07
417.06	258.36
417.43	262.12
417.81	265.74
418.18	269.57
418.55	273.40
418.93	277.33
419.30	281.60
419.67	285.98
420.04	290.02
420.42	294.33
420.79	301.69
421.16	307.02
421.54	314.43
421.91	320.26
422.28	326.50
422.66	333.26
423.03	340.90
423.40	347.76
423.77	354.74
424.15	361.98
424.52	369.76
424.89	378.38
425.26	385.62
425.64	393.45
426.01	401.57
426.38	410.60
426.75	420.29
427.13	429.60
427.50	439.31
427.87	449.71
428.24	459.45
428.61	467.71
428.99	479.57
429.36	489.98
429.73	501.55
430.10	512.95
430.47	524.71
430.85	535.64
431.22	548.50
431.59	563.60
431.96	576.17
432.33	590.36
432.70	603.79
433.08	619.98
433.45	635.24
433.82	650.31
434.19	667.14
434.56	683.55
434.93	699.31
435.30	715.40
435.68	732.57
436.05	750.21
436.42	767.02
436.79	782.71
437.16	799.86
437.53	817.29
437.90	835.40
438.27	852.86
438.64	871.14
439.01	888.05
439.38	901.55
439.75	916.52
440.13	933.24
440.50	949.21
440.87	962.21
441.24	975.00
441.61	990.14
441.98	1000.83
442.35	1013.05
442.72	1026.36
443.09	1039.60
443.46	1047.64
443.83	1052.19
444.20	1056.81
444.57	1062.86
444.94	1066.74
445.31	1070.26
445.68	1075.64
446.05	1077.38
446.42	1075.48
446.79	1074.62
447.16	1073.02
447.53	1072.00
447.90	1066.17
448.27	1060.00
448.64	1051.95
449.01	1046.31
449.37	1035.31
449.74	1024.79
450.11	1013.55
450.48	998.29
450.85	982.52
451.22	969.21
451.59	957.57
451.96	946.24
452.33	930.81
452.70	916.45
453.07	899.95
453.43	880.31
453.80	864.19
454.17	848.93
454.54	833.57
454.91	816.69
455.28	800.43
455.65	784.50
456.02	773.24
456.38	760.21
456.75	744.36
457.12	730.60
457.49	717.62
457.86	702.98
458.23	693.29
458.59	681.71
458.96	670.26
459.33	659.38
459.70	648.95
460.07	640.19
460.43	629.88
460.80	621.17
461.17	614.48
461.54	605.88
461.91	597.64
462.27	589.17
462.64	582.79
463.01	575.90
463.38	570.36
463.74	558.88
464.11	551.50
464.48	545.83
464.85	539.50
465.21	535.07
465.58	530.43
465.95	523.60
466.32	517.98
466.68	512.83
467.05	507.93
467.42	502.76
467.78	497.33
468.15	492.52
468.52	488.88
468.88	482.50
469.25	477.95
469.62	474.45
469.98	470.45
470.35	466.74
470.72	462.57
471.08	457.36
471.45	455.02
471.82	452.90
472.18	449.24
472.55	447.10
472.92	443.33
473.28	440.00
473.65	437.43
474.02	435.36
474.38	433.26
474.75	431.40
475.11	429.31
475.48	427.64
475.85	425.86
476.21	423.43
476.58	422.76
476.94	421.57
477.31	420.19
477.67	418.86
478.04	417.21
478.41	417.02
478.77	418.26
479.14	417.02
479.50	416.33
479.87	416.36
480.23	415.76
480.60	415.24
480.96	415.45
481.33	416.26
481.69	416.50
482.06	416.62
482.42	417.24
482.79	417.83
483.15	418.43
483.52	419.29
483.88	419.90
484.25	420.14
484.61	420.50
484.98	421.33
485.34	422.90
485.71	425.38
486.07	426.31
486.44	426.10
486.80	427.31
487.17	428.45
487.53	430.60
487.90	432.60
488.26	435.64
488.62	438.33
488.99	439.95
489.35	441.98
489.72	444.52
490.08	446.64
490.44	449.10
490.81	452.12
491.17	455.21
491.54	459.43
491.90	463.00
492.26	466.86
492.63	470.71
492.99	474.24
493.36	477.90
493.72	482.45
494.08	486.60
494.45	491.76
494.81	497.05
495.17	501.64
495.54	507.02
495.90	511.67
496.26	516.67
496.63	522.40
496.99	527.50
497.35	533.50
497.72	539.67
498.08	545.62
498.44	552.07
498.80	558.52
499.17	563.98
499.53	570.21
499.89	577.40
500.26	584.38
500.62	591.67
500.98	599.14
501.34	606.17
501.71	613.79
502.07	620.95
502.43	627.90
502.79	634.26
503.16	641.21
503.52	648.52
503.88	655.24
504.24	662.43
504.60	670.83
504.97	678.38
505.33	685.60
505.69	694.69
506.05	701.88
506.41	709.36
506.78	716.88
507.14	724.52
507.50	731.93
507.86	739.76
508.22	747.86
508.59	754.74
508.95	762.55
509.31	770.86
509.67	778.33
510.03	785.98
510.39	794.64
510.75	802.79
511.12	810.62
511.48	818.36
511.84	826.02
512.20	833.43
512.56	841.36
512.92	849.57
513.28	856.38
513.64	863.79
514.00	871.24
514.37	879.12
514.73	886.79
515.09	894.36
515.45	900.98
515.81	907.52
516.17	913.74
516.53	919.69
516.89	925.17
517.25	931.71
517.61	938.93
517.97	945.26
518.33	951.62
518.69	957.93
519.05	964.95
519.41	971.83
519.77	979.26
520.13	984.86
520.49	989.48
520.85	995.17
521.21	1001.64
521.57	1007.67
521.93	1012.69
522.29	1018.26
522.65	1022.57
523.01	1028.52
523.37	1033.71
523.73	1039.90
524.09	1045.24
524.45	1050.21
524.81	1055.00
525.17	1060.02
525.53	1064.76
525.89	1069.64
526.25	1075.19
526.61	1078.81
526.97	1082.69
527.33	1085.95
527.68	1092.10
528.04	1097.24
528.40	1101.21
528.76	1105.62
529.12	1110.12
529.48	1115.24
529.84	1119.86
530.20	1125.14
530.56	1129.07
530.91	1133.21
531.27	1137.17
531.63	1141.83
531.99	1146.21
532.35	1150.45
532.71	1154.21
533.07	1158.76
533.42	1164.90
533.78	1167.86
534.14	1172.60
534.50	1176.64
534.86	1181.60
535.21	1184.21
535.57	1189.19
535.93	1193.12
536.29	1197.88
536.65	1201.62
537.00	1204.02
537.36	1207.74
537.72	1210.43
538.08	1214.62
538.44	1218.07
538.79	1222.40
539.15	1225.79
539.51	1229.43
539.87	1232.71
540.22	1235.90
540.58	1239.10
540.94	1240.21
541.29	1244.45
541.65	1246.86
542.01	1249.79
542.37	1252.17
542.72	1254.10
543.08	1255.69
543.44	1258.98
543.79	1259.67
544.15	1262.12
544.51	1266.88
544.87	1269.21
545.22	1272.57
545.58	1274.55
545.94	1277.52
546.29	1279.86
546.65	1282.90
547.01	1285.43
547.36	1288.40
547.72	1290.83
548.07	1293.88
548.43	1296.74
548.79	1298.21
549.14	1301.05
549.50	1304.40
549.86	1306.21
550.21	1310.05
550.57	1313.86
550.92	1315.79
551.28	1319.69
551.64	1322.93
551.99	1324.90
552.35	1328.07
552.70	1331.21
553.06	1334.64
553.41	1337.40
553.77	1341.62
554.13	1345.14
554.48	1349.40
554.84	1354.29
555.19	1358.74
555.55	1364.48
555.90	1367.98
556.26	1372.07
556.61	1375.52
556.97	1378.74
557.32	1383.00
557.68	1386.33
558.03	1390.31
558.39	1395.21
558.74	1399.55
559.10	1402.74
559.45	1407.26
559.81	1411.67
560.16	1415.67
560.52	1419.79
560.87	1424.83
561.23	1428.00
561.58	1433.79
561.94	1437.31
562.29	1440.40
562.64	1444.64
563.00	1447.05
563.35	1451.26
563.71	1456.48
564.06	1462.62
564.42	1468.24
564.77	1473.90
565.12	1479.98
565.48	1487.07
565.83	1493.45
566.19	1498.26
566.54	1503.93
566.89	1509.12
567.25	1515.24
567.60	1523.00
567.96	1530.88
568.31	1537.52
568.66	1544.88
569.02	1548.48
569.37	1554.02
569.72	1559.95
570.08	1564.69
570.43	1569.55
570.78	1576.10
571.14	1581.64
571.49	1586.93
571.84	1592.17
572.20	1598.10
572.55	1603.21
572.90	1606.60
573.26	1610.90
573.61	1616.33
573.96	1622.38
574.31	1627.19
574.67	1630.79
575.02	1632.98
575.37	1635.10
575.72	1637.76
576.08	1641.36
576.43	1644.86
576.78	1649.26
577.13	1653.33
577.49	1657.48
577.84	1662.26
578.19	1666.21
578.54	1670.81
578.90	1674.74
579.25	1677.88
579.60	1679.93
579.95	1681.79
580.30	1685.67
580.66	1689.26
581.01	1692.48
581.36	1694.36
581.71	1697.86
582.06	1702.14
582.42	1706.48
582.77	1709.21
583.12	1712.62
583.47	1714.93
583.82	1719.02
584.17	1721.76
584.53	1725.14
584.88	1728.50
585.23	1731.45
585.58	1733.24
585.93	1734.64
586.28	1736.14
586.63	1739.36
586.98	1742.36
587.34	1746.12
587.69	1747.98
588.04	1749.31
588.39	1751.55
588.74	1753.10
589.09	1755.21
589.44	1755.05
589.79	1756.00
590.14	1758.29
590.49	1759.55
590.84	1760.33
591.19	1762.10
591.54	1763.60
591.89	1764.10
592.25	1767.17
592.60	1767.33
592.95	1769.12
593.30	1770.83
593.65	1772.24
594.00	1771.88
594.35	1777.55
594.70	1777.74
595.05	1778.88
595.40	1779.57
595.75	1779.64
596.10	1781.83
596.45	1782.21
596.80	1783.83
597.15	1784.64
597.50	1784.52
597.85	1786.50
598.19	1787.02
598.54	1787.45
598.89	1788.29
599.24	1789.43
599.59	1787.90
599.94	1787.86
600.29	1788.52
600.64	1788.43
600.99	1788.60
601.34	1789.62
601.69	1785.21
602.04	1785.00
602.39	1783.83
602.74	1784.40
603.08	1784.60
603.43	1784.62
603.78	1783.95
604.13	1783.93
604.48	1783.05
604.83	1784.14
605.18	1782.81
605.53	1782.93
605.87	1780.90
606.22	1780.21
606.57	1778.67
606.92	1777.05
607.27	1777.14
607.62	1775.17
607.96	1774.02
608.31	1773.48
608.66	1772.07
609.01	1769.81
609.36	1769.17
609.70	1767.93
610.05	1765.55
610.40	1763.50
610.75	1760.52
611.10	1759.29
611.44	1756.40
611.79	1754.98
612.14	1751.33
612.49	1747.74
612.83	1744.57
613.18	1742.40
613.53	1739.00
613.88	1735.74
614.22	1732.88
614.57	1728.05
614.92	1724.29
615.27	1720.64
615.61	1716.29
615.96	1712.40
616.31	1708.48
616.65	1705.88
617.00	1702.26
617.35	1699.40
617.70	1695.33
618.04	1691.81
618.39	1687.45
618.74	1683.76
619.08	1679.29
619.43	1676.40
619.78	1672.86
620.12	1669.88
620.47	1666.79
620.82	1662.26
621.16	1657.74
621.51	1654.79
621.85	1651.69
622.20	1647.67
622.55	1643.76
622.89	1640.00
623.24	1637.02
623.59	1634.07
623.93	1628.40
624.28	1623.90
624.62	1621.38
624.97	1618.52
625.32	1614.02
625.66	1609.67
626.01	1605.14
626.35	1601.48
626.70	1597.45
627.04	1594.52
627.39	1589.33
627.73	1584.93
628.08	1582.00
628.43	1578.48
628.77	1573.29
629.12	1570.17
629.46	1566.90
629.81	1562.74
630.15	1557.98
630.50	1552.45
630.84	1547.02
631.19	1542.02
631.53	1537.02
631.88	1529.69
632.22	1523.43
632.57	1519.43
632.91	1514.43
633.26	1510.21
633.60	1504.95
633.95	1498.31
634.29	1492.31
634.64	1488.21
634.98	1481.93
635.32	1477.19
635.67	1473.52
636.01	1469.83
636.36	1463.88
636.70	1459.24
637.05	1453.64
637.39	1448.67
637.73	1443.90
638.08	1440.02
638.42	1435.60
638.77	1431.21
639.11	1425.98
639.45	1421.36
639.80	1415.50
640.14	1410.86
640.49	1405.69
640.83	1399.98
641.17	1395.21
641.52	1389.43
641.86	1382.81
642.20	1379.48
642.55	1373.05
642.89	1365.93
643.23	1358.98
643.58	1353.57
643.92	1346.57
644.26	1340.17
644.61	1334.60
644.95	1328.29
645.29	1321.29
645.64	1315.02
645.98	1308.45
646.32	1303.33
646.66	1296.81
647.01	1290.38
647.35	1284.29
647.69	1278.55
648.04	1273.07
648.38	1266.57
648.72	1261.24
649.06	1255.81
649.41	1248.40
649.75	1242.10
650.09	1235.93
650.43	1229.52
650.78	1222.74
651.12	1216.67
651.46	1210.40
651.80	1204.00
652.14	1197.45
652.49	1191.98
652.83	1185.21
653.17	1178.76
653.51	1171.60
653.85	1165.69
654.20	1158.95
654.54	1151.62
654.88	1144.79
655.22	1138.50
655.56	1132.55
655.90	1125.88
656.25	1118.81
656.59	1112.71
656.93	1106.14
657.27	1100.86
657.61	1094.10
657.95	1088.02
658.29	1081.21
658.64	1075.38
658.98	1068.40
659.32	1062.38
659.66	1054.88
660.00	1048.79
660.34	1042.69
660.68	1035.98
661.02	1029.60
661.36	1023.83
661.70	1017.93
662.05	1011.43
662.39	1005.19
662.73	999.33
663.07	994.36
663.41	988.33
663.75	982.07
664.09	976.10
664.43	969.31
664.77	963.95
665.11	957.05
665.45	951.60
665.79	945.83
666.13	940.26
666.47	934.05
666.81	929.05
667.15	923.31
667.49	917.55
667.83	912.79
668.17	906.60
668.51	900.76
668.85	895.10
669.19	890.38
669.53	883.79
669.87	877.55
670.21	870.50
670.55	864.88
670.89	859.98
671.23	854.52
671.57	848.67
671.91	843.21
672.25	838.14
672.58	833.24
672.92	827.64
673.26	822.19
673.60	817.12
673.94	811.29
674.28	805.93
674.62	801.24
674.96	795.64
675.30	790.74
675.64	786.31
675.97	781.60
676.31	775.55
676.65	770.76
676.99	766.86
677.33	762.10
677.67	757.74
678.01	751.93
678.34	746.88
678.68	742.38
679.02	737.00
679.36	732.50
679.70	726.83
680.04	721.69
680.37	716.43
680.71	711.48
681.05	707.45
681.39	703.05
681.73	698.36
682.06	693.67
682.40	689.50
682.74	684.52
683.08	680.57
683.42	675.67
683.75	671.60
684.09	666.36
684.43	661.33
684.77	655.98
685.10	651.64
685.44	646.88
685.78	642.07
686.12	637.60
686.45	632.29
686.79	627.74
687.13	623.95
687.46	619.93
687.80	616.67
688.14	612.00
688.48	608.21
688.81	603.88
689.15	600.52
689.49	595.98
689.82	592.10
690.16	586.67
690.50	582.76
690.83	578.45
691.17	574.02
691.51	570.52
691.84	566.90
692.18	562.71
692.52	559.05
692.85	555.57
693.19	552.69
693.52	549.40
693.86	545.40
694.20	541.36
694.53	538.17
694.87	533.88
695.21	529.95
695.54	525.50
695.88	521.12
696.21	516.33
696.55	512.76
696.88	508.90
697.22	505.14
697.56	502.05
697.89	498.05
698.23	494.98
698.56	491.14
698.90	488.17
699.23	484.69
699.57	481.57
699.90	477.86
700.24	473.90
700.58	470.86
700.91	468.02
701.25	466.52
701.58	463.79
701.92	460.79
702.25	458.00
702.59	454.93
702.92	452.62
703.26	450.02
703.59	447.21
703.93	445.98
704.26	443.90
704.60	441.19
704.93	438.21
705.26	435.17
705.60	432.93
705.93	429.93
706.27	428.14
706.60	426.14
706.94	424.52
707.27	421.64
707.61	419.17
707.94	416.81
708.27	412.76
708.61	410.00
708.94	407.38
709.28	404.83
709.61	402.64
709.94	400.07
710.28	397.60
710.61	395.17
710.95	391.24
711.28	390.36
711.61	387.83
711.95	386.50
712.28	384.64
712.61	382.10
712.95	381.40
713.28	379.60
713.61	377.05
713.95	374.19
714.28	372.83
714.61	370.64
714.95	368.57
715.28	366.52
715.61	364.24
715.95	362.62
716.28	360.71
716.61	359.02
716.95	357.02
717.28	355.17
717.61	353.36
717.94	351.55
718.28	348.48
718.61	346.83
718.94	344.57
719.27	342.33
719.61	340.86
719.94	338.00
720.27	335.14
720.60	333.48
720.94	332.05
721.27	330.38
721.60	329.50
721.93	328.07
722.27	327.36
722.60	326.12
722.93	324.45
723.26	322.93
723.59	321.52
723.93	320.50
724.26	319.50
724.59	318.36
724.92	317.57
725.25	316.50
725.59	315.24
725.92	314.71
726.25	313.71
726.58	312.67
726.91	311.93
727.24	311.33
727.57	310.00
727.91	308.43
728.24	307.36
728.57	305.62
728.90	304.57
729.23	302.69
729.56	302.69
729.89	301.55
730.22	300.69
730.55	299.45
730.89	298.60
731.22	297.26
731.55	295.98
731.88	294.74
732.21	293.45
732.54	292.40
732.87	291.00
733.20	290.29
733.53	289.52
733.86	288.69
734.19	287.33
734.52	286.90
734.85	287.64
735.18	286.64
735.51	286.60
735.84	286.05
736.17	285.88
736.50	283.93
736.83	285.52
737.16	284.86
737.49	284.45
737.82	283.26
738.15	282.88
738.48	282.10
738.81	281.33
739.14	280.60
739.47	279.90
739.80	279.07
740.13	278.52
740.46	277.43
740.79	276.21
741.12	275.48
741.45	274.40
741.78	272.50
742.11	272.50
742.44	271.21
742.77	270.55
743.10	269.55
743.43	268.88
743.75	265.93
744.08	267.81
744.41	266.76
744.74	266.14
745.07	264.95
745.40	264.67
745.73	264.79
746.06	264.19
746.39	263.45
746.71	263.10
747.04	261.90
747.37	261.26
747.70	261.31
748.03	261.00
748.36	260.57
748.68	260.17
749.01	258.74
749.34	258.14
749.67	257.71
750.00	257.57
750.33	258.43
750.65	258.45
750.98	255.33
751.31	255.07
751.64	254.79
751.97	255.69
752.29	254.95
752.62	253.48
752.95	252.74
753.28	252.10
753.60	251.43
753.93	251.93
754.26	251.55
754.59	250.52
754.91	249.98
755.24	249.71
755.57	248.95
755.90	248.60
756.22	248.07
756.55	247.26
756.88	246.19
757.20	244.38
757.53	243.05
757.86	242.79
758.19	242.26
758.51	241.67
758.84	240.26
759.17	239.83
759.49	239.81
759.82	240.71
760.15	240.76
760.47	240.31
760.80	239.36
761.13	239.62
761.45	239.14
761.78	238.86
762.11	238.57
762.43	238.36
762.76	238.10
763.08	238.00
763.41	237.83
763.74	237.95
764.06	237.76
764.39	237.74
764.71	237.26
765.04	236.98
765.37	236.52
765.69	236.10
766.02	235.86
766.34	235.45
766.67	234.33
767.00	234.48
767.32	235.33
767.65	236.19
767.97	235.21
768.30	235.00
768.62	234.81
768.95	234.29
769.27	234.07
769.60	234.17
769.92	233.90
770.25	233.36
770.57	232.67
770.90	232.40
771.22	231.93
771.55	231.93
771.87	231.71
772.20	231.45
772.52	232.83
772.85	235.17
773.17	235.07
773.50	234.62
773.82	233.95
774.15	232.64
774.47	231.24
774.80	231.24
775.12	231.05
775.45	230.62
775.77	230.50
776.09	230.26
776.42	230.10
776.74	230.26
777.07	230.12
777.39	230.02
777.72	229.67
778.04	230.02
778.36	229.36
778.69	229.31
779.01	229.40
779.33	227.43
779.66	225.02
779.98	224.55
780.31	224.60
780.63	225.48
780.95	226.05
781.28	225.81
781.60	225.38
781.92	225.24
782.25	225.26
782.57	225.07
782.89	224.95
783.22	224.60
783.54	224.12
783.86	224.19
784.19	224.00
784.51	224.52
784.83	223.86
785.16	223.88
