SpectraSuite Data File
++++++++++++++++++++++++++++++++++++
Date: Tue Apr 02 18:38:16 EDT 2013
User: group
Dark Spectrum Present: No
Reference Spectrum Present: No
Number of Sampled Component Spectra: 1
Spectrometers: USB2E7196
Integration Time (usec): 580000 (USB2E7196)
Spectra Averaged: 2 (USB2E7196)
Boxcar Smoothing: 10 (USB2E7196)
Correct for Electrical Dark: No (USB2E7196)
Strobe/Lamp Enabled: No (USB2E7196)
Correct for Detector Non-linearity: No (USB2E7196)
Correct for Stray Light: No (USB2E7196)
Number of Pixels in Processed Spectrum: 2048
>>>>>Begin Processed Spectral Data<<<<<
339.09	0.00
339.48	197.00
339.86	192.50
340.24	194.50
340.63	198.50
341.01	232.50
341.39	202.50
341.78	208.50
342.16	212.00
342.54	205.00
342.93	198.02
343.31	207.88
343.69	208.31
344.07	209.00
344.46	209.88
344.84	210.43
345.22	209.36
345.60	209.76
345.99	209.88
346.37	209.95
346.75	210.43
347.13	210.55
347.52	210.98
347.90	211.57
348.28	211.79
348.66	212.17
349.05	211.48
349.43	211.88
349.81	211.95
350.19	212.02
350.57	212.02
350.96	212.31
351.34	212.60
351.72	212.74
352.10	212.93
352.48	212.64
352.87	212.60
353.25	212.52
353.63	212.38
354.01	212.48
354.39	212.60
354.77	212.36
355.15	212.88
355.54	212.69
355.92	212.10
356.30	212.10
356.68	213.12
357.06	213.29
357.44	212.83
357.82	212.71
358.20	213.50
358.58	213.45
358.97	213.45
359.35	213.81
359.73	214.29
360.11	214.17
360.49	214.45
360.87	214.43
361.25	214.67
361.63	215.21
362.01	215.33
362.39	215.05
362.77	215.05
363.15	214.90
363.53	214.69
363.91	214.81
364.29	214.64
364.67	212.86
365.05	212.69
365.43	213.12
365.81	213.19
366.19	213.45
366.57	214.17
366.95	214.02
367.33	213.40
367.71	213.00
368.09	213.31
368.47	213.40
368.85	213.36
369.23	213.50
369.61	213.10
369.99	213.48
370.37	213.79
370.75	214.88
371.13	214.40
371.51	214.29
371.89	214.55
372.27	214.62
372.65	214.98
373.03	215.12
373.41	214.93
373.78	214.83
374.16	213.81
374.54	213.24
374.92	213.14
375.30	213.05
375.68	213.00
376.06	213.33
376.44	213.14
376.82	213.45
377.19	213.29
377.57	213.10
377.95	212.55
378.33	212.36
378.71	211.14
379.09	211.36
379.47	211.81
379.84	211.40
380.22	211.21
380.60	210.88
380.98	210.86
381.36	210.74
381.73	210.43
382.11	210.88
382.49	211.12
382.87	210.83
383.25	210.93
383.62	213.36
384.00	212.86
384.38	212.83
384.76	213.12
385.13	214.33
385.51	214.55
385.89	214.17
386.27	214.33
386.64	214.83
387.02	214.83
387.40	214.38
387.78	214.62
388.15	214.93
388.53	214.81
388.91	214.71
389.29	214.67
389.66	215.29
390.04	214.90
390.42	215.14
390.79	215.48
391.17	215.81
391.55	213.40
391.92	213.38
392.30	213.67
392.68	213.29
393.05	213.14
393.43	213.10
393.81	213.55
394.18	213.31
394.56	213.19
394.94	213.57
395.31	213.67
395.69	214.55
396.06	215.00
396.44	215.17
396.82	215.17
397.19	216.21
397.57	215.90
397.95	216.64
398.32	215.90
398.70	216.19
399.07	216.38
399.45	216.55
399.82	216.71
400.20	216.64
400.58	216.64
400.95	215.71
401.33	216.33
401.70	217.48
402.08	217.50
402.45	217.48
402.83	218.17
403.20	218.29
403.58	217.88
403.95	218.05
404.33	218.74
404.71	219.12
405.08	220.57
405.46	220.62
405.83	220.79
406.21	221.69
406.58	222.10
406.96	222.57
407.33	223.40
407.70	224.14
408.08	226.29
408.45	227.38
408.83	228.50
409.20	228.62
409.58	228.50
409.95	229.88
410.33	231.14
410.70	231.33
411.08	233.00
411.45	234.29
411.82	235.64
412.20	237.29
412.57	240.14
412.95	239.90
413.32	242.38
413.69	244.29
414.07	246.31
414.44	248.40
414.82	250.62
415.19	253.12
415.56	255.71
415.94	257.52
416.31	260.88
416.68	264.19
417.06	268.21
417.43	272.67
417.81	276.67
418.18	281.00
418.55	285.52
418.93	289.98
419.30	294.88
419.67	299.98
420.04	305.29
420.42	310.07
420.79	318.07
421.16	324.48
421.54	332.24
421.91	339.38
422.28	346.71
422.66	354.31
423.03	363.00
423.40	370.79
423.77	378.98
424.15	387.26
424.52	396.29
424.89	406.05
425.26	414.55
425.64	423.36
426.01	433.14
426.38	443.86
426.75	455.19
427.13	466.19
427.50	477.38
427.87	489.14
428.24	500.67
428.61	510.86
428.99	524.10
429.36	536.64
429.73	549.48
430.10	562.71
430.47	576.67
430.85	589.62
431.22	604.81
431.59	622.21
431.96	637.64
432.33	654.36
432.70	670.95
433.08	690.33
433.45	708.43
433.82	726.40
434.19	746.07
434.56	765.29
434.93	784.05
435.30	802.76
435.68	823.79
436.05	845.55
436.42	865.95
436.79	884.45
437.16	904.71
437.53	926.74
437.90	948.31
438.27	970.19
438.64	991.90
439.01	1012.00
439.38	1028.67
439.75	1046.33
440.13	1067.07
440.50	1086.17
440.87	1101.60
441.24	1118.19
441.61	1136.07
441.98	1149.12
442.35	1163.90
442.72	1179.83
443.09	1196.02
443.46	1204.74
443.83	1210.64
444.20	1216.88
444.57	1224.74
444.94	1229.00
445.31	1233.00
445.68	1239.48
446.05	1240.88
446.42	1239.43
446.79	1238.83
447.16	1236.62
447.53	1235.17
447.90	1227.31
448.27	1220.12
448.64	1209.79
449.01	1202.67
449.37	1189.17
449.74	1176.83
450.11	1163.29
450.48	1145.62
450.85	1127.55
451.22	1112.79
451.59	1098.57
451.96	1084.36
452.33	1065.69
452.70	1049.67
453.07	1029.76
453.43	1007.02
453.80	987.38
454.17	968.90
454.54	950.45
454.91	931.83
455.28	913.10
455.65	895.33
456.02	880.74
456.38	865.83
456.75	846.90
457.12	831.38
457.49	816.21
457.86	799.62
458.23	787.76
458.59	773.64
458.96	759.48
459.33	746.38
459.70	734.07
460.07	724.50
460.43	712.38
460.80	701.76
461.17	692.95
461.54	683.21
461.91	673.33
462.27	663.21
462.64	654.40
463.01	645.55
463.38	637.79
463.74	625.45
464.11	617.93
464.48	611.14
464.85	603.79
465.21	598.36
465.58	592.81
465.95	585.24
466.32	579.02
466.68	573.05
467.05	567.33
467.42	561.12
467.78	554.79
468.15	549.29
468.52	545.19
468.88	538.24
469.25	532.93
469.62	529.12
469.98	524.50
470.35	520.62
470.72	516.29
471.08	511.07
471.45	507.88
471.82	504.29
472.18	500.07
472.55	496.98
472.92	493.02
473.28	488.98
473.65	485.19
474.02	482.19
474.38	479.69
474.75	477.50
475.11	474.98
475.48	472.95
475.85	470.38
476.21	467.88
476.58	466.79
476.94	465.29
477.31	464.07
477.67	463.26
478.04	461.93
478.41	461.02
478.77	461.95
479.14	460.69
479.50	459.88
479.87	460.07
480.23	459.74
480.60	458.90
480.96	459.12
481.33	460.19
481.69	460.19
482.06	460.57
482.42	461.12
482.79	461.93
483.15	462.55
483.52	463.83
483.88	464.64
484.25	465.45
484.61	466.64
484.98	467.36
485.34	469.07
485.71	470.81
486.07	472.76
486.44	472.60
486.80	474.62
487.17	476.64
487.53	479.19
487.90	482.33
488.26	486.05
488.62	489.67
488.99	492.24
489.35	495.67
489.72	498.76
490.08	502.07
490.44	505.67
490.81	509.43
491.17	513.12
491.54	517.83
491.90	522.57
492.26	527.29
492.63	532.29
492.99	536.67
493.36	541.29
493.72	546.86
494.08	552.98
494.45	559.38
494.81	565.90
495.17	571.52
495.54	577.67
495.90	583.69
496.26	589.95
496.63	596.88
496.99	604.26
497.35	611.88
497.72	619.48
498.08	626.86
498.44	635.00
498.80	643.90
499.17	651.93
499.53	659.69
499.89	668.26
500.26	676.90
500.62	685.71
500.98	695.57
501.34	704.69
501.71	714.67
502.07	723.79
502.43	732.76
502.79	742.14
503.16	751.50
503.52	761.38
503.88	770.43
504.24	779.93
504.60	789.79
504.97	799.88
505.33	810.40
505.69	821.60
506.05	831.57
506.41	841.62
506.78	851.93
507.14	862.40
507.50	872.90
507.86	883.43
508.22	894.31
508.59	903.86
508.95	914.50
509.31	925.88
509.67	936.36
510.03	947.43
510.39	958.55
510.75	969.55
511.12	979.38
511.48	990.88
511.84	1001.86
512.20	1012.50
512.56	1023.19
512.92	1033.50
513.28	1043.88
513.64	1054.79
514.00	1064.98
514.37	1075.14
514.73	1085.79
515.09	1095.79
515.45	1105.62
515.81	1115.62
516.17	1125.93
516.53	1135.31
516.89	1143.43
517.25	1152.52
517.61	1162.55
517.97	1171.21
518.33	1180.69
518.69	1190.36
519.05	1199.38
519.41	1207.95
519.77	1217.48
520.13	1225.90
520.49	1234.33
520.85	1242.83
521.21	1250.88
521.57	1258.69
521.93	1266.12
522.29	1273.93
522.65	1281.55
523.01	1289.88
523.37	1297.05
523.73	1304.64
524.09	1311.71
524.45	1318.40
524.81	1325.52
525.17	1331.48
525.53	1338.12
525.89	1343.67
526.25	1350.10
526.61	1355.83
526.97	1361.93
527.33	1368.26
527.68	1376.02
528.04	1382.10
528.40	1386.95
528.76	1393.14
529.12	1398.74
529.48	1406.02
529.84	1411.26
530.20	1417.40
530.56	1422.17
530.91	1426.88
531.27	1431.93
531.63	1436.57
531.99	1441.88
532.35	1445.83
532.71	1450.50
533.07	1456.07
533.42	1463.88
533.78	1468.86
534.14	1473.07
534.50	1477.90
534.86	1481.93
535.21	1484.24
535.57	1488.55
535.93	1493.05
536.29	1497.69
536.65	1502.07
537.00	1504.05
537.36	1507.69
537.72	1510.43
538.08	1514.31
538.44	1517.55
538.79	1520.19
539.15	1523.02
539.51	1526.19
539.87	1530.33
540.22	1532.64
540.58	1535.90
540.94	1536.17
541.29	1538.07
541.65	1539.95
542.01	1542.24
542.37	1543.60
542.72	1544.31
543.08	1544.33
543.44	1545.57
543.79	1544.90
544.15	1545.60
544.51	1548.02
544.87	1549.48
545.22	1550.50
545.58	1551.38
545.94	1552.33
546.29	1554.12
546.65	1555.10
547.01	1554.50
547.36	1554.90
547.72	1555.57
548.07	1555.29
548.43	1554.50
548.79	1554.74
549.14	1554.98
549.50	1554.98
549.86	1553.79
550.21	1554.50
550.57	1555.67
550.92	1554.81
551.28	1555.31
551.64	1555.43
551.99	1554.14
552.35	1553.05
552.70	1552.74
553.06	1551.02
553.41	1550.60
553.77	1550.55
554.13	1550.43
554.48	1551.00
554.84	1551.21
555.19	1550.64
555.55	1551.45
555.90	1551.79
556.26	1550.76
556.61	1549.93
556.97	1547.88
557.32	1547.55
557.68	1547.07
558.03	1545.95
558.39	1544.95
558.74	1543.83
559.10	1542.67
559.45	1541.81
559.81	1540.95
560.16	1538.98
560.52	1539.24
560.87	1539.00
561.23	1536.76
561.58	1537.36
561.94	1536.24
562.29	1534.31
562.64	1533.26
563.00	1529.76
563.35	1528.07
563.71	1526.40
564.06	1525.79
564.42	1524.90
564.77	1524.14
565.12	1523.07
565.48	1523.00
565.83	1522.55
566.19	1521.55
566.54	1520.17
566.89	1518.55
567.25	1517.76
567.60	1518.29
567.96	1517.52
568.31	1516.52
568.66	1516.40
569.02	1512.50
569.37	1509.60
569.72	1507.29
570.08	1504.83
570.43	1503.43
570.78	1501.88
571.14	1500.45
571.49	1497.93
571.84	1495.67
572.20	1492.74
572.55	1490.64
572.90	1486.79
573.26	1483.50
573.61	1480.50
573.96	1477.50
574.31	1473.86
574.67	1470.62
575.02	1465.88
575.37	1461.40
575.72	1456.33
576.08	1450.93
576.43	1447.02
576.78	1443.40
577.13	1439.76
577.49	1436.31
577.84	1432.48
578.19	1427.52
578.54	1423.12
578.90	1420.12
579.25	1416.45
579.60	1412.43
579.95	1406.79
580.30	1401.69
580.66	1397.79
581.01	1393.36
581.36	1388.12
581.71	1383.48
582.06	1378.83
582.42	1374.90
582.77	1370.02
583.12	1365.74
583.47	1361.86
583.82	1357.62
584.17	1352.79
584.53	1348.45
584.88	1343.62
585.23	1339.40
585.58	1334.36
585.93	1329.71
586.28	1323.90
586.63	1319.76
586.98	1315.05
587.34	1311.38
587.69	1306.60
588.04	1300.88
588.39	1295.90
588.74	1290.50
589.09	1287.00
589.44	1281.24
589.79	1275.33
590.14	1270.45
590.49	1264.86
590.84	1259.07
591.19	1254.19
591.54	1250.00
591.89	1244.43
592.25	1240.69
592.60	1234.02
592.95	1229.33
593.30	1224.98
593.65	1219.64
594.00	1213.45
594.35	1213.69
594.70	1207.55
595.05	1203.21
595.40	1197.95
595.75	1192.69
596.10	1188.88
596.45	1183.40
596.80	1178.74
597.15	1174.21
597.50	1168.57
597.85	1165.21
598.19	1160.45
598.54	1155.26
598.89	1149.81
599.24	1145.48
599.59	1139.69
599.94	1135.50
600.29	1130.81
600.64	1125.21
600.99	1121.00
601.34	1116.33
601.69	1105.67
602.04	1100.88
602.39	1095.24
602.74	1091.24
603.08	1086.14
603.43	1081.48
603.78	1076.95
604.13	1072.12
604.48	1066.83
604.83	1063.02
605.18	1057.12
605.53	1052.17
605.87	1047.21
606.22	1041.88
606.57	1036.60
606.92	1031.05
607.27	1025.79
607.62	1020.00
607.96	1014.95
608.31	1010.33
608.66	1005.21
609.01	1000.31
609.36	995.38
609.70	990.62
610.05	985.19
610.40	980.74
610.75	975.74
611.10	970.55
611.44	964.81
611.79	959.71
612.14	954.21
612.49	948.62
612.83	943.60
613.18	938.60
613.53	933.74
613.88	928.17
614.22	921.98
614.57	916.98
614.92	911.93
615.27	906.93
615.61	901.21
615.96	896.02
616.31	890.76
616.65	886.24
617.00	881.24
617.35	876.10
617.70	870.38
618.04	865.12
618.39	859.62
618.74	855.81
619.08	851.02
619.43	846.31
619.78	841.98
620.12	837.31
620.47	832.19
620.82	826.95
621.16	822.02
621.51	819.95
621.85	814.76
622.20	810.50
622.55	806.02
622.89	801.36
623.24	797.36
623.59	793.26
623.93	789.07
624.28	785.07
624.62	784.07
624.97	782.05
625.32	778.17
625.66	774.24
626.01	770.07
626.35	766.21
626.70	761.86
627.04	758.29
627.39	753.88
627.73	750.98
628.08	747.95
628.43	744.21
628.77	738.90
629.12	735.76
629.46	732.19
629.81	728.14
630.15	723.81
630.50	719.71
630.84	715.83
631.19	711.69
631.53	707.31
631.88	700.62
632.22	695.02
632.57	691.69
632.91	687.69
633.26	683.38
633.60	679.14
633.95	675.24
634.29	670.81
634.64	667.45
634.98	662.93
635.32	659.55
635.67	656.67
636.01	652.67
636.36	648.26
636.70	644.95
637.05	640.83
637.39	637.57
637.73	634.05
638.08	631.24
638.42	627.45
638.77	625.00
639.11	621.71
639.45	618.00
639.80	613.79
640.14	610.33
640.49	607.14
640.83	603.50
641.17	600.19
641.52	597.12
641.86	593.83
642.20	591.40
642.55	587.48
642.89	583.43
643.23	580.67
643.58	578.69
643.92	574.36
644.26	571.69
644.61	568.93
644.95	565.76
645.29	561.86
645.64	559.45
645.98	555.76
646.32	552.71
646.66	549.45
647.01	545.93
647.35	543.29
647.69	540.60
648.04	538.76
648.38	536.14
648.72	533.24
649.06	530.00
649.41	526.43
649.75	523.43
650.09	520.81
650.43	517.62
650.78	514.10
651.12	511.71
651.46	508.76
651.80	505.62
652.14	502.76
652.49	500.83
652.83	497.31
653.17	494.52
653.51	491.43
653.85	489.69
654.20	487.12
654.54	484.14
654.88	481.00
655.22	478.52
655.56	475.45
655.90	472.62
656.25	470.19
656.59	467.95
656.93	465.95
657.27	463.86
657.61	461.36
657.95	459.00
658.29	456.88
658.64	454.76
658.98	451.86
659.32	449.10
659.66	445.74
660.00	443.79
660.34	441.48
660.68	439.21
661.02	436.67
661.36	434.57
661.70	432.17
662.05	430.05
662.39	427.71
662.73	426.33
663.07	425.74
663.41	423.90
663.75	421.50
664.09	419.31
664.43	416.69
664.77	414.64
665.11	412.45
665.45	410.60
665.79	408.93
666.13	407.45
666.47	406.05
666.81	404.62
667.15	402.45
667.49	400.81
667.83	399.83
668.17	398.19
668.51	396.33
668.85	395.12
669.19	394.45
669.53	391.88
669.87	389.64
670.21	386.67
670.55	385.17
670.89	384.40
671.23	382.67
671.57	381.40
671.91	380.14
672.25	378.95
672.58	378.33
672.92	376.26
673.26	374.86
673.60	373.48
673.94	372.17
674.28	371.12
674.62	369.93
674.96	368.05
675.30	366.29
675.64	365.05
675.97	363.74
676.31	361.69
676.65	360.48
676.99	360.02
677.33	358.64
677.67	356.88
678.01	354.38
678.34	353.10
678.68	352.14
679.02	350.69
679.36	348.90
679.70	346.48
680.04	345.17
680.37	343.93
680.71	342.31
681.05	341.05
681.39	339.71
681.73	337.98
682.06	336.64
682.40	335.24
682.74	334.29
683.08	333.95
683.42	332.52
683.75	331.90
684.09	330.02
684.43	328.81
684.77	327.83
685.10	327.26
685.44	326.17
685.78	324.60
686.12	323.29
686.45	322.31
686.79	321.60
687.13	321.12
687.46	319.93
687.80	319.45
688.14	318.10
688.48	317.26
688.81	316.48
689.15	315.95
689.49	315.02
689.82	314.19
690.16	312.07
690.50	311.05
690.83	309.60
691.17	308.00
691.51	306.90
691.84	305.95
692.18	304.57
692.52	303.64
692.85	303.05
693.19	303.33
693.52	302.10
693.86	300.79
694.20	299.50
694.53	299.00
694.87	297.76
695.21	296.64
695.54	295.67
695.88	294.57
696.21	292.79
696.55	292.00
696.88	290.86
697.22	290.02
697.56	289.48
697.89	288.83
698.23	288.57
698.56	287.79
698.90	287.33
699.23	286.40
699.57	285.79
699.90	284.69
700.24	283.05
700.58	282.98
700.91	282.45
701.25	283.07
701.58	282.86
701.92	282.93
702.25	282.48
702.59	281.52
702.92	280.93
703.26	280.57
703.59	280.02
703.93	280.86
704.26	280.24
704.60	279.62
704.93	278.95
705.26	278.29
705.60	277.95
705.93	276.83
706.27	276.95
706.60	276.69
706.94	276.93
707.27	276.36
707.61	275.71
707.94	275.21
708.27	273.21
708.61	271.69
708.94	270.40
709.28	270.00
709.61	269.14
709.94	268.79
710.28	268.36
710.61	267.62
710.95	265.12
711.28	266.17
711.61	265.40
711.95	265.40
712.28	264.79
712.61	264.29
712.95	264.86
713.28	265.10
713.61	264.05
713.95	262.88
714.28	262.55
714.61	261.60
714.95	260.86
715.28	260.21
715.61	259.69
715.95	259.50
716.28	258.74
716.61	258.93
716.95	258.07
717.28	257.52
717.61	256.81
717.94	256.69
718.28	254.48
718.61	254.05
718.94	253.14
719.27	252.83
719.61	252.33
719.94	251.26
720.27	249.71
720.60	249.07
720.94	248.55
721.27	247.95
721.60	248.31
721.93	247.93
722.27	248.36
722.60	248.48
722.93	247.57
723.26	247.55
723.59	246.79
723.93	246.71
724.26	246.48
724.59	246.29
724.92	246.00
725.25	246.57
725.59	246.19
725.92	246.05
726.25	245.90
726.58	245.69
726.91	245.40
727.24	245.48
727.57	245.40
727.91	245.10
728.24	245.19
728.57	244.26
728.90	244.40
729.23	243.26
729.56	243.64
729.89	243.69
730.22	243.02
730.55	242.74
730.89	242.55
731.22	242.29
731.55	241.88
731.88	241.98
732.21	241.21
732.54	240.98
732.87	240.81
733.20	240.40
733.53	240.33
733.86	240.24
734.19	239.83
734.52	239.86
734.85	240.86
735.18	240.21
735.51	240.71
735.84	240.48
736.17	241.10
736.50	239.76
736.83	241.76
737.16	241.62
737.49	241.57
737.82	241.21
738.15	241.00
738.48	240.86
738.81	240.52
739.14	240.00
739.47	239.67
739.80	239.36
740.13	239.38
740.46	238.67
740.79	237.88
741.12	237.79
741.45	237.21
741.78	235.86
742.11	236.26
742.44	235.62
742.77	235.81
743.10	235.10
743.43	235.17
743.75	232.83
744.08	235.40
744.41	235.05
744.74	234.86
745.07	234.50
745.40	234.62
745.73	235.24
746.06	235.21
746.39	235.19
746.71	234.71
747.04	234.24
747.37	234.29
747.70	234.52
748.03	234.26
748.36	234.55
748.68	234.45
749.01	233.81
749.34	233.57
749.67	233.29
750.00	233.40
750.33	234.33
750.65	234.40
750.98	231.69
751.31	231.60
751.64	231.57
751.97	232.52
752.29	232.17
752.62	230.88
752.95	230.50
753.28	230.26
753.60	230.14
753.93	230.52
754.26	230.38
754.59	229.88
754.91	229.50
755.24	229.33
755.57	229.17
755.90	228.62
756.22	228.45
756.55	228.00
756.88	227.52
757.20	226.17
757.53	225.64
757.86	225.43
758.19	225.31
758.51	225.21
758.84	224.07
759.17	223.81
759.49	223.81
759.82	224.95
760.15	225.02
760.47	224.93
760.80	223.95
761.13	224.31
761.45	224.00
761.78	223.88
762.11	223.67
762.43	223.33
762.76	223.38
763.08	223.40
763.41	223.38
763.74	223.43
764.06	223.26
764.39	223.07
764.71	223.07
765.04	222.74
765.37	222.43
765.69	222.36
766.02	222.40
766.34	222.36
766.67	221.33
767.00	221.57
767.32	222.52
767.65	223.98
767.97	223.60
768.30	223.69
768.62	223.74
768.95	223.40
769.27	223.24
769.60	223.64
769.92	223.38
770.25	222.83
770.57	222.43
770.90	222.50
771.22	222.45
771.55	222.45
771.87	222.57
772.20	222.40
772.52	223.98
772.85	226.33
773.17	226.33
773.50	226.17
773.82	225.79
774.15	224.74
774.47	223.14
774.80	222.81
775.12	222.67
775.45	222.57
775.77	222.57
776.09	222.93
776.42	222.93
776.74	223.24
777.07	223.24
777.39	223.12
777.72	223.07
778.04	223.10
778.36	222.69
778.69	222.71
779.01	222.55
779.33	220.57
779.66	218.10
779.98	217.83
780.31	217.90
780.63	218.45
780.95	218.67
781.28	218.79
781.60	218.52
781.92	218.64
782.25	218.50
782.57	218.55
782.89	218.21
783.22	217.79
783.54	217.38
783.86	217.45
784.19	217.31
784.51	217.83
784.83	217.64
785.16	217.55
785.48	217.43
785.80	217.60
786.12	217.95
786.45	217.83
786.77	217.64
787.09	217.48
787.42	216.74
