SpectraSuite Data File
++++++++++++++++++++++++++++++++++++
Date: Tue Apr 02 18:37:48 EDT 2013
User: group
Dark Spectrum Present: No
Reference Spectrum Present: No
Number of Sampled Component Spectra: 1
Spectrometers: USB2E7196
Integration Time (usec): 580000 (USB2E7196)
Spectra Averaged: 2 (USB2E7196)
Boxcar Smoothing: 10 (USB2E7196)
Correct for Electrical Dark: No (USB2E7196)
Strobe/Lamp Enabled: No (USB2E7196)
Correct for Detector Non-linearity: No (USB2E7196)
Correct for Stray Light: No (USB2E7196)
Number of Pixels in Processed Spectrum: 2048
>>>>>Begin Processed Spectral Data<<<<<
339.09	0.00
339.48	195.50
339.86	193.50
340.24	194.00
340.63	200.50
341.01	225.00
341.39	202.00
341.78	206.00
342.16	204.50
342.54	208.50
342.93	197.26
343.31	207.26
343.69	207.71
344.07	208.38
344.46	209.21
344.84	209.81
345.22	208.88
345.60	209.36
345.99	209.64
346.37	209.93
346.75	209.93
347.13	210.12
347.52	210.36
347.90	211.00
348.28	211.19
348.66	211.55
349.05	210.81
349.43	210.86
349.81	211.31
350.19	211.76
350.57	211.98
350.96	212.40
351.34	212.45
351.72	212.71
352.10	212.86
352.48	212.86
352.87	212.38
353.25	212.64
353.63	212.50
354.01	212.19
354.39	212.10
354.77	211.98
355.15	212.31
355.54	212.14
355.92	211.57
356.30	211.52
356.68	212.83
357.06	213.10
357.44	212.71
357.82	212.57
358.20	213.43
358.58	213.43
358.97	213.36
359.35	213.71
359.73	213.93
360.11	213.90
360.49	213.98
360.87	214.29
361.25	214.52
361.63	215.07
362.01	215.52
362.39	215.71
362.77	216.10
363.15	215.88
363.53	215.83
363.91	216.02
364.29	215.93
364.67	214.02
365.05	214.10
365.43	214.36
365.81	214.88
366.19	214.76
366.57	215.29
366.95	215.10
367.33	214.50
367.71	214.50
368.09	214.90
368.47	214.90
368.85	214.98
369.23	215.45
369.61	214.74
369.99	215.50
370.37	215.69
370.75	216.57
371.13	216.26
371.51	215.93
371.89	216.02
372.27	216.14
372.65	216.52
373.03	216.55
373.41	216.52
373.78	216.05
374.16	215.05
374.54	214.48
374.92	214.26
375.30	214.50
375.68	214.14
376.06	214.17
376.44	214.05
376.82	214.19
377.19	213.74
377.57	213.86
377.95	213.00
378.33	212.83
378.71	211.79
379.09	211.93
379.47	212.45
379.84	212.00
380.22	211.79
380.60	211.36
380.98	211.40
381.36	211.19
381.73	210.98
382.11	211.38
382.49	211.52
382.87	211.45
383.25	211.50
383.62	213.88
384.00	213.38
384.38	213.43
384.76	213.83
385.13	214.83
385.51	214.93
385.89	214.67
386.27	214.76
386.64	214.88
387.02	214.86
387.40	214.64
387.78	215.10
388.15	215.64
388.53	215.50
388.91	215.36
389.29	215.26
389.66	215.60
390.04	215.48
390.42	216.14
390.79	216.55
391.17	216.29
391.55	214.05
391.92	214.38
392.30	214.55
392.68	214.21
393.05	214.00
393.43	214.26
393.81	214.57
394.18	214.31
394.56	214.48
394.94	215.02
395.31	214.71
395.69	215.21
396.06	215.14
396.44	215.33
396.82	215.19
397.19	216.40
397.57	216.17
397.95	216.31
398.32	215.62
398.70	215.79
399.07	216.69
399.45	216.93
399.82	216.90
400.20	216.88
400.58	216.79
400.95	216.00
401.33	216.36
401.70	218.02
402.08	217.98
402.45	218.02
402.83	218.48
403.20	218.71
403.58	218.69
403.95	219.21
404.33	220.00
404.71	220.55
405.08	221.83
405.46	222.31
405.83	223.05
406.21	223.31
406.58	223.69
406.96	223.83
407.33	224.43
407.70	225.33
408.08	227.48
408.45	228.48
408.83	229.88
409.20	230.33
409.58	229.64
409.95	231.19
410.33	232.10
410.70	232.43
411.08	234.14
411.45	235.29
411.82	236.33
412.20	237.86
412.57	240.33
412.95	240.05
413.32	241.98
413.69	243.33
414.07	245.43
414.44	247.57
414.82	249.79
415.19	252.45
415.56	254.90
415.94	256.21
416.31	259.29
416.68	262.14
417.06	266.02
417.43	270.12
417.81	273.71
418.18	278.24
418.55	283.00
418.93	287.52
419.30	292.57
419.67	297.83
420.04	303.00
420.42	308.19
420.79	316.26
421.16	323.00
421.54	331.33
421.91	338.33
422.28	345.71
422.66	353.48
423.03	362.38
423.40	370.17
423.77	378.74
424.15	387.19
424.52	395.88
424.89	405.86
425.26	414.98
425.64	424.36
426.01	433.90
426.38	443.71
426.75	454.43
427.13	465.57
427.50	476.79
427.87	488.57
428.24	500.69
428.61	510.95
428.99	523.93
429.36	535.98
429.73	549.43
430.10	563.12
430.47	577.17
430.85	590.24
431.22	605.10
431.59	622.55
431.96	637.98
432.33	655.36
432.70	671.62
433.08	690.79
433.45	709.00
433.82	727.40
434.19	748.05
434.56	768.60
434.93	786.95
435.30	805.69
435.68	827.05
436.05	847.40
436.42	867.62
436.79	886.64
437.16	907.95
437.53	930.31
437.90	951.98
438.27	973.81
438.64	996.17
439.01	1016.88
439.38	1034.00
439.75	1051.83
440.13	1071.69
440.50	1090.88
440.87	1107.07
441.24	1122.76
441.61	1141.19
441.98	1154.88
442.35	1169.98
442.72	1186.45
443.09	1202.88
443.46	1212.00
443.83	1218.50
444.20	1224.67
444.57	1232.19
444.94	1236.40
445.31	1239.90
445.68	1245.98
446.05	1247.43
446.42	1245.60
446.79	1244.67
447.16	1242.69
447.53	1242.36
447.90	1235.76
448.27	1228.69
448.64	1218.26
449.01	1211.79
449.37	1198.38
449.74	1185.33
450.11	1171.00
450.48	1153.33
450.85	1134.88
451.22	1120.14
451.59	1106.31
451.96	1092.57
452.33	1074.52
452.70	1057.36
453.07	1037.05
453.43	1014.45
453.80	995.33
454.17	976.83
454.54	958.12
454.91	938.86
455.28	918.93
455.65	900.71
456.02	885.67
456.38	870.33
456.75	851.67
457.12	835.38
457.49	820.00
457.86	803.40
458.23	790.95
458.59	776.79
458.96	762.12
459.33	749.24
459.70	737.00
460.07	726.79
460.43	715.02
460.80	704.83
461.17	695.62
461.54	685.24
461.91	675.05
462.27	665.02
462.64	656.38
463.01	647.76
463.38	639.81
463.74	627.62
464.11	619.62
464.48	612.64
464.85	605.26
465.21	599.83
465.58	593.86
465.95	586.60
466.32	580.60
466.68	575.14
467.05	569.07
467.42	562.81
467.78	556.31
468.15	550.86
468.52	546.33
468.88	539.74
469.25	534.43
469.62	530.95
469.98	526.62
470.35	522.95
470.72	518.45
471.08	513.38
471.45	510.81
471.82	507.67
472.18	503.62
472.55	500.69
472.92	496.57
473.28	493.45
473.65	489.90
474.02	487.10
474.38	484.81
474.75	482.48
475.11	479.60
475.48	477.74
475.85	475.45
476.21	473.79
476.58	472.43
476.94	471.02
477.31	469.17
477.67	467.76
478.04	466.12
478.41	465.90
478.77	467.17
479.14	465.81
479.50	465.45
479.87	465.26
480.23	464.83
480.60	464.60
480.96	464.24
481.33	465.02
481.69	464.98
482.06	465.05
482.42	465.55
482.79	466.52
483.15	467.33
483.52	468.48
483.88	468.90
484.25	470.10
484.61	471.45
484.98	472.21
485.34	474.62
485.71	477.00
486.07	478.14
486.44	478.07
486.80	479.95
487.17	481.74
487.53	484.38
487.90	487.38
488.26	490.88
488.62	494.43
488.99	497.05
489.35	500.71
489.72	503.36
490.08	507.00
490.44	510.93
490.81	515.12
491.17	518.67
491.54	523.14
491.90	527.98
492.26	532.67
492.63	538.17
492.99	542.52
493.36	547.64
493.72	553.50
494.08	559.10
494.45	565.24
494.81	572.12
495.17	577.95
495.54	584.86
495.90	590.90
496.26	597.43
496.63	604.81
496.99	611.90
497.35	619.62
497.72	627.62
498.08	635.21
498.44	643.17
498.80	652.52
499.17	661.10
499.53	669.48
499.89	678.45
500.26	687.40
500.62	696.95
500.98	705.98
501.34	715.02
501.71	725.31
502.07	734.31
502.43	742.29
502.79	752.40
503.16	761.76
503.52	771.33
503.88	780.76
504.24	790.69
504.60	800.43
504.97	810.86
505.33	820.62
505.69	831.95
506.05	841.79
506.41	851.14
506.78	861.14
507.14	871.48
507.50	881.31
507.86	891.88
508.22	901.76
508.59	911.50
508.95	922.31
509.31	932.86
509.67	943.52
510.03	954.40
510.39	964.05
510.75	974.21
511.12	984.12
511.48	994.24
511.84	1004.19
512.20	1015.05
512.56	1025.67
512.92	1036.50
513.28	1045.90
513.64	1055.71
514.00	1065.07
514.37	1074.45
514.73	1083.52
515.09	1093.43
515.45	1101.88
515.81	1110.83
516.17	1120.10
516.53	1128.43
516.89	1136.12
517.25	1144.48
517.61	1153.00
517.97	1161.45
518.33	1169.00
518.69	1177.95
519.05	1186.05
519.41	1193.71
519.77	1202.33
520.13	1209.45
520.49	1215.71
520.85	1221.95
521.21	1230.10
521.57	1238.26
521.93	1244.88
522.29	1251.52
522.65	1257.64
523.01	1264.60
523.37	1271.17
523.73	1278.02
524.09	1284.00
524.45	1289.71
524.81	1295.64
525.17	1301.81
525.53	1306.95
525.89	1312.57
526.25	1317.52
526.61	1322.95
526.97	1327.48
527.33	1331.48
527.68	1337.76
528.04	1342.29
528.40	1347.40
528.76	1351.26
529.12	1355.29
529.48	1361.45
529.84	1365.62
530.20	1369.74
530.56	1373.60
530.91	1377.43
531.27	1379.98
531.63	1383.36
531.99	1387.02
532.35	1390.24
532.71	1392.95
533.07	1397.60
533.42	1403.24
533.78	1406.86
534.14	1410.38
534.50	1413.19
534.86	1416.48
535.21	1417.64
535.57	1421.21
535.93	1423.50
536.29	1427.07
536.65	1429.43
537.00	1430.60
537.36	1432.69
537.72	1434.50
538.08	1437.60
538.44	1438.95
538.79	1441.52
539.15	1443.02
539.51	1445.45
539.87	1446.88
540.22	1448.95
540.58	1450.29
540.94	1449.83
541.29	1450.93
541.65	1450.55
542.01	1452.79
542.37	1452.64
542.72	1452.71
543.08	1452.12
543.44	1452.93
543.79	1450.62
544.15	1450.88
544.51	1451.33
544.87	1451.60
545.22	1451.74
545.58	1450.71
545.94	1451.26
546.29	1451.95
546.65	1451.57
547.01	1449.81
547.36	1448.83
547.72	1447.95
548.07	1446.40
548.43	1445.48
548.79	1443.98
549.14	1443.76
549.50	1442.36
549.86	1440.74
550.21	1439.76
550.57	1439.45
550.92	1437.83
551.28	1437.71
551.64	1436.33
551.99	1434.21
552.35	1433.26
552.70	1431.86
553.06	1430.57
553.41	1428.69
553.77	1428.52
554.13	1427.07
554.48	1427.10
554.84	1426.71
555.19	1425.21
555.55	1425.48
555.90	1423.86
556.26	1422.36
556.61	1420.21
556.97	1417.93
557.32	1417.02
557.68	1415.36
558.03	1413.64
558.39	1412.10
558.74	1410.71
559.10	1408.69
559.45	1407.95
559.81	1406.05
560.16	1404.12
560.52	1402.10
560.87	1400.50
561.23	1396.10
561.58	1397.43
561.94	1394.71
562.29	1393.10
562.64	1391.12
563.00	1387.71
563.35	1386.50
563.71	1385.10
564.06	1384.45
564.42	1383.21
564.77	1381.90
565.12	1381.62
565.48	1381.48
565.83	1380.50
566.19	1379.76
566.54	1378.67
566.89	1376.38
567.25	1375.71
567.60	1375.48
567.96	1375.95
568.31	1375.83
568.66	1375.43
569.02	1371.81
569.37	1370.62
569.72	1368.76
570.08	1367.64
570.43	1365.48
570.78	1364.00
571.14	1362.88
571.49	1359.81
571.84	1357.83
572.20	1355.21
572.55	1352.60
572.90	1348.38
573.26	1345.57
573.61	1342.31
573.96	1340.50
574.31	1337.95
574.67	1334.71
575.02	1331.38
575.37	1327.07
575.72	1322.81
576.08	1319.81
576.43	1316.67
576.78	1312.62
577.13	1308.95
577.49	1304.95
577.84	1302.21
578.19	1297.55
578.54	1293.98
578.90	1291.60
579.25	1288.07
579.60	1284.07
579.95	1279.38
580.30	1275.45
580.66	1272.00
581.01	1268.12
581.36	1263.38
581.71	1259.05
582.06	1256.00
582.42	1251.90
582.77	1246.76
583.12	1243.64
583.47	1238.79
583.82	1234.24
584.17	1231.24
584.53	1228.12
584.88	1224.36
585.23	1220.83
585.58	1216.36
585.93	1211.38
586.28	1207.02
586.63	1203.17
586.98	1200.02
587.34	1196.88
587.69	1193.07
588.04	1188.33
588.39	1184.00
588.74	1179.36
589.09	1175.93
589.44	1170.52
589.79	1166.05
590.14	1162.40
590.49	1156.50
590.84	1151.74
591.19	1147.36
591.54	1142.38
591.89	1136.71
592.25	1133.64
592.60	1128.00
592.95	1124.55
593.30	1120.43
593.65	1115.67
594.00	1110.14
594.35	1111.02
594.70	1105.88
595.05	1102.17
595.40	1098.05
595.75	1093.86
596.10	1090.14
596.45	1085.10
596.80	1080.64
597.15	1076.17
597.50	1071.31
597.85	1068.43
598.19	1064.57
598.54	1060.45
598.89	1056.48
599.24	1052.88
599.59	1047.17
599.94	1043.50
600.29	1039.24
600.64	1034.60
600.99	1030.69
601.34	1027.24
601.69	1017.31
602.04	1013.17
602.39	1008.19
602.74	1003.62
603.08	998.81
603.43	994.86
603.78	990.88
604.13	985.98
604.48	981.60
604.83	978.14
605.18	972.81
605.53	967.98
605.87	963.55
606.22	958.64
606.57	954.24
606.92	949.79
607.27	945.43
607.62	940.79
607.96	936.71
608.31	931.88
608.66	927.48
609.01	922.86
609.36	918.79
609.70	914.81
610.05	910.40
610.40	906.50
610.75	901.64
611.10	897.17
611.44	893.24
611.79	888.48
612.14	883.69
612.49	879.19
612.83	874.86
613.18	870.00
613.53	865.86
613.88	861.05
614.22	856.50
614.57	851.98
614.92	846.88
615.27	842.07
615.61	837.31
615.96	832.19
616.31	827.45
616.65	823.43
617.00	818.57
617.35	814.31
617.70	809.45
618.04	805.19
618.39	800.86
618.74	796.93
619.08	792.79
619.43	787.90
619.78	783.43
620.12	779.69
620.47	775.98
620.82	771.40
621.16	767.62
621.51	765.17
621.85	760.67
622.20	756.74
622.55	752.95
622.89	749.81
623.24	746.67
623.59	742.74
623.93	738.36
624.28	734.83
624.62	733.62
624.97	732.14
625.32	727.86
625.66	724.05
626.01	719.74
626.35	716.86
626.70	713.57
627.04	711.00
627.39	707.45
627.73	704.88
628.08	702.29
628.43	698.57
628.77	693.45
629.12	690.31
629.46	687.98
629.81	684.38
630.15	680.29
630.50	676.48
630.84	673.55
631.19	670.14
631.53	666.60
631.88	659.81
632.22	654.14
632.57	651.48
632.91	647.45
633.26	644.45
633.60	640.40
633.95	637.21
634.29	632.88
634.64	629.52
634.98	625.12
635.32	621.98
635.67	619.29
636.01	616.10
636.36	612.60
636.70	609.24
637.05	606.33
637.39	603.76
637.73	601.12
638.08	598.24
638.42	595.02
638.77	592.55
639.11	590.43
639.45	587.64
639.80	584.07
640.14	581.81
640.49	578.62
640.83	575.33
641.17	572.19
641.52	569.45
641.86	566.52
642.20	564.40
642.55	560.02
642.89	556.52
643.23	554.17
643.58	552.07
643.92	548.45
644.26	545.21
644.61	542.40
644.95	539.33
645.29	535.83
645.64	533.26
645.98	529.90
646.32	527.33
646.66	524.17
647.01	521.05
647.35	518.31
647.69	515.83
648.04	513.88
648.38	511.71
648.72	509.57
649.06	506.45
649.41	503.26
649.75	500.98
650.09	499.02
650.43	496.21
650.78	493.05
651.12	490.81
651.46	488.45
651.80	485.71
652.14	483.24
652.49	481.45
652.83	478.60
653.17	476.21
653.51	473.33
653.85	471.14
654.20	469.24
654.54	466.71
654.88	464.02
655.22	462.33
655.56	459.24
655.90	456.29
656.25	454.19
656.59	452.02
656.93	450.07
657.27	448.05
657.61	445.69
657.95	444.05
658.29	441.55
658.64	439.45
658.98	437.02
659.32	434.74
659.66	432.48
660.00	430.57
660.34	428.43
660.68	426.31
661.02	424.76
661.36	422.62
661.70	420.60
662.05	418.76
662.39	416.69
662.73	416.29
663.07	415.81
663.41	414.31
663.75	412.14
664.09	410.81
664.43	408.21
664.77	406.48
665.11	404.10
665.45	402.57
665.79	401.24
666.13	399.60
666.47	397.81
666.81	395.93
667.15	393.90
667.49	392.74
667.83	391.90
668.17	389.98
668.51	388.43
668.85	387.26
669.19	386.33
669.53	383.60
669.87	380.86
670.21	378.55
670.55	376.98
670.89	376.17
671.23	374.26
671.57	373.12
671.91	371.86
672.25	370.79
672.58	369.90
672.92	367.57
673.26	366.21
673.60	365.21
673.94	363.86
674.28	362.88
674.62	361.36
674.96	359.60
675.30	358.55
675.64	356.95
675.97	355.52
676.31	353.93
676.65	353.02
676.99	352.48
677.33	350.74
677.67	349.40
678.01	347.43
678.34	346.52
678.68	345.55
679.02	343.76
679.36	342.38
679.70	340.62
680.04	339.90
680.37	338.55
680.71	337.00
681.05	335.95
681.39	334.71
681.73	333.36
682.06	332.21
682.40	330.86
682.74	330.33
683.08	330.02
683.42	328.64
683.75	327.90
684.09	326.19
684.43	325.50
684.77	324.14
685.10	323.24
685.44	322.02
685.78	320.48
686.12	319.83
686.45	318.88
686.79	317.69
687.13	316.74
687.46	315.71
687.80	315.17
688.14	313.98
688.48	313.26
688.81	312.62
689.15	311.90
689.49	310.79
689.82	309.74
690.16	307.88
690.50	306.83
690.83	305.45
691.17	304.07
691.51	302.98
691.84	302.57
692.18	301.57
692.52	300.55
692.85	300.00
693.19	299.62
693.52	298.36
693.86	297.60
694.20	296.88
694.53	296.19
694.87	294.95
695.21	293.93
695.54	293.12
695.88	291.88
696.21	290.33
696.55	289.67
696.88	288.76
697.22	287.88
697.56	287.43
697.89	286.60
698.23	286.79
698.56	286.02
698.90	285.48
699.23	284.71
699.57	284.07
699.90	283.07
700.24	281.71
700.58	281.50
700.91	280.88
701.25	281.67
701.58	281.62
701.92	281.29
702.25	280.93
702.59	280.02
702.92	279.31
703.26	279.17
703.59	278.60
703.93	279.55
704.26	279.26
704.60	278.71
704.93	278.05
705.26	276.76
705.60	276.74
705.93	275.52
706.27	275.40
706.60	275.26
706.94	275.48
707.27	274.93
707.61	274.60
707.94	274.02
708.27	271.90
708.61	270.40
708.94	269.71
709.28	269.07
709.61	268.29
709.94	267.95
710.28	267.24
710.61	266.52
710.95	264.33
711.28	264.98
711.61	264.12
711.95	264.05
712.28	263.45
712.61	262.67
712.95	263.14
713.28	263.40
713.61	262.62
713.95	261.40
714.28	261.07
714.61	260.10
714.95	259.62
715.28	258.79
715.61	258.38
715.95	258.21
716.28	257.81
716.61	257.69
716.95	256.95
717.28	256.60
717.61	256.07
717.94	255.43
718.28	253.31
718.61	252.57
718.94	251.81
719.27	251.81
719.61	251.12
719.94	250.24
720.27	249.05
720.60	248.21
720.94	247.90
721.27	247.29
721.60	247.19
721.93	246.67
722.27	247.21
722.60	247.21
722.93	246.38
723.26	246.14
723.59	245.74
723.93	245.69
724.26	245.24
724.59	244.90
724.92	244.88
725.25	245.36
725.59	245.45
725.92	245.38
726.25	244.81
726.58	244.69
726.91	244.36
727.24	244.02
727.57	243.69
727.91	242.90
728.24	243.00
728.57	242.33
728.90	242.48
729.23	241.52
729.56	242.19
729.89	242.05
730.22	241.69
730.55	241.29
730.89	241.02
731.22	240.83
731.55	240.60
731.88	240.43
732.21	239.52
732.54	239.19
732.87	238.86
733.20	238.71
733.53	238.45
733.86	238.14
734.19	237.50
734.52	237.83
734.85	239.19
735.18	238.55
735.51	239.07
735.84	238.79
736.17	239.07
736.50	237.86
736.83	239.93
737.16	239.76
737.49	239.71
737.82	239.21
738.15	239.36
738.48	239.10
738.81	238.62
739.14	238.48
739.47	238.00
739.80	237.52
740.13	237.45
740.46	236.93
740.79	236.62
741.12	236.81
741.45	236.29
741.78	235.00
742.11	235.24
742.44	234.64
742.77	234.67
743.10	234.29
743.43	233.83
743.75	231.60
744.08	233.95
744.41	233.60
744.74	233.48
745.07	232.67
745.40	232.88
745.73	233.62
746.06	233.60
746.39	233.64
746.71	233.33
747.04	232.79
747.37	232.57
747.70	232.67
748.03	232.31
748.36	232.50
748.68	232.26
749.01	231.52
749.34	231.19
749.67	231.00
750.00	231.00
750.33	232.55
750.65	232.52
750.98	229.81
751.31	229.57
751.64	229.48
751.97	230.62
752.29	230.29
752.62	229.17
752.95	228.79
753.28	228.60
753.60	228.57
753.93	229.24
754.26	229.43
754.59	228.67
754.91	228.36
755.24	228.12
755.57	228.02
755.90	228.19
756.22	228.10
756.55	227.50
756.88	227.07
757.20	225.29
757.53	224.74
757.86	224.60
758.19	224.64
758.51	224.67
758.84	223.31
759.17	223.05
759.49	223.17
759.82	224.12
760.15	223.95
760.47	224.05
760.80	223.26
761.13	223.31
761.45	223.21
761.78	223.40
762.11	223.17
762.43	222.98
762.76	222.90
763.08	223.07
763.41	223.52
763.74	223.40
764.06	223.76
764.39	223.86
764.71	223.67
765.04	223.26
765.37	222.98
765.69	223.21
766.02	223.38
766.34	223.05
766.67	222.26
767.00	222.71
767.32	223.55
767.65	224.88
767.97	224.62
768.30	224.79
768.62	224.48
768.95	224.31
769.27	224.36
769.60	224.55
769.92	224.14
770.25	223.67
770.57	223.33
770.90	222.88
771.22	222.29
771.55	222.33
771.87	222.81
772.20	222.55
772.52	224.14
772.85	226.33
773.17	226.55
773.50	226.57
773.82	226.12
774.15	225.19
774.47	223.71
774.80	223.62
775.12	223.52
775.45	223.57
775.77	223.45
776.09	223.40
776.42	223.24
776.74	223.81
777.07	223.69
777.39	223.62
777.72	223.48
778.04	223.81
778.36	223.55
778.69	223.38
779.01	223.52
779.33	221.74
779.66	219.21
779.98	218.88
780.31	218.76
780.63	219.67
780.95	220.07
781.28	220.14
781.60	220.14
781.92	220.17
782.25	220.00
782.57	220.17
782.89	219.64
783.22	219.50
783.54	218.90
783.86	219.10
784.19	219.07
784.51	219.52
784.83	219.31
785.16	219.29
785.48	219.24
785.80	219.26
786.12	219.36
786.45	219.43
786.77	219.57
787.09	219.36
787.42	218.52
787.74	218.33
788.06	218.31
