SpectraSuite Data File
++++++++++++++++++++++++++++++++++++
Date: Tue Apr 02 18:40:05 EDT 2013
User: group
Dark Spectrum Present: No
Reference Spectrum Present: No
Number of Sampled Component Spectra: 1
Spectrometers: USB2E7196
Integration Time (usec): 580000 (USB2E7196)
Spectra Averaged: 2 (USB2E7196)
Boxcar Smoothing: 10 (USB2E7196)
Correct for Electrical Dark: No (USB2E7196)
Strobe/Lamp Enabled: No (USB2E7196)
Correct for Detector Non-linearity: No (USB2E7196)
Correct for Stray Light: No (USB2E7196)
Number of Pixels in Processed Spectrum: 2048
>>>>>Begin Processed Spectral Data<<<<<
339.09	0.00
339.48	195.50
339.86	198.00
340.24	199.00
340.63	198.50
341.01	235.50
341.39	203.50
341.78	207.00
342.16	217.00
342.54	208.00
342.93	200.19
343.31	210.10
343.69	210.64
344.07	211.31
344.46	212.19
344.84	213.10
345.22	211.93
345.60	212.36
345.99	212.71
346.37	212.31
346.75	212.45
347.13	212.38
347.52	212.50
347.90	213.21
348.28	213.26
348.66	213.83
349.05	213.40
349.43	213.81
349.81	214.00
350.19	214.24
350.57	214.12
350.96	214.21
351.34	214.52
351.72	214.71
352.10	214.71
352.48	214.38
352.87	214.17
353.25	214.21
353.63	214.21
354.01	214.00
354.39	214.33
354.77	214.38
355.15	215.12
355.54	215.02
355.92	214.38
356.30	214.33
356.68	215.43
357.06	215.14
357.44	214.60
357.82	214.48
358.20	215.38
358.58	215.50
358.97	215.21
359.35	215.36
359.73	215.67
360.11	215.33
360.49	215.36
360.87	215.19
361.25	215.19
361.63	215.86
362.01	215.95
362.39	215.76
362.77	215.74
363.15	215.45
363.53	215.55
363.91	215.81
364.29	215.88
364.67	214.00
365.05	214.07
365.43	214.57
365.81	214.71
366.19	214.76
366.57	215.29
366.95	215.21
367.33	214.79
367.71	214.69
368.09	215.36
368.47	215.48
368.85	215.43
369.23	216.00
369.61	215.02
369.99	215.76
370.37	216.00
370.75	217.05
371.13	216.60
371.51	216.12
371.89	216.05
372.27	216.14
372.65	216.36
373.03	216.40
373.41	215.98
373.78	215.88
374.16	214.90
374.54	214.33
374.92	214.36
375.30	214.57
375.68	214.05
376.06	213.98
376.44	213.71
376.82	213.93
377.19	213.60
377.57	213.62
377.95	212.81
378.33	212.67
378.71	211.36
379.09	211.64
379.47	211.76
379.84	211.55
380.22	211.33
380.60	211.10
380.98	211.21
381.36	211.17
381.73	210.93
382.11	211.29
382.49	211.38
382.87	211.14
383.25	211.19
383.62	213.71
384.00	213.31
384.38	213.40
384.76	213.79
385.13	214.76
385.51	215.02
385.89	214.98
386.27	215.02
386.64	215.60
387.02	215.55
387.40	215.57
387.78	215.81
388.15	215.90
388.53	215.74
388.91	215.86
389.29	215.81
389.66	216.50
390.04	216.05
390.42	216.31
390.79	216.60
391.17	216.40
391.55	214.17
391.92	214.24
392.30	214.36
392.68	213.88
393.05	213.64
393.43	213.50
393.81	213.50
394.18	213.12
394.56	213.02
394.94	213.55
395.31	213.38
395.69	214.10
396.06	214.31
396.44	214.62
396.82	214.24
397.19	215.36
397.57	214.95
397.95	215.52
398.32	215.00
398.70	215.05
399.07	215.64
399.45	215.64
399.82	215.71
400.20	215.71
400.58	215.79
400.95	214.83
401.33	215.31
401.70	216.86
402.08	217.26
402.45	217.24
402.83	217.48
403.20	217.95
403.58	217.43
403.95	218.10
404.33	218.57
404.71	218.98
405.08	219.88
405.46	220.29
405.83	220.69
406.21	221.26
406.58	221.71
406.96	221.81
407.33	222.48
407.70	223.12
408.08	225.33
408.45	226.26
408.83	227.38
409.20	227.93
409.58	227.71
409.95	229.00
410.33	230.24
410.70	230.90
411.08	232.12
411.45	233.52
411.82	234.21
412.20	235.88
412.57	238.62
412.95	238.69
413.32	240.26
413.69	241.62
414.07	243.38
414.44	245.57
414.82	247.76
415.19	250.52
415.56	253.26
415.94	254.55
416.31	257.60
416.68	260.74
417.06	264.33
417.43	267.95
417.81	271.57
418.18	275.45
418.55	279.17
418.93	283.14
419.30	287.67
419.67	292.48
420.04	296.98
420.42	301.33
420.79	308.83
421.16	315.00
421.54	322.45
421.91	329.17
422.28	335.57
422.66	343.17
423.03	351.43
423.40	358.69
423.77	366.81
424.15	374.79
424.52	383.07
424.89	391.95
425.26	400.40
425.64	408.52
426.01	417.55
426.38	427.50
426.75	438.05
427.13	447.79
427.50	458.17
427.87	469.07
428.24	479.50
428.61	489.00
428.99	501.05
429.36	512.38
429.73	524.36
430.10	536.81
430.47	549.05
430.85	560.57
431.22	573.98
431.59	589.14
431.96	602.67
432.33	617.88
432.70	632.52
433.08	649.71
433.45	666.21
433.82	682.17
434.19	700.45
434.56	718.38
434.93	735.69
435.30	752.71
435.68	772.07
436.05	790.52
436.42	808.29
436.79	825.33
437.16	843.93
437.53	863.26
437.90	882.14
438.27	901.40
438.64	921.33
439.01	939.40
439.38	955.31
439.75	970.67
440.13	988.62
440.50	1006.00
440.87	1020.29
441.24	1034.14
441.61	1049.74
441.98	1060.67
442.35	1073.74
442.72	1088.02
443.09	1102.98
443.46	1110.10
443.83	1116.45
444.20	1121.93
444.57	1129.10
444.94	1132.19
445.31	1135.81
445.68	1141.29
446.05	1142.60
446.42	1140.31
446.79	1139.86
447.16	1137.12
447.53	1136.60
447.90	1129.83
448.27	1122.17
448.64	1112.48
449.01	1105.83
449.37	1094.29
449.74	1083.14
450.11	1070.55
450.48	1054.26
450.85	1036.79
451.22	1023.81
451.59	1010.60
451.96	997.67
452.33	980.21
452.70	965.10
453.07	946.69
453.43	926.00
453.80	908.26
454.17	891.71
454.54	874.12
454.91	856.74
455.28	839.12
455.65	822.79
456.02	810.55
456.38	797.02
456.75	780.52
457.12	766.24
457.49	752.10
457.86	737.24
458.23	726.00
458.59	713.90
458.96	700.86
459.33	689.43
459.70	678.69
460.07	670.14
460.43	659.88
460.80	650.79
461.17	643.29
461.54	633.69
461.91	624.93
462.27	616.43
462.64	608.57
463.01	600.83
463.38	594.10
463.74	582.81
464.11	575.29
464.48	569.07
464.85	562.29
465.21	557.69
465.58	551.55
465.95	544.69
466.32	539.05
466.68	533.74
467.05	528.31
467.42	522.26
467.78	516.10
468.15	511.17
468.52	507.21
468.88	501.21
469.25	496.67
469.62	492.90
469.98	488.64
470.35	485.00
470.72	480.86
471.08	475.79
471.45	472.90
471.82	469.98
472.18	466.36
472.55	463.81
472.92	459.67
473.28	457.24
473.65	454.29
474.02	450.88
474.38	448.40
474.75	446.07
475.11	443.69
475.48	441.64
475.85	439.38
476.21	436.81
476.58	435.14
476.94	434.07
477.31	432.79
477.67	431.57
478.04	430.69
478.41	430.33
478.77	431.52
479.14	430.55
479.50	429.60
479.87	429.55
480.23	429.24
480.60	429.07
480.96	428.71
481.33	429.69
481.69	430.19
482.06	430.55
482.42	431.07
482.79	431.52
483.15	431.93
483.52	432.60
483.88	433.57
484.25	434.38
484.61	435.29
484.98	435.83
485.34	437.52
485.71	438.90
486.07	440.10
486.44	439.83
486.80	441.81
487.17	443.64
487.53	445.83
487.90	447.90
488.26	451.10
488.62	453.69
488.99	455.79
489.35	458.45
489.72	460.83
490.08	463.52
490.44	466.76
490.81	470.57
491.17	474.05
491.54	478.12
491.90	482.31
492.26	486.02
492.63	490.12
492.99	494.19
493.36	498.55
493.72	503.17
494.08	507.86
494.45	512.62
494.81	518.17
495.17	522.95
495.54	528.71
495.90	533.33
496.26	538.67
496.63	544.88
496.99	550.71
497.35	557.38
497.72	564.05
498.08	570.62
498.44	576.90
498.80	583.98
499.17	590.45
499.53	597.40
499.89	604.98
500.26	613.02
500.62	619.81
500.98	627.74
501.34	634.90
501.71	643.21
502.07	650.93
502.43	658.33
502.79	666.02
503.16	673.29
503.52	681.36
503.88	688.86
504.24	696.38
504.60	704.55
504.97	713.31
505.33	721.38
505.69	730.60
506.05	739.05
506.41	747.31
506.78	755.62
507.14	763.45
507.50	772.48
507.86	781.17
508.22	790.67
508.59	798.74
508.95	807.48
509.31	817.05
509.67	825.74
510.03	834.10
510.39	843.36
510.75	852.31
511.12	860.88
511.48	870.26
511.84	878.24
512.20	886.40
512.56	894.88
512.92	903.74
513.28	911.93
513.64	920.38
514.00	928.81
514.37	937.60
514.73	946.40
515.09	954.17
515.45	961.81
515.81	968.57
516.17	976.24
516.53	984.14
516.89	990.71
517.25	998.21
517.61	1007.40
517.97	1013.60
518.33	1020.71
518.69	1028.38
519.05	1035.71
519.41	1043.71
519.77	1052.62
520.13	1058.67
520.49	1064.88
520.85	1071.62
521.21	1079.50
521.57	1086.43
521.93	1092.31
522.29	1099.19
522.65	1105.36
523.01	1111.83
523.37	1118.64
523.73	1125.57
524.09	1131.79
524.45	1137.64
524.81	1143.24
525.17	1148.31
525.53	1154.86
525.89	1161.33
526.25	1167.14
526.61	1172.40
526.97	1178.12
527.33	1183.05
527.68	1191.26
528.04	1197.21
528.40	1202.60
528.76	1207.24
529.12	1212.48
529.48	1218.02
529.84	1222.76
530.20	1228.38
530.56	1234.05
530.91	1240.02
531.27	1244.86
531.63	1250.79
531.99	1256.10
532.35	1261.38
532.71	1265.90
533.07	1271.07
533.42	1278.36
533.78	1284.55
534.14	1290.02
534.50	1294.38
534.86	1300.38
535.21	1303.71
535.57	1310.00
535.93	1314.48
536.29	1319.90
536.65	1325.64
537.00	1329.98
537.36	1335.05
537.72	1339.33
538.08	1343.50
538.44	1346.90
538.79	1351.76
539.15	1355.21
539.51	1359.00
539.87	1363.45
540.22	1368.26
540.58	1373.05
540.94	1375.76
541.29	1378.71
541.65	1382.71
542.01	1387.50
542.37	1391.29
542.72	1394.69
543.08	1396.86
543.44	1401.71
543.79	1405.05
544.15	1408.33
544.51	1413.57
544.87	1417.55
545.22	1421.81
545.58	1425.98
545.94	1430.69
546.29	1434.00
546.65	1438.50
547.01	1442.62
547.36	1446.76
547.72	1450.48
548.07	1454.60
548.43	1457.98
548.79	1461.60
549.14	1465.19
549.50	1469.24
549.86	1471.31
550.21	1475.40
550.57	1480.21
550.92	1483.26
551.28	1486.71
551.64	1490.36
551.99	1493.52
552.35	1496.33
552.70	1499.71
553.06	1503.45
553.41	1507.12
553.77	1512.40
554.13	1516.90
554.48	1521.38
554.84	1526.00
555.19	1531.48
555.55	1536.62
555.90	1540.29
556.26	1545.07
556.61	1548.48
556.97	1551.81
557.32	1556.21
557.68	1559.86
558.03	1563.24
558.39	1567.93
558.74	1572.29
559.10	1576.93
559.45	1582.33
559.81	1587.69
560.16	1592.62
560.52	1596.67
560.87	1601.05
561.23	1604.48
561.58	1610.05
561.94	1615.02
562.29	1619.24
562.64	1622.38
563.00	1626.02
563.35	1630.55
563.71	1634.98
564.06	1640.74
564.42	1645.79
564.77	1651.36
565.12	1657.69
565.48	1665.33
565.83	1670.26
566.19	1675.93
566.54	1680.55
566.89	1684.83
567.25	1689.81
567.60	1695.81
567.96	1702.93
568.31	1708.69
568.66	1714.95
569.02	1717.98
569.37	1721.95
569.72	1725.76
570.08	1730.52
570.43	1734.93
570.78	1739.81
571.14	1743.79
571.49	1748.19
571.84	1752.38
572.20	1756.88
572.55	1759.67
572.90	1761.33
573.26	1763.40
573.61	1766.05
573.96	1769.52
574.31	1772.14
574.67	1775.29
575.02	1777.17
575.37	1778.00
575.72	1780.19
576.08	1782.48
576.43	1784.21
576.78	1785.55
577.13	1787.79
577.49	1789.14
577.84	1791.55
578.19	1793.43
578.54	1796.24
578.90	1798.12
579.25	1800.52
579.60	1800.95
579.95	1801.79
580.30	1803.67
580.66	1806.31
581.01	1808.21
581.36	1808.81
581.71	1810.24
582.06	1812.60
582.42	1814.05
582.77	1815.26
583.12	1815.64
583.47	1816.69
583.82	1818.21
584.17	1820.29
584.53	1822.93
584.88	1824.19
585.23	1824.12
585.58	1824.33
585.93	1823.86
586.28	1824.00
586.63	1824.36
586.98	1825.90
587.34	1827.40
587.69	1827.36
588.04	1827.31
588.39	1827.38
588.74	1826.67
589.09	1826.00
589.44	1823.64
589.79	1823.50
590.14	1823.26
590.49	1822.74
590.84	1820.38
591.19	1819.48
591.54	1818.14
591.89	1815.40
592.25	1815.64
592.60	1814.48
592.95	1813.64
593.30	1813.21
593.65	1811.43
594.00	1808.31
594.35	1811.76
594.70	1808.52
595.05	1806.67
595.40	1804.31
595.75	1802.55
596.10	1802.40
596.45	1801.81
596.80	1801.12
597.15	1799.57
597.50	1797.26
597.85	1797.24
598.19	1796.05
598.54	1794.83
598.89	1793.74
599.24	1792.90
599.59	1789.74
599.94	1787.88
600.29	1786.76
600.64	1784.67
600.99	1783.86
601.34	1783.10
601.69	1775.26
602.04	1774.14
602.39	1772.14
602.74	1770.71
603.08	1768.57
603.43	1766.74
603.78	1764.05
604.13	1761.05
604.48	1757.21
604.83	1755.31
605.18	1751.38
605.53	1748.38
605.87	1744.88
606.22	1741.55
606.57	1737.93
606.92	1734.67
607.27	1730.98
607.62	1727.05
607.96	1724.14
608.31	1720.36
608.66	1716.71
609.01	1712.98
609.36	1710.02
609.70	1705.38
610.05	1701.43
610.40	1696.88
610.75	1691.40
611.10	1687.74
611.44	1683.81
611.79	1679.50
612.14	1675.00
612.49	1670.19
612.83	1664.69
613.18	1659.74
613.53	1653.88
613.88	1648.45
614.22	1642.71
614.57	1637.86
614.92	1632.74
615.27	1627.26
615.61	1621.83
615.96	1615.69
616.31	1609.93
616.65	1604.67
617.00	1600.57
617.35	1595.31
617.70	1590.07
618.04	1584.64
618.39	1578.05
618.74	1572.60
619.08	1566.93
619.43	1560.98
619.78	1555.40
620.12	1551.02
620.47	1546.07
620.82	1540.74
621.16	1534.45
621.51	1531.36
621.85	1525.74
622.20	1519.40
622.55	1513.02
622.89	1506.93
623.24	1502.14
623.59	1496.71
623.93	1490.83
624.28	1484.48
624.62	1481.24
624.97	1476.86
625.32	1471.67
625.66	1466.79
626.01	1460.24
626.35	1455.79
626.70	1450.50
627.04	1445.83
627.39	1440.52
627.73	1435.55
628.08	1431.98
628.43	1427.52
628.77	1420.52
629.12	1415.52
629.46	1410.90
629.81	1405.48
630.15	1399.38
630.50	1393.55
630.84	1387.43
631.19	1380.83
631.53	1375.19
631.88	1365.69
632.22	1357.24
632.57	1351.86
632.91	1345.10
633.26	1340.31
633.60	1333.21
633.95	1326.88
634.29	1320.07
634.64	1313.55
634.98	1305.95
635.32	1298.93
635.67	1294.00
636.01	1288.05
636.36	1280.98
636.70	1275.05
637.05	1269.26
637.39	1263.79
637.73	1258.14
638.08	1253.38
638.42	1248.00
638.77	1242.24
639.11	1236.90
639.45	1232.90
639.80	1226.07
640.14	1220.19
640.49	1213.50
640.83	1207.43
641.17	1201.24
641.52	1194.48
641.86	1187.81
642.20	1183.52
642.55	1177.05
642.89	1169.64
643.23	1163.24
643.58	1158.57
643.92	1150.71
644.26	1143.62
644.61	1137.57
644.95	1131.12
645.29	1123.19
645.64	1116.90
645.98	1110.14
646.32	1104.33
646.66	1096.76
647.01	1090.64
647.35	1084.98
647.69	1078.62
648.04	1072.86
648.38	1066.55
648.72	1060.74
649.06	1054.50
649.41	1047.05
649.75	1040.07
650.09	1033.31
650.43	1026.21
650.78	1018.52
651.12	1012.40
651.46	1006.19
651.80	999.55
652.14	992.95
652.49	987.21
652.83	980.62
653.17	973.24
653.51	966.40
653.85	960.21
654.20	953.43
654.54	945.86
654.88	938.79
655.22	933.07
655.56	926.19
655.90	919.43
656.25	912.83
656.59	906.21
656.93	900.64
657.27	895.71
657.61	889.36
657.95	883.90
658.29	877.88
658.64	872.69
658.98	866.05
659.32	859.69
659.66	853.88
660.00	848.38
660.34	843.31
660.68	837.43
661.02	831.14
661.36	825.17
661.70	820.02
662.05	815.05
662.39	809.10
662.73	804.52
663.07	800.33
663.41	795.10
663.75	789.45
664.09	783.81
664.43	777.43
664.77	773.00
665.11	767.10
665.45	761.86
665.79	756.55
666.13	751.64
666.47	746.43
666.81	741.17
667.15	735.31
667.49	730.19
667.83	725.93
668.17	721.52
668.51	716.45
668.85	711.62
669.19	707.62
669.53	702.48
669.87	696.76
670.21	690.86
670.55	686.29
670.89	682.74
671.23	677.71
671.57	673.38
671.91	668.69
672.25	664.24
672.58	660.76
672.92	655.33
673.26	651.12
673.60	646.67
673.94	642.38
674.28	638.17
674.62	634.14
674.96	629.50
675.30	625.05
675.64	621.21
675.97	616.48
676.31	611.71
676.65	606.69
676.99	603.67
677.33	599.55
677.67	595.88
678.01	590.86
678.34	587.95
678.68	584.38
679.02	579.93
679.36	576.24
679.70	571.45
680.04	567.86
680.37	564.24
680.71	560.31
681.05	556.57
681.39	552.71
681.73	548.79
682.06	545.05
682.40	540.76
682.74	537.24
683.08	534.76
683.42	530.57
683.75	527.33
684.09	522.69
684.43	519.05
684.77	514.57
685.10	511.17
685.44	506.93
685.78	502.86
686.12	499.76
686.45	495.90
686.79	492.19
687.13	489.26
687.46	485.33
687.80	482.88
688.14	479.45
688.48	476.55
688.81	473.55
689.15	470.69
689.49	468.19
689.82	465.05
690.16	461.38
690.50	458.48
690.83	455.24
691.17	451.69
691.51	449.19
691.84	446.88
692.18	443.95
692.52	441.10
692.85	438.90
693.19	436.43
693.52	433.60
693.86	430.74
694.20	427.38
694.53	424.88
694.87	421.93
695.21	419.45
695.54	416.43
695.88	413.07
696.21	409.76
696.55	407.05
696.88	404.45
697.22	401.74
697.56	399.40
697.89	396.93
698.23	395.48
698.56	392.71
698.90	390.31
699.23	388.00
699.57	385.95
699.90	383.02
700.24	380.43
700.58	378.17
700.91	376.64
701.25	376.52
701.58	375.21
701.92	373.64
702.25	371.67
702.59	369.52
702.92	367.98
703.26	366.50
703.59	364.57
703.93	364.52
704.26	363.12
704.60	361.57
704.93	359.67
705.26	357.50
705.60	356.40
705.93	354.36
706.27	353.14
706.60	351.90
706.94	351.24
707.27	349.69
707.61	348.38
707.94	346.48
708.27	343.14
708.61	340.76
708.94	338.83
709.28	337.21
709.61	335.57
709.94	334.19
710.28	332.45
710.61	331.14
710.95	327.38
711.28	326.88
711.61	325.14
711.95	324.40
712.28	322.98
712.61	321.17
712.95	320.81
713.28	320.05
713.61	318.07
713.95	315.67
714.28	314.69
714.61	313.43
714.95	312.24
715.28	310.69
715.61	309.14
715.95	308.17
716.28	306.81
716.61	306.17
716.95	304.83
717.28	303.69
717.61	302.48
717.94	301.60
718.28	298.95
718.61	297.67
718.94	296.05
719.27	294.64
719.61	293.50
719.94	291.93
720.27	289.93
720.60	288.76
720.94	288.19
721.27	286.76
721.60	286.10
721.93	285.17
722.27	284.93
722.60	284.48
722.93	282.95
723.26	282.36
723.59	281.24
723.93	280.57
724.26	279.98
724.59	279.14
724.92	278.71
725.25	278.74
725.59	278.19
725.92	278.02
726.25	277.48
726.58	276.90
726.91	276.26
727.24	275.90
727.57	275.00
727.91	273.86
728.24	273.55
728.57	272.21
728.90	271.60
729.23	270.40
729.56	270.57
729.89	270.36
730.22	269.57
730.55	268.98
730.89	268.31
731.22	267.24
731.55	266.55
731.88	265.74
732.21	264.50
732.54	263.60
732.87	262.88
733.20	262.57
733.53	261.88
733.86	261.36
734.19	260.31
734.52	260.24
734.85	261.60
735.18	260.69
735.51	260.95
735.84	260.67
736.17	260.90
736.50	259.52
736.83	260.98
737.16	260.48
737.49	259.79
737.82	259.24
738.15	259.21
738.48	258.67
738.81	258.07
739.14	257.57
739.47	257.21
739.80	256.29
740.13	255.76
740.46	255.05
740.79	254.26
741.12	254.10
741.45	253.31
741.78	251.40
742.11	251.64
742.44	250.88
742.77	250.43
743.10	249.21
743.43	248.64
743.75	246.05
744.08	248.14
744.41	247.71
744.74	247.12
745.07	246.00
745.40	245.81
745.73	246.45
746.06	246.07
746.39	245.69
746.71	245.57
747.04	244.90
747.37	244.71
747.70	244.79
748.03	244.57
748.36	244.57
748.68	244.29
749.01	243.24
749.34	243.02
749.67	242.76
750.00	242.98
750.33	243.95
750.65	243.83
750.98	241.02
751.31	240.76
751.64	240.76
751.97	241.93
752.29	241.60
752.62	240.29
752.95	239.98
753.28	239.76
753.60	239.24
753.93	239.67
754.26	239.40
754.59	238.64
754.91	238.12
755.24	237.71
755.57	237.21
755.90	237.07
756.22	236.71
756.55	236.48
756.88	235.64
757.20	234.12
757.53	233.40
757.86	233.05
758.19	233.07
758.51	232.83
758.84	231.67
759.17	231.33
759.49	231.19
759.82	232.02
760.15	231.79
760.47	231.62
760.80	231.07
761.13	231.33
761.45	231.00
761.78	230.76
762.11	230.52
762.43	230.36
762.76	230.07
763.08	229.74
763.41	229.45
763.74	229.76
764.06	229.64
764.39	229.43
764.71	229.24
765.04	228.95
765.37	228.40
765.69	227.98
766.02	227.55
766.34	227.36
766.67	226.38
767.00	226.67
767.32	227.48
767.65	228.31
767.97	227.93
768.30	228.14
768.62	228.05
768.95	227.98
769.27	227.62
769.60	227.69
769.92	227.57
770.25	227.10
770.57	226.43
770.90	226.33
771.22	226.10
771.55	226.14
771.87	226.19
772.20	226.12
772.52	228.00
772.85	230.60
773.17	230.48
773.50	230.17
773.82	229.57
774.15	228.71
774.47	227.40
774.80	226.93
775.12	226.69
775.45	226.45
775.77	226.17
776.09	226.48
776.42	226.52
776.74	226.81
777.07	226.55
777.39	226.74
777.72	226.31
778.04	226.62
778.36	226.14
778.69	225.93
779.01	226.12
779.33	224.02
779.66	221.45
779.98	221.05
780.31	221.05
780.63	221.90
780.95	222.00
781.28	221.90
781.60	221.74
781.92	221.74
782.25	221.98
782.57	221.71
782.89	221.24
783.22	220.83
783.54	220.33
783.86	220.38
784.19	219.95
784.51	220.74
784.83	220.24
785.16	220.48
785.48	220.17
