SpectraSuite Data File
++++++++++++++++++++++++++++++++++++
Date: Tue Apr 02 18:42:44 EDT 2013
User: group
Dark Spectrum Present: No
Reference Spectrum Present: No
Number of Sampled Component Spectra: 1
Spectrometers: USB2E7196
Integration Time (usec): 580000 (USB2E7196)
Spectra Averaged: 2 (USB2E7196)
Boxcar Smoothing: 10 (USB2E7196)
Correct for Electrical Dark: No (USB2E7196)
Strobe/Lamp Enabled: No (USB2E7196)
Correct for Detector Non-linearity: No (USB2E7196)
Correct for Stray Light: No (USB2E7196)
Number of Pixels in Processed Spectrum: 2048
>>>>>Begin Processed Spectral Data<<<<<
339.09	0.00
339.48	192.00
339.86	195.00
340.24	199.00
340.63	196.00
341.01	227.50
341.39	203.00
341.78	207.50
342.16	207.50
342.54	205.00
342.93	196.62
343.31	206.36
343.69	206.90
344.07	207.24
344.46	207.83
344.84	208.36
345.22	207.29
345.60	207.64
345.99	207.67
346.37	207.88
346.75	208.14
347.13	208.19
347.52	208.48
347.90	209.38
348.28	209.50
348.66	209.79
349.05	209.45
349.43	209.88
349.81	210.07
350.19	209.98
350.57	210.21
350.96	210.50
351.34	210.95
351.72	211.10
352.10	211.52
352.48	211.55
352.87	211.48
353.25	211.67
353.63	211.48
354.01	211.57
354.39	211.67
354.77	211.69
355.15	212.33
355.54	212.19
355.92	211.24
356.30	211.50
356.68	213.14
357.06	213.33
357.44	212.98
357.82	213.14
358.20	214.24
358.58	214.14
358.97	214.17
359.35	214.52
359.73	215.12
360.11	215.17
360.49	215.02
360.87	215.29
361.25	215.60
361.63	216.60
362.01	216.76
362.39	216.55
362.77	216.79
363.15	216.74
363.53	216.79
363.91	217.31
364.29	217.36
364.67	215.40
365.05	215.69
365.43	216.17
365.81	216.60
366.19	216.62
366.57	217.79
366.95	217.67
367.33	217.05
367.71	217.00
368.09	217.36
368.47	217.45
368.85	217.36
369.23	217.88
369.61	217.07
369.99	217.71
370.37	217.90
370.75	218.81
371.13	218.38
371.51	217.95
371.89	218.19
372.27	218.38
372.65	218.43
373.03	218.43
373.41	218.40
373.78	218.14
374.16	217.12
374.54	216.29
374.92	216.14
375.30	216.21
375.68	215.93
376.06	216.12
376.44	216.17
376.82	216.31
377.19	216.05
377.57	216.00
377.95	215.31
378.33	215.24
378.71	213.95
379.09	214.17
379.47	214.69
379.84	214.24
380.22	213.93
380.60	213.74
380.98	213.50
381.36	213.33
381.73	212.98
382.11	213.67
382.49	213.88
382.87	213.60
383.25	213.81
383.62	216.21
384.00	215.60
384.38	215.45
384.76	215.88
385.13	216.64
385.51	216.57
385.89	216.55
386.27	216.60
386.64	217.02
387.02	217.05
387.40	216.83
387.78	217.19
388.15	217.05
388.53	216.98
388.91	216.86
389.29	216.71
389.66	216.81
390.04	216.40
390.42	216.76
390.79	216.90
391.17	216.69
391.55	214.14
391.92	214.17
392.30	214.64
392.68	214.24
393.05	214.10
393.43	214.17
393.81	214.21
394.18	214.17
394.56	214.00
394.94	214.33
395.31	214.07
395.69	214.50
396.06	214.98
396.44	215.14
396.82	215.24
397.19	216.43
397.57	216.50
397.95	216.81
398.32	216.10
398.70	216.31
399.07	216.79
399.45	216.98
399.82	216.90
400.20	216.36
400.58	216.29
400.95	215.38
401.33	215.98
401.70	217.40
402.08	217.55
402.45	217.81
402.83	218.14
403.20	218.74
403.58	218.55
403.95	219.10
404.33	219.62
404.71	220.00
405.08	220.83
405.46	221.12
405.83	221.81
406.21	222.12
406.58	222.64
406.96	223.00
407.33	223.67
407.70	224.45
408.08	226.64
408.45	227.55
408.83	228.83
409.20	229.02
409.58	228.60
409.95	229.64
410.33	230.62
410.70	231.12
411.08	232.05
411.45	233.05
411.82	233.74
412.20	235.21
412.57	237.43
412.95	237.33
413.32	239.14
413.69	240.24
414.07	241.71
414.44	243.36
414.82	245.36
415.19	247.81
415.56	250.14
415.94	251.36
416.31	254.19
416.68	257.14
417.06	260.74
417.43	264.31
417.81	267.60
418.18	271.67
418.55	275.14
418.93	279.26
419.30	283.31
419.67	288.10
420.04	292.69
420.42	297.17
420.79	304.43
421.16	309.95
421.54	317.12
421.91	323.48
422.28	329.88
422.66	336.64
423.03	344.45
423.40	351.45
423.77	358.74
424.15	365.95
424.52	372.88
424.89	381.21
425.26	388.88
425.64	396.81
426.01	404.38
426.38	413.36
426.75	422.76
427.13	432.31
427.50	441.93
427.87	451.40
428.24	461.31
428.61	469.38
428.99	480.62
429.36	490.86
429.73	502.24
430.10	513.48
430.47	524.48
430.85	535.07
431.22	547.74
431.59	562.55
431.96	574.93
432.33	589.40
432.70	603.26
433.08	619.95
433.45	635.57
433.82	650.81
434.19	668.45
434.56	685.17
434.93	700.88
435.30	717.00
435.68	735.50
436.05	752.62
436.42	769.90
436.79	785.98
437.16	803.21
437.53	821.19
437.90	839.40
438.27	857.83
438.64	876.19
439.01	893.17
439.38	907.02
439.75	922.33
440.13	939.38
440.50	955.52
440.87	967.93
441.24	981.17
441.61	996.40
441.98	1006.24
442.35	1018.24
442.72	1031.33
443.09	1044.79
443.46	1052.17
443.83	1057.62
444.20	1062.57
444.57	1068.14
444.94	1071.19
445.31	1074.81
445.68	1081.05
446.05	1081.90
446.42	1080.55
446.79	1079.79
447.16	1078.07
447.53	1076.95
447.90	1070.81
448.27	1063.69
448.64	1055.05
449.01	1048.48
449.37	1036.88
449.74	1026.62
450.11	1015.57
450.48	1000.95
450.85	984.38
451.22	971.45
451.59	959.81
451.96	948.14
452.33	932.76
452.70	918.76
453.07	901.64
453.43	881.79
453.80	865.83
454.17	849.67
454.54	833.67
454.91	817.26
455.28	801.26
455.65	785.88
456.02	774.57
456.38	761.69
456.75	746.29
457.12	733.40
457.49	720.10
457.86	705.62
458.23	695.50
458.59	684.17
458.96	671.93
459.33	660.69
459.70	649.76
460.07	641.36
460.43	631.50
460.80	622.74
461.17	614.81
461.54	606.33
461.91	598.76
462.27	590.60
462.64	583.90
463.01	576.26
463.38	569.52
463.74	558.98
464.11	552.40
464.48	546.26
464.85	539.57
465.21	535.10
465.58	530.00
465.95	523.14
466.32	518.24
466.68	512.90
467.05	507.79
467.42	502.71
467.78	497.60
468.15	492.81
468.52	489.02
468.88	483.69
469.25	478.90
469.62	475.76
469.98	471.81
470.35	468.07
470.72	464.76
471.08	460.40
471.45	457.50
471.82	454.98
472.18	451.83
472.55	449.74
472.92	446.29
473.28	443.38
473.65	440.74
474.02	438.00
474.38	436.12
474.75	434.33
475.11	432.21
475.48	430.55
475.85	429.14
476.21	427.19
476.58	425.86
476.94	424.69
477.31	422.81
477.67	421.71
478.04	420.40
478.41	419.62
478.77	420.93
479.14	419.88
479.50	419.26
479.87	418.81
480.23	418.21
480.60	418.24
480.96	418.36
481.33	419.07
481.69	419.00
482.06	419.36
482.42	419.88
482.79	420.12
483.15	420.02
483.52	420.50
483.88	421.07
484.25	421.52
484.61	422.43
484.98	422.83
485.34	424.45
485.71	426.07
486.07	427.48
486.44	427.48
486.80	429.10
487.17	430.19
487.53	432.86
487.90	435.26
488.26	437.52
488.62	440.02
488.99	441.93
489.35	444.81
489.72	447.38
490.08	449.86
490.44	452.86
490.81	456.43
491.17	459.74
491.54	463.26
491.90	467.12
492.26	470.71
492.63	474.90
492.99	478.07
493.36	482.26
493.72	486.64
494.08	490.95
494.45	495.50
494.81	500.74
495.17	505.14
495.54	509.86
495.90	514.57
496.26	519.19
496.63	524.48
496.99	529.38
497.35	535.00
497.72	541.40
498.08	547.17
498.44	553.00
498.80	559.60
499.17	565.90
499.53	572.05
499.89	579.07
500.26	585.69
500.62	592.74
500.98	599.67
501.34	606.00
501.71	612.62
502.07	619.71
502.43	626.05
502.79	633.12
503.16	640.05
503.52	647.57
503.88	654.79
504.24	662.60
504.60	670.14
504.97	677.95
505.33	684.69
505.69	693.60
506.05	701.50
506.41	708.88
506.78	716.26
507.14	724.02
507.50	731.88
507.86	739.62
508.22	747.31
508.59	754.60
508.95	763.26
509.31	772.00
509.67	779.90
510.03	787.83
510.39	795.38
510.75	803.40
511.12	810.98
511.48	819.12
511.84	826.69
512.20	834.93
512.56	842.38
512.92	851.10
513.28	857.86
513.64	864.86
514.00	871.93
514.37	879.31
514.73	886.67
515.09	894.21
515.45	901.36
515.81	908.45
516.17	915.52
516.53	921.62
516.89	927.33
517.25	933.40
517.61	941.19
517.97	947.83
518.33	954.55
518.69	961.38
519.05	967.79
519.41	973.60
519.77	980.98
520.13	986.64
520.49	991.43
520.85	997.31
521.21	1004.12
521.57	1010.38
521.93	1015.43
522.29	1021.02
522.65	1025.86
523.01	1031.60
523.37	1036.57
523.73	1042.05
524.09	1047.90
524.45	1052.43
524.81	1058.02
525.17	1062.02
525.53	1066.88
525.89	1071.50
526.25	1075.95
526.61	1080.07
526.97	1085.19
527.33	1088.60
527.68	1095.17
528.04	1100.12
528.40	1103.90
528.76	1107.29
529.12	1111.26
529.48	1116.48
529.84	1120.40
530.20	1124.64
530.56	1128.98
530.91	1133.14
531.27	1137.24
531.63	1140.60
531.99	1145.57
532.35	1149.60
532.71	1153.60
533.07	1158.17
533.42	1165.00
533.78	1168.55
534.14	1173.52
534.50	1176.60
534.86	1181.05
535.21	1183.14
535.57	1187.71
535.93	1192.14
536.29	1197.83
536.65	1201.86
537.00	1205.64
537.36	1209.95
537.72	1212.93
538.08	1216.62
538.44	1220.26
538.79	1224.40
539.15	1228.02
539.51	1231.45
539.87	1234.31
540.22	1237.69
540.58	1240.81
540.94	1241.48
541.29	1245.40
541.65	1247.02
542.01	1250.90
542.37	1253.14
542.72	1255.69
543.08	1257.52
543.44	1261.00
543.79	1261.95
544.15	1264.71
544.51	1267.67
544.87	1270.19
545.22	1274.62
545.58	1277.19
545.94	1280.17
546.29	1282.98
546.65	1285.86
547.01	1288.62
547.36	1292.02
547.72	1294.45
548.07	1297.12
548.43	1300.26
548.79	1301.90
549.14	1305.17
549.50	1308.48
549.86	1310.55
550.21	1313.79
550.57	1316.93
550.92	1318.95
551.28	1322.67
551.64	1325.90
551.99	1329.10
552.35	1332.81
552.70	1335.48
553.06	1338.83
553.41	1341.71
553.77	1345.67
554.13	1349.55
554.48	1354.26
554.84	1358.90
555.19	1362.81
555.55	1368.10
555.90	1371.74
556.26	1376.64
556.61	1380.60
556.97	1383.79
557.32	1388.48
557.68	1392.29
558.03	1396.29
558.39	1400.43
558.74	1404.12
559.10	1408.62
559.45	1413.00
559.81	1416.38
560.16	1419.98
560.52	1424.00
560.87	1429.57
561.23	1433.14
561.58	1438.62
561.94	1441.98
562.29	1445.33
562.64	1450.00
563.00	1452.79
563.35	1456.48
563.71	1461.05
564.06	1466.12
564.42	1471.07
564.77	1477.00
565.12	1483.81
565.48	1491.17
565.83	1497.19
566.19	1503.12
566.54	1509.10
566.89	1514.36
567.25	1521.21
567.60	1528.90
567.96	1536.36
568.31	1542.90
568.66	1549.43
569.02	1553.74
569.37	1559.17
569.72	1565.19
570.08	1570.52
570.43	1577.40
570.78	1584.00
571.14	1589.50
571.49	1595.00
571.84	1601.21
572.20	1606.10
572.55	1610.83
572.90	1614.07
573.26	1618.45
573.61	1623.55
573.96	1627.76
574.31	1632.17
574.67	1635.10
575.02	1637.62
575.37	1639.36
575.72	1641.52
576.08	1644.71
576.43	1648.24
576.78	1651.88
577.13	1655.00
577.49	1658.83
577.84	1661.86
578.19	1665.33
578.54	1668.98
578.90	1672.71
579.25	1674.83
579.60	1676.98
579.95	1679.02
580.30	1682.36
580.66	1685.10
581.01	1687.29
581.36	1689.69
581.71	1692.90
582.06	1697.83
582.42	1701.50
582.77	1704.48
583.12	1708.26
583.47	1711.62
583.82	1715.10
584.17	1718.10
584.53	1721.26
584.88	1725.00
585.23	1728.33
585.58	1730.43
585.93	1732.40
586.28	1734.88
586.63	1737.83
586.98	1741.33
587.34	1744.71
587.69	1746.86
588.04	1749.69
588.39	1752.33
588.74	1753.62
589.09	1756.31
589.44	1755.24
589.79	1756.74
590.14	1759.33
590.49	1760.12
590.84	1760.64
591.19	1762.02
591.54	1763.40
591.89	1764.79
592.25	1768.12
592.60	1768.17
592.95	1769.24
593.30	1770.86
593.65	1771.00
594.00	1771.38
594.35	1778.12
594.70	1777.67
595.05	1778.90
595.40	1780.24
595.75	1779.86
596.10	1781.36
596.45	1781.00
596.80	1782.33
597.15	1782.93
597.50	1783.83
597.85	1784.74
598.19	1785.12
598.54	1785.76
598.89	1786.24
599.24	1786.79
599.59	1784.64
599.94	1784.33
600.29	1785.31
600.64	1785.79
600.99	1786.60
601.34	1788.02
601.69	1781.07
602.04	1780.43
602.39	1780.10
602.74	1779.88
603.08	1780.24
603.43	1780.33
603.78	1779.98
604.13	1780.26
604.48	1779.24
604.83	1778.90
605.18	1778.52
605.53	1778.40
605.87	1777.12
606.22	1775.12
606.57	1773.24
606.92	1771.76
607.27	1771.76
607.62	1770.52
607.96	1769.76
608.31	1769.83
608.66	1767.50
609.01	1766.14
609.36	1765.88
609.70	1763.69
610.05	1759.86
610.40	1758.79
610.75	1755.74
611.10	1753.57
611.44	1751.17
611.79	1748.93
612.14	1745.26
612.49	1741.52
612.83	1738.74
613.18	1736.17
613.53	1734.14
613.88	1731.33
614.22	1728.33
614.57	1723.55
614.92	1719.29
615.27	1714.67
615.61	1709.36
615.96	1705.10
616.31	1701.45
616.65	1698.95
617.00	1695.52
617.35	1693.07
617.70	1688.50
618.04	1685.38
618.39	1681.07
618.74	1678.07
619.08	1673.95
619.43	1670.45
619.78	1666.64
620.12	1662.62
620.47	1658.57
620.82	1653.69
621.16	1648.50
621.51	1645.24
621.85	1641.52
622.20	1637.57
622.55	1632.79
622.89	1628.52
623.24	1625.17
623.59	1621.21
623.93	1616.43
624.28	1612.67
624.62	1610.50
624.97	1608.07
625.32	1604.00
625.66	1600.43
626.01	1595.50
626.35	1591.45
626.70	1587.57
627.04	1584.88
627.39	1580.38
627.73	1575.98
628.08	1572.45
628.43	1568.69
628.77	1563.95
629.12	1560.43
629.46	1557.10
629.81	1553.38
630.15	1548.71
630.50	1543.64
630.84	1538.76
631.19	1532.50
631.53	1527.14
631.88	1519.26
632.22	1512.12
632.57	1506.24
632.91	1501.10
633.26	1495.79
633.60	1490.71
633.95	1483.90
634.29	1477.17
634.64	1472.36
634.98	1467.10
635.32	1463.50
635.67	1459.90
636.01	1454.67
636.36	1448.90
636.70	1443.86
637.05	1438.45
637.39	1434.14
637.73	1429.98
638.08	1425.52
638.42	1421.50
638.77	1416.90
639.11	1412.81
639.45	1408.38
639.80	1403.36
640.14	1397.83
640.49	1392.69
640.83	1386.98
641.17	1383.24
641.52	1378.07
641.86	1372.64
642.20	1368.64
642.55	1361.69
642.89	1355.55
643.23	1349.57
643.58	1344.93
643.92	1337.98
644.26	1332.76
644.61	1327.02
644.95	1320.76
645.29	1314.52
645.64	1308.60
645.98	1302.02
646.32	1296.21
646.66	1289.17
647.01	1282.29
647.35	1276.60
647.69	1270.50
648.04	1265.48
648.38	1259.60
648.72	1254.64
649.06	1247.88
649.41	1239.93
649.75	1233.36
650.09	1226.36
650.43	1220.07
650.78	1212.69
651.12	1206.31
651.46	1199.12
651.80	1192.14
652.14	1185.60
652.49	1180.05
652.83	1173.45
653.17	1166.38
653.51	1158.76
653.85	1152.26
654.20	1146.67
654.54	1139.55
654.88	1132.48
655.22	1125.79
655.56	1117.71
655.90	1110.64
656.25	1103.98
656.59	1097.90
656.93	1091.33
657.27	1085.88
657.61	1079.52
657.95	1073.43
658.29	1066.83
658.64	1061.95
658.98	1055.36
659.32	1049.00
659.66	1041.40
660.00	1034.98
660.34	1028.33
660.68	1022.38
661.02	1016.21
661.36	1009.64
661.70	1004.10
662.05	998.33
662.39	991.50
662.73	986.76
663.07	981.33
663.41	975.36
663.75	968.79
664.09	964.10
664.43	957.38
664.77	951.07
665.11	944.43
665.45	938.19
665.79	931.33
666.13	925.26
666.47	918.86
666.81	912.74
667.15	906.31
667.49	901.57
667.83	897.07
668.17	891.71
668.51	886.71
668.85	881.12
669.19	876.02
669.53	870.67
669.87	864.43
670.21	858.26
670.55	852.40
670.89	847.83
671.23	840.98
671.57	835.36
671.91	829.52
672.25	824.19
672.58	820.10
672.92	814.50
673.26	810.24
673.60	805.14
673.94	800.71
674.28	795.52
674.62	790.52
674.96	784.95
675.30	780.40
675.64	775.12
675.97	769.69
676.31	763.90
676.65	758.40
676.99	754.69
677.33	749.38
677.67	744.93
678.01	739.14
678.34	735.21
678.68	731.10
679.02	726.10
679.36	721.69
679.70	716.12
680.04	711.64
680.37	705.79
680.71	700.93
681.05	696.81
681.39	692.98
681.73	688.17
682.06	682.90
682.40	678.14
682.74	673.71
683.08	669.93
683.42	665.90
683.75	662.02
684.09	656.36
684.43	651.71
684.77	647.19
685.10	643.29
685.44	638.45
685.78	633.81
686.12	630.00
686.45	625.33
686.79	621.02
687.13	617.10
687.46	612.88
687.80	609.21
688.14	604.31
688.48	600.05
688.81	596.05
689.15	592.74
689.49	588.36
689.82	584.40
690.16	579.14
690.50	574.90
690.83	570.14
691.17	565.48
691.51	561.81
691.84	558.19
692.18	554.24
692.52	550.07
692.85	546.60
693.19	543.60
693.52	539.98
693.86	536.05
694.20	531.98
694.53	528.31
694.87	524.17
695.21	520.38
695.54	516.69
695.88	512.60
696.21	507.81
696.55	504.50
696.88	501.00
697.22	497.62
697.56	494.26
697.89	491.07
698.23	488.38
698.56	484.86
698.90	481.88
699.23	477.98
699.57	475.10
699.90	471.45
700.24	467.45
700.58	464.33
700.91	461.62
701.25	460.12
701.58	458.05
701.92	455.86
702.25	452.93
702.59	449.50
702.92	446.81
703.26	444.67
703.59	441.62
703.93	440.55
704.26	438.17
704.60	435.74
704.93	433.21
705.26	430.43
705.60	428.33
705.93	424.95
706.27	423.36
706.60	421.31
706.94	419.57
707.27	417.02
707.61	414.64
707.94	411.93
708.27	408.02
708.61	405.07
708.94	402.52
709.28	400.74
709.61	398.69
709.94	396.74
710.28	394.31
710.61	392.21
710.95	388.14
711.28	387.45
711.61	384.62
711.95	383.05
712.28	380.76
712.61	378.62
712.95	377.64
713.28	376.19
713.61	373.74
713.95	371.07
714.28	369.52
714.61	367.62
714.95	365.95
715.28	363.50
715.61	361.50
715.95	359.52
716.28	357.02
716.61	355.57
716.95	353.24
717.28	351.64
717.61	349.71
717.94	347.83
718.28	344.57
718.61	343.21
718.94	340.76
719.27	339.00
719.61	337.02
719.94	334.95
720.27	332.29
720.60	330.52
720.94	328.98
721.27	327.24
721.60	326.17
721.93	324.64
722.27	324.43
722.60	323.29
722.93	321.55
723.26	320.45
723.59	318.50
723.93	317.71
724.26	316.57
724.59	315.29
724.92	314.17
725.25	313.86
725.59	312.62
725.92	312.07
726.25	311.21
726.58	310.36
726.91	309.33
727.24	308.60
727.57	307.86
727.91	306.64
728.24	306.00
728.57	304.55
728.90	303.64
729.23	301.71
729.56	301.64
729.89	300.90
730.22	299.90
730.55	299.02
730.89	297.79
731.22	296.69
731.55	295.74
731.88	295.02
732.21	293.57
732.54	292.64
732.87	291.69
733.20	290.79
733.53	289.76
733.86	288.98
734.19	287.81
734.52	286.98
734.85	287.76
735.18	286.45
735.51	286.40
735.84	285.95
736.17	285.83
736.50	284.12
736.83	285.88
737.16	285.05
737.49	284.29
737.82	283.40
738.15	282.98
738.48	282.21
738.81	281.31
739.14	280.17
739.47	279.64
739.80	278.55
740.13	278.10
740.46	277.12
740.79	275.79
741.12	275.12
741.45	273.90
741.78	271.93
742.11	271.90
742.44	270.40
742.77	269.60
743.10	268.38
743.43	267.45
743.75	264.50
744.08	266.52
744.41	265.83
744.74	265.10
745.07	264.02
745.40	263.50
745.73	263.74
746.06	263.02
746.39	262.48
746.71	261.62
747.04	260.71
747.37	260.17
747.70	260.02
748.03	259.52
748.36	259.50
748.68	258.93
749.01	257.52
749.34	257.29
749.67	256.67
750.00	256.71
750.33	257.86
750.65	257.50
750.98	254.43
751.31	254.26
751.64	254.10
751.97	255.07
752.29	254.62
752.62	253.24
752.95	252.88
753.28	252.21
753.60	251.86
753.93	252.21
754.26	251.81
754.59	251.02
754.91	250.21
755.24	249.50
755.57	249.05
755.90	248.60
756.22	248.24
756.55	247.86
756.88	246.95
757.20	245.02
757.53	243.69
757.86	243.14
758.19	242.76
758.51	242.07
758.84	240.29
759.17	239.86
759.49	239.45
759.82	240.40
760.15	239.98
760.47	239.62
760.80	238.48
761.13	238.26
761.45	237.81
761.78	237.71
762.11	237.43
762.43	236.76
762.76	236.64
763.08	236.33
763.41	236.00
763.74	235.86
764.06	235.69
764.39	235.90
764.71	235.86
765.04	235.40
765.37	235.00
765.69	234.64
766.02	234.26
766.34	234.02
766.67	232.69
767.00	232.86
767.32	233.98
767.65	235.07
767.97	234.57
768.30	234.52
768.62	234.43
768.95	234.02
769.27	233.88
769.60	233.90
769.92	233.10
770.25	232.36
770.57	231.71
770.90	231.26
771.22	230.86
771.55	230.62
771.87	230.43
772.20	230.29
772.52	231.71
772.85	234.21
773.17	233.93
773.50	233.64
773.82	233.26
774.15	231.79
774.47	230.29
774.80	230.12
775.12	229.71
775.45	229.52
775.77	229.52
776.09	229.69
776.42	229.50
776.74	230.24
777.07	230.21
777.39	230.31
777.72	230.05
778.04	230.17
778.36	229.74
778.69	229.64
779.01	229.83
779.33	228.02
779.66	225.50
779.98	225.21
780.31	225.17
780.63	225.95
780.95	226.24
781.28	226.17
781.60	226.17
781.92	226.14
782.25	225.71
782.57	225.62
782.89	225.07
783.22	224.88
783.54	224.19
783.86	224.45
784.19	224.24
784.51	224.86
784.83	224.19
785.16	224.19
