SpectraSuite Data File
++++++++++++++++++++++++++++++++++++
Date: Tue Apr 02 18:45:47 EDT 2013
User: group
Dark Spectrum Present: No
Reference Spectrum Present: No
Number of Sampled Component Spectra: 1
Spectrometers: USB2E7196
Integration Time (usec): 580000 (USB2E7196)
Spectra Averaged: 2 (USB2E7196)
Boxcar Smoothing: 10 (USB2E7196)
Correct for Electrical Dark: No (USB2E7196)
Strobe/Lamp Enabled: No (USB2E7196)
Correct for Detector Non-linearity: No (USB2E7196)
Correct for Stray Light: No (USB2E7196)
Number of Pixels in Processed Spectrum: 2048
>>>>>Begin Processed Spectral Data<<<<<
339.09	0.00
339.48	197.00
339.86	195.00
340.24	197.00
340.63	198.00
341.01	232.50
341.39	202.50
341.78	210.00
342.16	209.50
342.54	204.50
342.93	197.43
343.31	207.19
343.69	207.62
344.07	208.26
344.46	209.07
344.84	209.71
345.22	208.60
345.60	209.10
345.99	209.14
346.37	209.19
346.75	209.43
347.13	209.74
347.52	209.71
347.90	210.55
348.28	210.48
348.66	211.12
349.05	210.57
349.43	210.81
349.81	211.48
350.19	211.60
350.57	212.02
350.96	212.19
351.34	212.50
351.72	212.67
352.10	212.74
352.48	212.67
352.87	212.64
353.25	212.79
353.63	212.60
354.01	212.67
354.39	213.00
354.77	213.14
355.15	213.74
355.54	213.60
355.92	212.81
356.30	212.95
356.68	214.26
357.06	214.48
357.44	214.38
357.82	214.12
358.20	215.10
358.58	214.98
358.97	214.93
359.35	215.40
359.73	215.81
360.11	215.76
360.49	215.93
360.87	216.00
361.25	216.33
361.63	217.26
362.01	217.45
362.39	217.26
362.77	217.33
363.15	217.14
363.53	217.33
363.91	217.79
364.29	217.79
364.67	215.79
365.05	215.90
365.43	216.10
365.81	216.29
366.19	216.43
366.57	217.21
366.95	217.33
367.33	216.79
367.71	216.76
368.09	217.21
368.47	217.07
368.85	217.00
369.23	217.36
369.61	216.64
369.99	217.12
370.37	217.29
370.75	218.19
371.13	218.00
371.51	217.62
371.89	217.60
372.27	217.71
372.65	217.90
373.03	217.83
373.41	217.69
373.78	217.62
374.16	216.31
374.54	215.64
374.92	215.64
375.30	215.69
375.68	215.36
376.06	215.31
376.44	215.00
376.82	215.12
377.19	214.74
377.57	214.57
377.95	214.12
378.33	214.00
378.71	212.93
379.09	213.17
379.47	213.52
379.84	213.50
380.22	213.38
380.60	213.10
380.98	212.95
381.36	212.90
381.73	212.62
382.11	213.31
382.49	213.38
382.87	213.00
383.25	213.10
383.62	215.36
384.00	214.98
384.38	215.19
384.76	215.57
385.13	216.21
385.51	216.24
385.89	215.90
386.27	216.00
386.64	216.14
387.02	215.76
387.40	215.50
387.78	215.31
388.15	215.38
388.53	215.38
388.91	215.62
389.29	215.55
389.66	215.76
390.04	215.48
390.42	215.86
390.79	215.95
391.17	215.93
391.55	214.00
391.92	214.07
392.30	214.40
392.68	213.95
393.05	213.83
393.43	213.98
393.81	214.14
394.18	213.79
394.56	213.98
394.94	214.45
395.31	214.50
395.69	215.36
396.06	215.69
396.44	215.67
396.82	215.48
397.19	216.50
397.57	216.52
397.95	216.74
398.32	216.14
398.70	216.24
399.07	216.50
399.45	216.02
399.82	216.00
400.20	215.64
400.58	215.69
400.95	214.95
401.33	215.21
401.70	216.81
402.08	216.93
402.45	217.00
402.83	217.48
403.20	217.69
403.58	217.29
403.95	217.60
404.33	218.26
404.71	218.57
405.08	219.60
405.46	219.83
405.83	220.12
406.21	220.62
406.58	221.02
406.96	221.45
407.33	222.50
407.70	223.40
408.08	225.71
408.45	226.67
408.83	227.79
409.20	228.21
409.58	227.52
409.95	228.83
410.33	229.52
410.70	229.79
411.08	230.88
411.45	231.95
411.82	232.81
412.20	234.45
412.57	236.71
412.95	236.40
413.32	238.07
413.69	239.74
414.07	241.36
414.44	243.26
414.82	245.07
415.19	247.10
415.56	249.10
415.94	250.29
416.31	253.02
416.68	255.71
417.06	259.05
417.43	262.36
417.81	265.48
418.18	269.29
418.55	273.21
418.93	277.07
419.30	281.48
419.67	285.95
420.04	290.24
420.42	294.29
420.79	301.14
421.16	306.74
421.54	313.50
421.91	319.69
422.28	326.07
422.66	332.79
423.03	340.79
423.40	347.67
423.77	354.50
424.15	361.45
424.52	369.05
424.89	377.60
425.26	385.52
425.64	393.21
426.01	401.57
426.38	410.29
426.75	419.69
427.13	428.90
427.50	438.12
427.87	447.67
428.24	457.67
428.61	466.45
428.99	477.69
429.36	488.17
429.73	499.26
430.10	510.36
430.47	522.17
430.85	532.71
431.22	544.95
431.59	559.67
431.96	572.36
432.33	586.93
432.70	600.50
433.08	616.50
433.45	631.52
433.82	646.40
434.19	662.86
434.56	679.62
434.93	695.05
435.30	711.14
435.68	728.60
436.05	745.60
436.42	762.05
436.79	777.62
437.16	794.31
437.53	811.79
437.90	829.40
438.27	847.14
438.64	864.64
439.01	881.88
439.38	895.95
439.75	910.74
440.13	926.55
440.50	941.24
440.87	954.21
441.24	967.76
441.61	981.95
441.98	993.36
442.35	1005.36
442.72	1018.12
443.09	1032.29
443.46	1039.86
443.83	1045.21
444.20	1050.64
444.57	1057.00
444.94	1059.79
445.31	1063.86
445.68	1069.26
446.05	1070.31
446.42	1068.83
446.79	1067.98
447.16	1066.05
447.53	1065.21
447.90	1059.21
448.27	1053.43
448.64	1043.98
449.01	1037.26
449.37	1026.79
449.74	1015.21
450.11	1004.02
450.48	989.64
450.85	972.60
451.22	959.69
451.59	948.36
451.96	936.38
452.33	920.69
452.70	907.55
453.07	890.33
453.43	871.02
453.80	854.93
454.17	839.52
454.54	823.62
454.91	807.02
455.28	790.74
455.65	775.93
456.02	764.62
456.38	753.10
456.75	738.50
457.12	724.90
457.49	712.79
457.86	698.69
458.23	688.67
458.59	677.60
458.96	666.50
459.33	655.17
459.70	644.74
460.07	636.62
460.43	627.10
460.80	618.48
461.17	611.48
461.54	603.43
461.91	595.88
462.27	587.90
462.64	581.07
463.01	573.88
463.38	567.45
463.74	556.74
464.11	549.79
464.48	543.69
464.85	537.74
465.21	533.38
465.58	528.48
465.95	521.79
466.32	516.76
466.68	511.31
467.05	506.48
467.42	501.36
467.78	495.83
468.15	490.88
468.52	487.21
468.88	481.48
469.25	476.40
469.62	472.86
469.98	469.29
470.35	466.14
470.72	462.52
471.08	458.00
471.45	455.57
471.82	452.95
472.18	449.40
472.55	446.86
472.92	443.29
473.28	439.88
473.65	437.38
474.02	434.83
474.38	432.81
474.75	431.19
475.11	428.86
475.48	427.29
475.85	425.24
476.21	423.21
476.58	422.38
476.94	421.26
477.31	420.21
477.67	419.00
478.04	417.98
478.41	417.31
478.77	418.55
479.14	417.33
479.50	416.26
479.87	416.21
480.23	416.10
480.60	415.43
480.96	415.40
481.33	416.07
481.69	415.83
482.06	416.10
482.42	416.67
482.79	417.26
483.15	417.14
483.52	418.21
483.88	418.45
484.25	419.12
484.61	419.95
484.98	420.38
485.34	422.02
485.71	423.17
486.07	424.48
486.44	424.36
486.80	425.83
487.17	427.67
487.53	429.81
487.90	431.76
488.26	434.86
488.62	437.64
488.99	439.71
489.35	442.67
489.72	444.98
490.08	447.55
490.44	450.21
490.81	454.19
491.17	456.45
491.54	460.19
491.90	463.60
492.26	467.10
492.63	470.60
492.99	473.93
493.36	478.07
493.72	482.45
494.08	486.60
494.45	491.14
494.81	495.81
495.17	500.19
495.54	505.50
495.90	510.10
496.26	515.14
496.63	520.31
496.99	525.67
497.35	531.55
497.72	537.14
498.08	543.07
498.44	548.81
498.80	555.52
499.17	562.02
499.53	568.07
499.89	575.10
500.26	581.74
500.62	588.19
500.98	595.26
501.34	601.88
501.71	609.07
502.07	616.36
502.43	623.43
502.79	630.50
503.16	637.50
503.52	644.90
503.88	651.55
504.24	658.60
504.60	665.81
504.97	674.00
505.33	681.62
505.69	689.95
506.05	697.81
506.41	705.64
506.78	712.93
507.14	720.52
507.50	728.07
507.86	736.05
508.22	744.40
508.59	751.38
508.95	759.64
509.31	768.19
509.67	775.88
510.03	783.45
510.39	791.19
510.75	799.02
511.12	806.40
511.48	814.12
511.84	821.83
512.20	829.71
512.56	836.55
512.92	844.67
513.28	852.33
513.64	859.48
514.00	867.29
514.37	874.17
514.73	881.48
515.09	889.17
515.45	896.29
515.81	903.00
516.17	909.64
516.53	915.74
516.89	921.71
517.25	928.38
517.61	934.95
517.97	941.86
518.33	948.29
518.69	954.74
519.05	962.10
519.41	968.95
519.77	976.02
520.13	982.14
520.49	986.86
520.85	992.33
521.21	998.38
521.57	1003.93
521.93	1009.90
522.29	1015.74
522.65	1020.38
523.01	1025.50
523.37	1029.95
523.73	1036.07
524.09	1041.26
524.45	1046.02
524.81	1050.98
525.17	1055.62
525.53	1060.05
525.89	1064.67
526.25	1068.90
526.61	1071.88
526.97	1075.69
527.33	1079.60
527.68	1086.10
528.04	1091.05
528.40	1095.05
528.76	1099.50
529.12	1103.60
529.48	1108.90
529.84	1112.48
530.20	1116.74
530.56	1121.43
530.91	1125.83
531.27	1129.67
531.63	1134.12
531.99	1137.45
532.35	1140.88
532.71	1144.76
533.07	1149.86
533.42	1156.64
533.78	1160.83
534.14	1166.02
534.50	1169.43
534.86	1173.74
535.21	1175.26
535.57	1179.52
535.93	1182.43
536.29	1187.14
536.65	1190.50
537.00	1193.74
537.36	1197.14
537.72	1201.07
538.08	1204.45
538.44	1207.33
538.79	1211.52
539.15	1214.19
539.51	1218.86
539.87	1222.93
540.22	1226.29
540.58	1228.52
540.94	1229.38
541.29	1232.69
541.65	1235.29
542.01	1239.26
542.37	1241.79
542.72	1244.60
543.08	1246.60
543.44	1250.36
543.79	1251.00
544.15	1253.67
544.51	1256.98
544.87	1260.36
545.22	1262.57
545.58	1265.62
545.94	1269.02
546.29	1270.93
546.65	1274.10
547.01	1275.60
547.36	1277.81
547.72	1281.00
548.07	1283.90
548.43	1285.48
548.79	1287.21
549.14	1289.36
549.50	1292.24
549.86	1294.05
550.21	1297.62
550.57	1300.52
550.92	1302.74
551.28	1305.74
551.64	1308.52
551.99	1310.12
552.35	1312.93
552.70	1315.81
553.06	1318.21
553.41	1321.76
553.77	1326.57
554.13	1329.76
554.48	1333.74
554.84	1337.79
555.19	1341.21
555.55	1345.74
555.90	1349.50
556.26	1354.40
556.61	1358.14
556.97	1360.33
557.32	1364.21
557.68	1367.12
558.03	1370.74
558.39	1374.48
558.74	1379.31
559.10	1383.98
559.45	1389.00
559.81	1393.10
560.16	1397.17
560.52	1402.24
560.87	1406.67
561.23	1409.12
561.58	1414.79
561.94	1418.24
562.29	1422.45
562.64	1427.02
563.00	1430.88
563.35	1435.07
563.71	1439.21
564.06	1445.10
564.42	1451.24
564.77	1456.93
565.12	1462.93
565.48	1470.17
565.83	1476.81
566.19	1481.71
566.54	1486.93
566.89	1491.31
567.25	1497.74
567.60	1504.24
567.96	1511.60
568.31	1517.50
568.66	1523.05
569.02	1526.50
569.37	1532.48
569.72	1537.74
570.08	1542.43
570.43	1547.10
570.78	1553.14
571.14	1558.45
571.49	1562.36
571.84	1567.40
572.20	1572.00
572.55	1576.79
572.90	1579.83
573.26	1583.43
573.61	1587.26
573.96	1591.90
574.31	1597.00
574.67	1600.29
575.02	1603.21
575.37	1604.74
575.72	1607.40
576.08	1612.33
576.43	1616.83
576.78	1620.55
577.13	1623.81
577.49	1627.95
577.84	1632.95
578.19	1636.12
578.54	1640.14
578.90	1645.43
579.25	1648.19
579.60	1651.24
579.95	1653.31
580.30	1657.52
580.66	1662.33
581.01	1666.67
581.36	1668.81
581.71	1672.21
582.06	1676.62
582.42	1680.57
582.77	1683.29
583.12	1686.71
583.47	1689.79
583.82	1693.52
584.17	1697.17
584.53	1702.02
584.88	1705.26
585.23	1707.71
585.58	1710.69
585.93	1713.62
586.28	1715.29
586.63	1718.81
586.98	1722.50
587.34	1726.64
587.69	1728.31
588.04	1729.69
588.39	1731.79
588.74	1733.57
589.09	1735.62
589.44	1736.62
589.79	1738.60
590.14	1741.14
590.49	1743.29
590.84	1744.50
591.19	1745.64
591.54	1747.57
591.89	1748.21
592.25	1751.52
592.60	1752.24
592.95	1754.50
593.30	1755.62
593.65	1756.36
594.00	1757.05
594.35	1764.05
594.70	1763.40
595.05	1764.90
595.40	1766.00
595.75	1767.07
596.10	1769.90
596.45	1770.64
596.80	1772.12
597.15	1773.48
597.50	1774.43
597.85	1776.12
598.19	1776.95
598.54	1777.98
598.89	1778.31
599.24	1779.33
599.59	1776.64
599.94	1777.14
600.29	1777.48
600.64	1778.05
600.99	1778.98
601.34	1780.33
601.69	1774.31
602.04	1774.88
602.39	1774.67
602.74	1774.79
603.08	1774.40
603.43	1774.88
603.78	1774.79
604.13	1773.95
604.48	1773.60
604.83	1774.07
605.18	1773.19
605.53	1773.14
605.87	1772.38
606.22	1771.76
606.57	1770.14
606.92	1770.71
607.27	1770.67
607.62	1770.05
607.96	1770.02
608.31	1770.19
608.66	1769.21
609.01	1767.40
609.36	1768.21
609.70	1766.69
610.05	1765.21
610.40	1763.40
610.75	1760.64
611.10	1759.71
611.44	1757.83
611.79	1755.38
612.14	1752.02
612.49	1748.69
612.83	1746.40
613.18	1743.69
613.53	1740.60
613.88	1737.55
614.22	1734.55
614.57	1730.26
614.92	1726.00
615.27	1721.67
615.61	1716.67
615.96	1712.36
616.31	1709.36
616.65	1705.60
617.00	1702.76
617.35	1699.48
617.70	1696.50
618.04	1692.74
618.39	1688.60
618.74	1685.31
619.08	1682.05
619.43	1678.52
619.78	1676.29
620.12	1672.95
620.47	1669.48
620.82	1665.45
621.16	1662.14
621.51	1659.24
621.85	1655.19
622.20	1652.33
622.55	1647.71
622.89	1645.26
623.24	1642.60
623.59	1638.74
623.93	1634.64
624.28	1630.79
624.62	1629.43
624.97	1626.33
625.32	1622.71
625.66	1618.93
626.01	1614.17
626.35	1610.19
626.70	1607.02
627.04	1603.26
627.39	1598.86
627.73	1595.81
628.08	1592.98
628.43	1588.31
628.77	1583.88
629.12	1580.17
629.46	1576.38
629.81	1573.38
630.15	1568.48
630.50	1563.62
630.84	1559.40
631.19	1553.76
631.53	1549.21
631.88	1541.21
632.22	1535.71
632.57	1531.79
632.91	1526.50
633.26	1522.48
633.60	1517.40
633.95	1511.69
634.29	1506.02
634.64	1501.81
634.98	1495.88
635.32	1491.50
635.67	1488.19
636.01	1484.12
636.36	1480.17
636.70	1475.90
637.05	1471.29
637.39	1467.14
637.73	1463.33
638.08	1459.64
638.42	1456.21
638.77	1452.02
639.11	1447.79
639.45	1442.81
639.80	1437.10
640.14	1432.43
640.49	1427.98
640.83	1423.17
641.17	1418.67
641.52	1414.33
641.86	1408.71
642.20	1405.21
642.55	1399.71
642.89	1393.79
643.23	1388.17
643.58	1383.83
643.92	1377.14
644.26	1371.81
644.61	1367.43
644.95	1361.57
645.29	1354.95
645.64	1349.52
645.98	1343.26
646.32	1338.60
646.66	1332.83
647.01	1327.48
647.35	1322.79
647.69	1316.62
648.04	1311.31
648.38	1305.90
648.72	1300.07
649.06	1294.48
649.41	1288.19
649.75	1282.00
650.09	1276.48
650.43	1270.67
650.78	1263.95
651.12	1257.88
651.46	1251.40
651.80	1244.76
652.14	1238.12
652.49	1232.79
652.83	1226.43
653.17	1220.02
653.51	1213.64
653.85	1208.21
654.20	1202.14
654.54	1194.62
654.88	1187.98
655.22	1182.12
655.56	1175.74
655.90	1169.50
656.25	1162.38
656.59	1155.43
656.93	1149.12
657.27	1144.12
657.61	1137.43
657.95	1132.05
658.29	1126.50
658.64	1120.52
658.98	1113.86
659.32	1107.40
659.66	1100.83
660.00	1095.10
660.34	1089.40
660.68	1083.05
661.02	1076.45
661.36	1070.45
661.70	1065.19
662.05	1059.60
662.39	1053.60
662.73	1048.50
663.07	1042.86
663.41	1037.48
663.75	1032.21
664.09	1026.88
664.43	1019.60
664.77	1014.00
665.11	1007.17
665.45	1001.38
665.79	996.07
666.13	989.62
666.47	984.45
666.81	978.69
667.15	972.48
667.49	966.90
667.83	962.05
668.17	956.67
668.51	951.14
668.85	945.95
669.19	941.76
669.53	935.55
669.87	929.43
670.21	923.38
670.55	918.12
670.89	913.67
671.23	908.71
671.57	903.29
671.91	898.24
672.25	892.74
672.58	887.62
672.92	881.88
673.26	877.21
673.60	871.52
673.94	866.45
674.28	861.62
674.62	856.98
674.96	851.17
675.30	846.48
675.64	841.38
675.97	836.02
676.31	830.10
676.65	825.00
676.99	821.14
677.33	816.48
677.67	811.76
678.01	805.62
678.34	800.33
678.68	796.02
679.02	790.24
679.36	785.19
679.70	780.05
680.04	774.88
680.37	769.48
680.71	764.74
681.05	759.86
681.39	755.05
681.73	749.93
682.06	745.60
682.40	741.02
682.74	736.60
683.08	732.36
683.42	727.14
683.75	722.95
684.09	717.14
684.43	712.52
684.77	707.38
685.10	702.79
685.44	698.07
685.78	692.98
686.12	688.86
686.45	684.21
686.79	679.17
687.13	675.26
687.46	671.00
687.80	667.21
688.14	662.90
688.48	658.79
688.81	654.17
689.15	650.36
689.49	645.45
689.82	640.86
690.16	635.69
690.50	631.62
690.83	626.95
691.17	622.48
691.51	617.90
691.84	613.74
692.18	609.31
692.52	605.07
692.85	601.50
693.19	598.38
693.52	594.67
693.86	590.67
694.20	586.29
694.53	582.74
694.87	577.83
695.21	573.69
695.54	569.43
695.88	565.48
696.21	560.57
696.55	556.60
696.88	552.95
697.22	548.90
697.56	545.48
697.89	541.60
698.23	537.69
698.56	533.64
698.90	530.19
699.23	526.26
699.57	522.62
699.90	518.69
700.24	514.02
700.58	510.45
700.91	507.50
701.25	505.74
701.58	502.88
701.92	500.33
702.25	496.95
702.59	493.36
702.92	489.83
703.26	486.88
703.59	483.69
703.93	481.69
704.26	479.02
704.60	476.10
704.93	472.74
705.26	469.95
705.60	467.81
705.93	464.40
706.27	462.48
706.60	460.26
706.94	458.43
707.27	455.26
707.61	452.83
707.94	449.95
708.27	445.64
708.61	442.07
708.94	439.31
709.28	436.86
709.61	433.90
709.94	431.67
710.28	429.00
710.61	426.48
710.95	422.07
711.28	421.21
711.61	418.43
711.95	416.74
712.28	414.21
712.61	411.40
712.95	410.02
713.28	408.14
713.61	405.26
713.95	401.93
714.28	399.98
714.61	397.45
714.95	395.26
715.28	392.76
715.61	390.52
715.95	388.19
716.28	385.79
716.61	384.14
716.95	381.76
717.28	379.48
717.61	377.52
717.94	375.45
718.28	371.40
718.61	369.45
718.94	367.50
719.27	365.31
719.61	363.45
719.94	361.12
720.27	358.19
720.60	356.00
720.94	354.38
721.27	352.52
721.60	351.05
721.93	349.14
722.27	348.29
722.60	346.64
722.93	344.52
723.26	343.07
723.59	340.64
723.93	339.33
724.26	337.83
724.59	336.14
724.92	335.26
725.25	334.83
725.59	333.50
725.92	331.71
726.25	330.57
726.58	329.26
726.91	327.81
727.24	326.67
727.57	325.31
727.91	323.48
728.24	322.48
728.57	320.74
728.90	319.86
729.23	317.74
729.56	317.52
729.89	316.45
730.22	314.93
730.55	314.02
730.89	312.95
731.22	311.71
731.55	310.79
731.88	309.60
732.21	307.71
732.54	306.64
732.87	305.88
733.20	304.88
733.53	304.07
733.86	303.17
734.19	301.88
734.52	301.33
734.85	301.69
735.18	300.33
735.51	300.14
735.84	299.38
736.17	299.14
736.50	297.02
736.83	298.50
737.16	297.95
737.49	297.40
737.82	296.26
738.15	295.62
738.48	294.69
738.81	293.64
739.14	292.81
739.47	291.52
739.80	290.38
740.13	289.76
740.46	288.26
740.79	287.02
741.12	286.26
741.45	285.07
741.78	283.24
742.11	283.00
742.44	281.62
742.77	281.12
743.10	280.19
743.43	279.45
743.75	276.57
744.08	278.55
744.41	277.67
744.74	276.64
745.07	275.71
745.40	275.24
745.73	275.38
746.06	274.76
746.39	274.48
746.71	273.69
747.04	272.62
747.37	272.07
747.70	271.98
748.03	271.38
748.36	270.83
748.68	270.17
749.01	268.90
749.34	268.21
749.67	267.21
750.00	266.83
750.33	267.67
750.65	267.36
750.98	263.74
751.31	263.12
751.64	262.74
751.97	263.40
752.29	262.69
752.62	261.26
752.95	260.64
753.28	259.83
753.60	259.24
753.93	259.24
754.26	258.76
754.59	257.48
754.91	256.71
755.24	255.81
755.57	255.33
755.90	254.88
756.22	254.38
756.55	253.50
756.88	252.36
757.20	250.81
757.53	249.36
757.86	249.05
758.19	248.79
758.51	248.79
758.84	246.90
759.17	246.43
759.49	246.02
759.82	246.33
760.15	246.10
760.47	245.74
760.80	245.05
761.13	245.07
761.45	244.74
761.78	244.29
762.11	244.36
762.43	243.90
762.76	243.38
763.08	242.98
763.41	243.07
763.74	242.86
764.06	242.19
764.39	242.17
764.71	241.86
765.04	241.26
765.37	240.21
765.69	239.93
766.02	239.21
766.34	238.76
766.67	237.64
767.00	237.43
767.32	238.07
767.65	238.71
767.97	238.02
768.30	237.88
768.62	237.64
768.95	237.14
769.27	236.83
769.60	237.17
769.92	236.62
770.25	235.67
770.57	235.07
770.90	234.81
771.22	234.24
771.55	234.05
771.87	233.90
772.20	233.71
772.52	235.14
772.85	237.62
773.17	237.38
773.50	237.19
773.82	236.76
774.15	235.62
774.47	234.10
774.80	233.83
775.12	233.38
775.45	233.24
775.77	233.17
776.09	232.93
776.42	232.57
776.74	233.19
777.07	232.95
777.39	232.81
777.72	232.88
778.04	233.14
778.36	232.60
778.69	232.55
779.01	232.67
779.33	230.81
779.66	228.24
779.98	227.93
780.31	227.90
780.63	228.43
780.95	228.67
781.28	228.69
781.60	228.12
781.92	228.10
782.25	227.88
782.57	227.62
782.89	227.45
783.22	227.17
783.54	226.33
783.86	226.52
784.19	226.45
784.51	226.69
784.83	226.17
