SpectraSuite Data File
++++++++++++++++++++++++++++++++++++
Date: Tue Apr 02 18:46:27 EDT 2013
User: group
Dark Spectrum Present: No
Reference Spectrum Present: No
Number of Sampled Component Spectra: 1
Spectrometers: USB2E7196
Integration Time (usec): 580000 (USB2E7196)
Spectra Averaged: 2 (USB2E7196)
Boxcar Smoothing: 10 (USB2E7196)
Correct for Electrical Dark: No (USB2E7196)
Strobe/Lamp Enabled: No (USB2E7196)
Correct for Detector Non-linearity: No (USB2E7196)
Correct for Stray Light: No (USB2E7196)
Number of Pixels in Processed Spectrum: 2048
>>>>>Begin Processed Spectral Data<<<<<
339.09	0.00
339.48	190.50
339.86	193.00
340.24	199.00
340.63	197.00
341.01	227.50
341.39	197.50
341.78	207.00
342.16	211.50
342.54	207.00
342.93	197.00
343.31	206.76
343.69	207.45
344.07	207.98
344.46	208.48
344.84	209.12
345.22	208.19
345.60	208.76
345.99	208.88
346.37	208.76
346.75	208.74
347.13	208.83
347.52	209.29
347.90	209.83
348.28	209.83
348.66	210.48
349.05	209.86
349.43	210.12
349.81	210.43
350.19	210.45
350.57	210.62
350.96	211.12
351.34	211.38
351.72	211.71
352.10	211.95
352.48	211.79
352.87	211.62
353.25	211.67
353.63	211.45
354.01	211.55
354.39	211.79
354.77	211.76
355.15	212.36
355.54	211.98
355.92	211.62
356.30	211.69
356.68	213.10
357.06	213.43
357.44	213.17
357.82	212.88
358.20	214.07
358.58	214.12
358.97	214.00
359.35	214.62
359.73	214.95
360.11	214.98
360.49	215.36
360.87	215.50
361.25	215.67
361.63	216.45
362.01	216.38
362.39	216.17
362.77	216.48
363.15	216.40
363.53	216.55
363.91	216.50
364.29	216.31
364.67	214.26
365.05	214.12
365.43	214.31
365.81	214.88
366.19	214.57
366.57	215.24
366.95	215.00
367.33	214.50
367.71	214.29
368.09	214.67
368.47	214.45
368.85	214.48
369.23	214.90
369.61	214.14
369.99	215.02
370.37	215.24
370.75	216.38
371.13	215.76
371.51	215.48
371.89	215.81
372.27	215.86
372.65	216.12
373.03	216.33
373.41	216.07
373.78	215.62
374.16	214.74
374.54	214.05
374.92	214.14
375.30	213.93
375.68	213.60
376.06	213.64
376.44	213.71
376.82	213.79
377.19	213.57
377.57	213.69
377.95	212.95
378.33	212.74
378.71	211.24
379.09	211.69
379.47	212.10
379.84	211.83
380.22	211.71
380.60	211.29
380.98	210.95
381.36	211.12
381.73	210.93
382.11	211.60
382.49	211.67
382.87	211.14
383.25	211.31
383.62	213.71
384.00	213.19
384.38	213.21
384.76	213.74
385.13	214.57
385.51	214.74
385.89	214.50
386.27	214.67
386.64	215.31
387.02	215.29
387.40	214.93
387.78	214.98
388.15	215.31
388.53	215.05
388.91	215.12
389.29	215.05
389.66	215.55
390.04	215.10
390.42	215.40
390.79	215.79
391.17	215.79
391.55	213.67
391.92	214.07
392.30	214.33
392.68	213.98
393.05	214.00
393.43	213.88
393.81	214.07
394.18	213.67
394.56	213.43
394.94	213.67
395.31	213.43
395.69	214.24
396.06	214.55
396.44	215.07
396.82	215.17
397.19	216.40
397.57	216.26
397.95	216.50
398.32	216.05
398.70	215.98
399.07	216.45
399.45	216.38
399.82	216.17
400.20	215.93
400.58	215.98
400.95	215.17
401.33	215.67
401.70	217.10
402.08	217.50
402.45	217.64
402.83	218.05
403.20	218.64
403.58	218.36
403.95	218.67
404.33	219.14
404.71	219.38
405.08	220.45
405.46	220.83
405.83	221.12
406.21	221.48
406.58	221.98
406.96	222.14
407.33	222.81
407.70	223.43
408.08	225.79
408.45	226.48
408.83	227.45
409.20	227.95
409.58	227.62
409.95	228.81
410.33	229.67
410.70	230.17
411.08	231.33
411.45	232.45
411.82	233.12
412.20	234.74
412.57	237.14
412.95	236.69
413.32	238.57
413.69	239.98
414.07	241.74
414.44	243.71
414.82	245.67
415.19	247.64
415.56	249.83
415.94	251.02
416.31	253.88
416.68	256.55
417.06	259.81
417.43	263.57
417.81	266.83
418.18	270.48
418.55	274.21
418.93	278.26
419.30	282.43
419.67	286.79
420.04	290.88
420.42	295.26
420.79	302.07
421.16	307.31
421.54	314.26
421.91	320.43
422.28	326.33
422.66	333.19
423.03	341.45
423.40	348.69
423.77	355.52
424.15	362.26
424.52	370.00
424.89	378.52
425.26	385.88
425.64	393.26
426.01	401.52
426.38	410.24
426.75	419.26
427.13	428.40
427.50	438.07
427.87	447.81
428.24	457.26
428.61	465.79
428.99	477.21
429.36	488.07
429.73	499.26
430.10	510.55
430.47	522.07
430.85	532.50
431.22	545.24
431.59	560.14
431.96	572.88
432.33	587.12
432.70	600.67
433.08	616.64
433.45	631.33
433.82	646.43
434.19	663.71
434.56	680.81
434.93	696.38
435.30	711.93
435.68	729.26
436.05	747.00
436.42	762.88
436.79	779.00
437.16	795.12
437.53	813.14
437.90	831.12
438.27	848.31
438.64	866.17
439.01	882.76
439.38	896.24
439.75	911.36
440.13	927.33
440.50	942.57
440.87	954.76
441.24	968.93
441.61	983.81
441.98	993.81
442.35	1005.64
442.72	1018.26
443.09	1031.86
443.46	1039.40
443.83	1044.12
444.20	1050.00
444.57	1055.67
444.94	1059.10
445.31	1062.45
445.68	1067.95
446.05	1069.93
446.42	1068.81
446.79	1067.67
447.16	1065.71
447.53	1064.60
447.90	1058.07
448.27	1051.69
448.64	1043.40
449.01	1037.12
449.37	1026.05
449.74	1015.69
450.11	1003.95
450.48	989.12
450.85	973.55
451.22	961.26
451.59	949.48
451.96	938.12
452.33	922.33
452.70	908.60
453.07	891.55
453.43	872.10
453.80	855.62
454.17	839.90
454.54	823.93
454.91	807.88
455.28	791.76
455.65	777.86
456.02	766.98
456.38	754.88
456.75	739.55
457.12	726.36
457.49	713.52
457.86	699.88
458.23	690.81
458.59	679.19
458.96	667.14
459.33	656.52
459.70	646.10
460.07	638.12
460.43	628.55
460.80	619.83
461.17	612.62
461.54	604.21
461.91	596.40
462.27	588.81
462.64	582.02
463.01	574.95
463.38	568.21
463.74	557.24
464.11	550.14
464.48	544.67
464.85	538.07
465.21	533.55
465.58	528.71
465.95	521.69
466.32	516.71
466.68	512.19
467.05	507.19
467.42	501.98
467.78	495.98
468.15	491.10
468.52	487.52
468.88	482.14
469.25	477.52
469.62	473.98
469.98	470.14
470.35	466.55
470.72	462.90
471.08	458.31
471.45	455.98
471.82	453.50
472.18	449.69
472.55	447.74
472.92	444.02
473.28	440.88
473.65	438.12
474.02	435.38
474.38	433.02
474.75	431.14
475.11	428.52
475.48	427.31
475.85	425.26
476.21	423.64
476.58	422.02
476.94	420.74
477.31	419.38
477.67	417.88
478.04	416.79
478.41	415.95
478.77	417.38
479.14	415.90
479.50	415.40
479.87	414.83
480.23	414.38
480.60	414.40
480.96	413.95
481.33	414.81
481.69	414.45
482.06	414.64
482.42	414.83
482.79	415.71
483.15	415.88
483.52	417.05
483.88	416.81
484.25	417.40
484.61	418.19
484.98	419.14
485.34	420.95
485.71	422.24
486.07	423.69
486.44	423.21
486.80	424.81
487.17	426.26
487.53	428.98
487.90	431.21
488.26	434.26
488.62	437.45
488.99	439.21
489.35	442.19
489.72	444.71
490.08	447.36
490.44	449.88
490.81	453.36
491.17	456.31
491.54	460.10
491.90	463.98
492.26	467.81
492.63	471.24
492.99	474.62
493.36	478.60
493.72	483.17
494.08	487.38
494.45	491.93
494.81	496.71
495.17	501.14
495.54	505.83
495.90	510.00
496.26	514.67
496.63	520.05
496.99	525.45
497.35	531.67
497.72	538.05
498.08	544.02
498.44	549.83
498.80	556.43
499.17	563.26
499.53	569.64
499.89	576.64
500.26	583.38
500.62	590.24
500.98	597.86
501.34	604.14
501.71	611.62
502.07	618.79
502.43	625.83
502.79	633.05
503.16	640.17
503.52	647.64
503.88	654.71
504.24	662.43
504.60	670.29
504.97	677.69
505.33	685.14
505.69	693.86
506.05	701.50
506.41	708.95
506.78	715.93
507.14	724.21
507.50	731.90
507.86	739.81
508.22	747.21
508.59	753.86
508.95	761.88
509.31	770.17
509.67	778.43
510.03	786.12
510.39	794.29
510.75	802.67
511.12	810.45
511.48	818.40
511.84	826.00
512.20	832.90
512.56	840.33
512.92	847.00
513.28	854.00
513.64	861.10
514.00	868.67
514.37	876.36
514.73	883.17
515.09	890.45
515.45	897.55
515.81	905.02
516.17	912.38
516.53	918.74
516.89	925.31
517.25	931.79
517.61	938.74
517.97	944.50
518.33	950.48
518.69	956.33
519.05	963.14
519.41	969.64
519.77	977.64
520.13	983.26
520.49	989.05
520.85	994.12
521.21	1001.10
521.57	1006.88
521.93	1012.55
522.29	1018.48
522.65	1023.10
523.01	1028.79
523.37	1033.79
523.73	1039.36
524.09	1045.02
524.45	1048.64
524.81	1052.81
525.17	1057.83
525.53	1062.50
525.89	1067.43
526.25	1072.88
526.61	1076.33
526.97	1079.79
527.33	1083.10
527.68	1089.69
528.04	1094.60
528.40	1099.00
528.76	1102.19
529.12	1106.21
529.48	1110.21
529.84	1113.88
530.20	1118.55
530.56	1122.52
530.91	1126.64
531.27	1130.60
531.63	1134.83
531.99	1139.86
532.35	1144.43
532.71	1147.88
533.07	1153.14
533.42	1158.71
533.78	1162.29
534.14	1167.48
534.50	1171.55
534.86	1176.12
535.21	1178.50
535.57	1183.07
535.93	1187.26
536.29	1191.86
536.65	1195.69
537.00	1199.24
537.36	1202.19
537.72	1205.10
538.08	1209.17
538.44	1212.07
538.79	1215.19
539.15	1217.64
539.51	1221.10
539.87	1224.45
540.22	1227.40
540.58	1230.24
540.94	1231.83
541.29	1234.90
541.65	1236.33
542.01	1239.88
542.37	1241.52
542.72	1243.57
543.08	1245.10
543.44	1248.57
543.79	1250.64
544.15	1253.76
544.51	1257.24
544.87	1260.45
545.22	1264.10
545.58	1266.33
545.94	1269.57
546.29	1272.55
546.65	1276.12
547.01	1277.98
547.36	1279.90
547.72	1283.50
548.07	1285.45
548.43	1287.48
548.79	1289.67
549.14	1292.31
549.50	1295.50
549.86	1297.69
550.21	1300.71
550.57	1304.31
550.92	1306.38
551.28	1309.74
551.64	1311.76
551.99	1315.17
552.35	1317.71
552.70	1320.12
553.06	1322.90
553.41	1326.10
553.77	1330.71
554.13	1333.64
554.48	1338.36
554.84	1343.14
555.19	1346.05
555.55	1350.81
555.90	1355.24
556.26	1359.45
556.61	1363.48
556.97	1366.24
557.32	1370.36
557.68	1373.67
558.03	1377.95
558.39	1381.86
558.74	1385.50
559.10	1389.60
559.45	1392.79
559.81	1397.98
560.16	1401.69
560.52	1405.10
560.87	1408.76
561.23	1411.83
561.58	1417.55
561.94	1421.12
562.29	1424.02
562.64	1429.02
563.00	1432.17
563.35	1436.05
563.71	1440.12
564.06	1445.45
564.42	1450.86
564.77	1457.52
565.12	1463.79
565.48	1470.38
565.83	1475.74
566.19	1481.10
566.54	1486.88
566.89	1492.05
567.25	1497.33
567.60	1504.36
567.96	1512.69
568.31	1519.17
568.66	1526.24
569.02	1530.48
569.37	1534.71
569.72	1539.88
570.08	1544.07
570.43	1549.79
570.78	1555.79
571.14	1562.12
571.49	1566.79
571.84	1571.76
572.20	1576.02
572.55	1580.40
572.90	1582.60
573.26	1586.74
573.61	1590.57
573.96	1595.38
574.31	1599.26
574.67	1602.60
575.02	1605.79
575.37	1607.69
575.72	1611.38
576.08	1613.36
576.43	1616.45
576.78	1620.79
577.13	1625.79
577.49	1629.45
577.84	1633.45
578.19	1636.17
578.54	1640.02
578.90	1644.83
579.25	1648.57
579.60	1651.76
579.95	1654.79
580.30	1659.31
580.66	1662.88
581.01	1667.12
581.36	1669.79
581.71	1673.71
582.06	1679.83
582.42	1684.64
582.77	1688.33
583.12	1691.26
583.47	1694.93
583.82	1699.69
584.17	1703.29
584.53	1707.57
584.88	1710.90
585.23	1714.69
585.58	1717.81
585.93	1719.43
586.28	1722.10
586.63	1724.29
586.98	1727.12
587.34	1730.74
587.69	1733.40
588.04	1736.86
588.39	1740.02
588.74	1741.69
589.09	1744.45
589.44	1744.02
589.79	1744.93
590.14	1747.05
590.49	1749.10
590.84	1750.64
591.19	1751.74
591.54	1754.21
591.89	1754.43
592.25	1758.79
592.60	1759.50
592.95	1761.79
593.30	1764.31
593.65	1764.55
594.00	1765.83
594.35	1772.95
594.70	1773.55
595.05	1774.64
595.40	1775.14
595.75	1775.74
596.10	1777.64
596.45	1779.10
596.80	1781.38
597.15	1782.98
597.50	1784.48
597.85	1786.60
598.19	1787.10
598.54	1787.50
598.89	1787.69
599.24	1789.19
599.59	1787.67
599.94	1788.21
600.29	1788.36
600.64	1788.52
600.99	1790.21
601.34	1791.29
601.69	1785.93
602.04	1785.33
602.39	1784.90
602.74	1785.55
603.08	1784.50
603.43	1785.50
603.78	1785.14
604.13	1783.93
604.48	1783.43
604.83	1783.45
605.18	1782.90
605.53	1782.76
605.87	1782.52
606.22	1781.21
606.57	1779.48
606.92	1778.26
607.27	1777.52
607.62	1776.93
607.96	1776.52
608.31	1775.74
608.66	1774.43
609.01	1773.00
609.36	1773.12
609.70	1772.24
610.05	1770.17
610.40	1769.81
610.75	1767.19
611.10	1765.48
611.44	1763.17
611.79	1761.07
612.14	1758.24
612.49	1753.79
612.83	1751.88
613.18	1749.40
613.53	1747.00
613.88	1744.31
614.22	1742.12
614.57	1738.07
614.92	1734.05
615.27	1730.62
615.61	1725.90
615.96	1721.90
616.31	1718.64
616.65	1715.38
617.00	1712.86
617.35	1710.29
617.70	1706.45
618.04	1703.19
618.39	1699.19
618.74	1696.21
619.08	1691.93
619.43	1687.52
619.78	1685.79
620.12	1681.55
620.47	1678.14
620.82	1674.10
621.16	1669.50
621.51	1666.74
621.85	1663.17
622.20	1660.55
622.55	1655.93
622.89	1653.64
623.24	1651.33
623.59	1647.98
623.93	1644.12
624.28	1639.71
624.62	1637.02
624.97	1634.33
625.32	1629.36
625.66	1625.36
626.01	1621.50
626.35	1618.29
626.70	1615.21
627.04	1612.00
627.39	1607.88
627.73	1605.07
628.08	1601.83
628.43	1598.45
628.77	1593.71
629.12	1590.83
629.46	1586.60
629.81	1582.55
630.15	1577.88
630.50	1572.57
630.84	1567.33
631.19	1562.48
631.53	1557.67
631.88	1550.74
632.22	1544.02
632.57	1540.67
632.91	1535.81
633.26	1531.43
633.60	1526.33
633.95	1520.21
634.29	1514.50
634.64	1510.76
634.98	1504.62
635.32	1501.50
635.67	1498.45
636.01	1494.24
636.36	1489.71
636.70	1485.60
637.05	1481.62
637.39	1477.21
637.73	1473.29
638.08	1469.81
638.42	1465.19
638.77	1461.17
639.11	1457.14
639.45	1453.31
639.80	1448.26
640.14	1443.64
640.49	1438.74
640.83	1432.79
641.17	1429.31
641.52	1424.24
641.86	1419.17
642.20	1414.69
642.55	1407.83
642.89	1402.69
643.23	1396.86
643.58	1392.14
643.92	1385.74
644.26	1380.14
644.61	1374.17
644.95	1368.71
645.29	1362.29
645.64	1357.17
645.98	1351.71
646.32	1346.67
646.66	1340.81
647.01	1335.14
647.35	1329.50
647.69	1323.64
648.04	1319.33
648.38	1313.29
648.72	1307.07
649.06	1301.29
649.41	1295.48
649.75	1289.43
650.09	1283.33
650.43	1277.57
650.78	1269.98
651.12	1263.57
651.46	1257.10
651.80	1251.38
652.14	1244.86
652.49	1239.95
652.83	1233.83
653.17	1226.79
653.51	1220.64
653.85	1215.31
654.20	1208.95
654.54	1201.71
654.88	1195.55
655.22	1190.36
655.56	1184.36
655.90	1178.45
656.25	1171.95
656.59	1165.26
656.93	1159.69
657.27	1153.88
657.61	1147.14
657.95	1141.69
658.29	1135.71
658.64	1130.50
658.98	1124.02
659.32	1117.19
659.66	1110.14
660.00	1103.67
660.34	1098.05
660.68	1091.21
661.02	1083.98
661.36	1077.79
661.70	1072.93
662.05	1067.36
662.39	1060.71
662.73	1055.31
663.07	1050.36
663.41	1045.07
663.75	1039.38
664.09	1033.50
664.43	1026.76
664.77	1021.12
665.11	1015.26
665.45	1010.21
665.79	1004.33
666.13	998.00
666.47	993.55
666.81	988.38
667.15	983.00
667.49	977.19
667.83	972.55
668.17	967.36
668.51	961.83
668.85	956.36
669.19	951.31
669.53	945.24
669.87	938.50
670.21	932.79
670.55	926.98
670.89	922.00
671.23	916.74
671.57	911.93
671.91	906.40
672.25	900.83
672.58	896.57
672.92	891.10
673.26	886.86
673.60	881.12
673.94	875.55
674.28	870.57
674.62	865.95
674.96	860.55
675.30	856.19
675.64	851.69
675.97	846.76
676.31	841.05
676.65	836.10
676.99	832.98
677.33	827.57
677.67	822.62
678.01	816.95
678.34	811.93
678.68	806.79
679.02	801.86
679.36	797.19
679.70	791.02
680.04	785.90
680.37	780.50
680.71	775.95
681.05	771.12
681.39	766.38
681.73	761.43
682.06	756.62
682.40	751.76
682.74	747.40
683.08	743.50
683.42	738.50
683.75	734.10
684.09	728.21
684.43	723.64
684.77	718.57
685.10	714.00
685.44	709.45
685.78	704.88
686.12	700.60
686.45	695.33
686.79	690.62
687.13	686.38
687.46	681.79
687.80	677.67
688.14	672.93
688.48	668.12
688.81	662.98
689.15	658.69
689.49	653.50
689.82	648.52
690.16	642.74
690.50	638.14
690.83	633.38
691.17	628.45
691.51	624.05
691.84	620.48
692.18	615.95
692.52	611.90
692.85	607.64
693.19	604.05
693.52	600.10
693.86	595.88
694.20	591.24
694.53	587.57
694.87	582.83
695.21	578.26
695.54	574.29
695.88	570.02
696.21	565.24
696.55	561.29
696.88	557.14
697.22	553.29
697.56	550.40
697.89	546.19
698.23	543.07
698.56	538.90
698.90	535.10
699.23	531.52
699.57	527.86
699.90	523.79
700.24	519.43
700.58	516.26
700.91	513.26
701.25	511.50
701.58	508.62
701.92	505.88
702.25	503.19
702.59	499.43
702.92	496.74
703.26	493.86
703.59	490.86
703.93	489.33
704.26	486.50
704.60	483.10
704.93	480.36
705.26	477.38
705.60	475.29
705.93	471.67
706.27	469.67
706.60	466.71
706.94	464.67
707.27	461.71
707.61	458.57
707.94	455.33
708.27	451.19
708.61	447.48
708.94	444.38
709.28	441.71
709.61	439.05
709.94	436.69
710.28	434.07
710.61	431.83
710.95	427.76
711.28	426.88
711.61	424.24
711.95	421.98
712.28	418.90
712.61	415.83
712.95	414.55
713.28	412.57
713.61	409.86
713.95	406.83
714.28	404.95
714.61	402.74
714.95	400.43
715.28	397.71
715.61	395.64
715.95	393.45
716.28	390.93
716.61	389.40
716.95	386.52
717.28	384.26
717.61	381.98
717.94	379.64
718.28	376.10
718.61	373.88
718.94	371.62
719.27	369.69
719.61	368.00
719.94	365.26
720.27	362.05
720.60	360.19
720.94	358.33
721.27	356.50
721.60	355.02
721.93	353.36
722.27	352.69
722.60	351.45
722.93	349.62
723.26	348.43
723.59	346.24
723.93	345.21
724.26	343.79
724.59	342.19
724.92	340.98
725.25	339.95
725.59	338.33
725.92	337.10
726.25	335.60
726.58	334.19
726.91	332.86
727.24	331.95
727.57	330.60
727.91	328.76
728.24	327.36
728.57	325.88
728.90	324.74
729.23	322.67
729.56	322.05
729.89	320.76
730.22	319.21
730.55	318.00
730.89	316.60
731.22	315.10
731.55	313.83
731.88	312.64
732.21	310.98
732.54	309.76
732.87	308.57
733.20	307.86
733.53	306.83
733.86	305.86
734.19	304.62
734.52	303.81
734.85	304.50
735.18	303.10
735.51	302.45
735.84	301.71
736.17	301.07
736.50	298.83
736.83	300.07
737.16	299.40
737.49	298.81
737.82	297.74
738.15	297.31
738.48	296.29
738.81	295.50
739.14	294.33
739.47	293.48
739.80	292.62
740.13	291.83
740.46	290.93
740.79	289.60
741.12	288.69
741.45	287.43
741.78	285.64
742.11	285.50
742.44	284.57
742.77	283.79
743.10	282.79
743.43	282.10
743.75	279.14
744.08	280.83
744.41	279.60
744.74	278.81
745.07	277.67
745.40	277.36
745.73	277.36
746.06	276.83
746.39	276.48
746.71	275.48
747.04	274.36
747.37	273.14
747.70	273.10
748.03	272.64
748.36	272.36
748.68	271.50
749.01	270.07
749.34	269.31
749.67	268.74
750.00	268.62
750.33	269.38
750.65	269.00
750.98	265.57
751.31	265.24
751.64	264.71
751.97	265.50
752.29	264.69
752.62	263.05
752.95	262.31
753.28	261.38
753.60	260.71
753.93	260.62
754.26	260.14
754.59	258.98
754.91	258.21
755.24	257.67
755.57	257.10
755.90	256.76
756.22	255.93
756.55	255.14
756.88	254.00
757.20	252.19
757.53	251.29
757.86	251.19
758.19	250.67
758.51	250.19
758.84	248.26
759.17	247.57
759.49	247.12
759.82	247.62
760.15	247.29
760.47	247.05
760.80	246.10
761.13	246.33
761.45	245.76
761.78	245.10
762.11	244.43
762.43	243.86
762.76	243.38
763.08	243.38
763.41	242.93
763.74	242.69
764.06	242.36
764.39	242.10
764.71	241.50
765.04	240.90
765.37	240.24
765.69	239.90
766.02	239.64
766.34	239.36
766.67	238.24
767.00	238.40
767.32	238.93
767.65	240.00
767.97	239.60
768.30	239.40
768.62	239.07
768.95	238.71
769.27	238.48
769.60	238.38
769.92	237.62
770.25	237.12
770.57	236.48
770.90	236.19
771.22	235.67
771.55	235.31
771.87	235.00
772.20	234.81
772.52	236.36
772.85	238.45
773.17	238.26
773.50	237.88
773.82	237.33
774.15	236.31
774.47	235.00
774.80	234.33
775.12	234.02
775.45	233.86
775.77	233.64
776.09	233.43
776.42	233.43
776.74	234.05
777.07	233.69
777.39	233.60
777.72	233.10
778.04	233.17
778.36	232.88
778.69	232.88
779.01	232.98
779.33	230.90
779.66	228.50
779.98	228.07
780.31	227.76
780.63	228.43
780.95	228.67
781.28	228.19
781.60	227.88
781.92	227.76
782.25	227.55
782.57	227.45
782.89	227.17
783.22	226.52
783.54	225.83
783.86	225.90
784.19	225.74
784.51	226.29
784.83	225.52
