SpectraSuite Data File
++++++++++++++++++++++++++++++++++++
Date: Tue Apr 02 18:38:08 EDT 2013
User: group
Dark Spectrum Present: No
Reference Spectrum Present: No
Number of Sampled Component Spectra: 1
Spectrometers: USB2E7196
Integration Time (usec): 580000 (USB2E7196)
Spectra Averaged: 2 (USB2E7196)
Boxcar Smoothing: 10 (USB2E7196)
Correct for Electrical Dark: No (USB2E7196)
Strobe/Lamp Enabled: No (USB2E7196)
Correct for Detector Non-linearity: No (USB2E7196)
Correct for Stray Light: No (USB2E7196)
Number of Pixels in Processed Spectrum: 2048
>>>>>Begin Processed Spectral Data<<<<<
339.09	0.00
339.48	191.00
339.86	191.00
340.24	192.50
340.63	198.50
341.01	231.00
341.39	199.50
341.78	206.00
342.16	207.00
342.54	203.50
342.93	196.36
343.31	206.17
343.69	206.93
344.07	207.57
344.46	208.74
344.84	209.33
345.22	207.98
345.60	208.40
345.99	208.67
346.37	208.57
346.75	208.83
347.13	208.83
347.52	208.93
347.90	209.43
348.28	209.57
348.66	210.17
349.05	209.64
349.43	209.81
349.81	210.19
350.19	210.57
350.57	210.74
350.96	211.10
351.34	211.33
351.72	211.45
352.10	211.55
352.48	211.26
352.87	211.26
353.25	211.48
353.63	211.38
354.01	211.14
354.39	211.29
354.77	211.21
355.15	211.71
355.54	211.33
355.92	210.88
356.30	210.88
356.68	212.33
357.06	212.52
357.44	212.21
357.82	211.95
358.20	212.50
358.58	212.43
358.97	212.24
359.35	212.81
359.73	213.21
360.11	213.36
360.49	213.31
360.87	213.21
361.25	213.55
361.63	214.14
362.01	214.48
362.39	214.60
362.77	214.98
363.15	214.74
363.53	215.14
363.91	215.26
364.29	215.31
364.67	213.45
365.05	213.69
365.43	213.81
365.81	214.24
366.19	214.62
366.57	215.43
366.95	215.55
367.33	214.95
367.71	214.83
368.09	215.31
368.47	215.33
368.85	215.33
369.23	216.02
369.61	215.50
369.99	216.21
370.37	216.50
370.75	217.40
371.13	217.33
371.51	216.88
371.89	217.29
372.27	217.40
372.65	217.29
373.03	217.26
373.41	217.24
373.78	217.10
374.16	216.10
374.54	215.50
374.92	215.57
375.30	215.50
375.68	215.29
376.06	215.21
376.44	215.14
376.82	215.21
377.19	214.95
377.57	215.02
377.95	214.29
378.33	214.12
378.71	212.81
379.09	213.00
379.47	213.43
379.84	213.12
380.22	213.12
380.60	212.86
380.98	212.81
381.36	212.93
381.73	212.45
382.11	212.62
382.49	212.69
382.87	212.38
383.25	212.57
383.62	214.95
384.00	214.55
384.38	214.60
384.76	215.21
385.13	215.79
385.51	215.76
385.89	215.60
386.27	215.55
386.64	215.81
387.02	215.76
387.40	215.55
387.78	215.67
388.15	215.48
388.53	215.50
388.91	215.48
389.29	215.31
389.66	215.62
390.04	215.48
390.42	215.88
390.79	216.02
391.17	215.86
391.55	213.36
391.92	213.36
392.30	213.64
392.68	213.17
393.05	212.98
393.43	213.12
393.81	213.07
394.18	212.95
394.56	213.19
394.94	213.57
395.31	213.50
395.69	214.33
396.06	214.79
396.44	215.07
396.82	214.88
397.19	215.95
397.57	215.90
397.95	216.40
398.32	215.90
398.70	216.07
399.07	216.55
399.45	216.79
399.82	216.93
400.20	216.74
400.58	216.93
400.95	216.29
401.33	216.71
401.70	218.62
402.08	218.79
402.45	218.90
402.83	219.31
403.20	219.62
403.58	219.26
403.95	219.62
404.33	220.17
404.71	220.71
405.08	222.05
405.46	222.55
405.83	222.88
406.21	222.95
406.58	223.50
406.96	224.02
407.33	224.60
407.70	225.57
408.08	227.95
408.45	228.76
408.83	229.69
409.20	230.24
409.58	229.60
409.95	230.93
410.33	231.81
410.70	232.40
411.08	233.74
411.45	234.83
411.82	235.93
412.20	237.55
412.57	240.24
412.95	240.00
413.32	241.86
413.69	243.62
414.07	245.86
414.44	247.76
414.82	249.64
415.19	252.57
415.56	255.02
415.94	256.52
416.31	259.50
416.68	262.93
417.06	266.95
417.43	271.05
417.81	274.83
418.18	279.14
418.55	283.31
418.93	287.81
419.30	292.67
419.67	297.86
420.04	303.14
420.42	307.98
420.79	315.90
421.16	322.19
421.54	329.71
421.91	336.55
422.28	343.93
422.66	351.86
423.03	360.81
423.40	368.45
423.77	376.60
424.15	385.29
424.52	393.98
424.89	403.76
425.26	412.95
425.64	422.19
426.01	431.93
426.38	442.64
426.75	453.67
427.13	464.57
427.50	475.67
427.87	487.55
428.24	499.24
428.61	509.67
428.99	523.55
429.36	536.00
429.73	549.50
430.10	563.02
430.47	577.21
430.85	589.69
431.22	605.31
431.59	623.52
431.96	638.93
432.33	655.67
432.70	671.60
433.08	690.79
433.45	709.14
433.82	727.38
434.19	747.62
434.56	768.12
434.93	786.74
435.30	805.90
435.68	827.07
436.05	848.05
436.42	868.38
436.79	886.95
437.16	907.60
437.53	929.40
437.90	951.62
438.27	973.26
438.64	996.05
439.01	1016.43
439.38	1033.67
439.75	1051.26
440.13	1072.38
440.50	1091.14
440.87	1106.71
441.24	1123.14
441.61	1141.00
441.98	1154.31
442.35	1168.64
442.72	1184.67
443.09	1200.69
443.46	1209.52
443.83	1216.24
444.20	1222.90
444.57	1229.88
444.94	1235.12
445.31	1240.21
445.68	1246.83
446.05	1248.57
446.42	1246.60
446.79	1244.98
447.16	1242.45
447.53	1241.69
447.90	1233.60
448.27	1226.76
448.64	1216.21
449.01	1208.38
449.37	1195.26
449.74	1182.38
450.11	1168.45
450.48	1151.00
450.85	1132.90
451.22	1118.21
451.59	1103.79
451.96	1089.45
452.33	1071.79
452.70	1054.55
453.07	1033.79
453.43	1009.69
453.80	989.60
454.17	970.93
454.54	953.10
454.91	933.36
455.28	914.19
455.65	896.90
456.02	882.31
456.38	867.76
456.75	849.12
457.12	833.07
457.49	817.93
457.86	801.64
458.23	789.98
458.59	775.74
458.96	761.52
459.33	749.14
459.70	736.76
460.07	726.60
460.43	714.55
460.80	704.21
461.17	695.69
461.54	686.05
461.91	676.57
462.27	666.33
462.64	657.88
463.01	649.00
463.38	640.95
463.74	629.05
464.11	620.86
464.48	614.17
464.85	606.88
465.21	601.24
465.58	595.40
465.95	587.33
466.32	581.40
466.68	575.05
467.05	568.43
467.42	562.29
467.78	556.00
468.15	550.40
468.52	545.81
468.88	539.64
469.25	533.79
469.62	530.02
469.98	525.81
470.35	522.07
470.72	517.98
471.08	512.64
471.45	509.19
471.82	505.71
472.18	502.10
472.55	499.26
472.92	495.00
473.28	491.24
473.65	487.67
474.02	484.43
474.38	482.45
474.75	480.40
475.11	477.79
475.48	476.00
475.85	473.86
476.21	471.67
476.58	469.79
476.94	468.74
477.31	466.74
477.67	465.26
478.04	463.98
478.41	462.90
478.77	464.12
479.14	463.31
479.50	463.17
479.87	462.86
480.23	462.62
480.60	462.62
480.96	463.10
481.33	464.14
481.69	464.69
482.06	464.90
482.42	465.67
482.79	466.55
483.15	467.00
483.52	468.48
483.88	469.21
484.25	470.76
484.61	472.33
484.98	473.24
485.34	475.36
485.71	476.86
486.07	478.90
486.44	479.17
486.80	481.31
487.17	483.02
487.53	485.50
487.90	488.33
488.26	492.07
488.62	495.21
488.99	498.45
489.35	501.57
489.72	504.79
490.08	508.38
490.44	511.79
490.81	516.29
491.17	520.05
491.54	524.45
491.90	529.19
492.26	534.00
492.63	539.19
492.99	543.50
493.36	549.17
493.72	554.90
494.08	560.64
494.45	566.81
494.81	573.64
495.17	579.81
495.54	586.45
495.90	592.48
496.26	598.88
496.63	605.88
496.99	612.88
497.35	620.67
497.72	628.40
498.08	636.10
498.44	643.76
498.80	652.43
499.17	661.31
499.53	669.07
499.89	677.48
500.26	685.86
500.62	694.74
500.98	704.07
501.34	712.83
501.71	723.14
502.07	731.88
502.43	741.07
502.79	750.50
503.16	759.83
503.52	768.88
503.88	778.26
504.24	788.05
504.60	798.24
504.97	808.45
505.33	818.45
505.69	829.62
506.05	839.38
506.41	849.17
506.78	858.29
507.14	868.02
507.50	879.14
507.86	890.21
508.22	900.71
508.59	910.55
508.95	920.95
509.31	931.02
509.67	942.00
510.03	951.86
510.39	962.02
510.75	972.52
511.12	982.31
511.48	992.67
511.84	1002.76
512.20	1012.62
512.56	1022.74
512.92	1032.76
513.28	1041.86
513.64	1051.69
514.00	1061.60
514.37	1071.00
514.73	1081.26
515.09	1089.86
515.45	1098.31
515.81	1107.10
516.17	1115.64
516.53	1123.62
516.89	1131.67
517.25	1139.76
517.61	1149.36
517.97	1157.55
518.33	1165.50
518.69	1174.05
519.05	1182.38
519.41	1189.60
519.77	1198.38
520.13	1204.86
520.49	1211.07
520.85	1218.45
521.21	1226.17
521.57	1233.02
521.93	1240.21
522.29	1247.17
522.65	1252.71
523.01	1259.79
523.37	1266.38
523.73	1272.98
524.09	1279.40
524.45	1285.17
524.81	1290.57
525.17	1295.88
525.53	1301.14
525.89	1306.55
526.25	1312.21
526.61	1316.76
526.97	1321.19
527.33	1325.48
527.68	1332.00
528.04	1336.86
528.40	1341.45
528.76	1346.14
529.12	1350.10
529.48	1355.48
529.84	1358.60
530.20	1363.00
530.56	1366.71
530.91	1370.79
531.27	1374.43
531.63	1378.79
531.99	1382.19
532.35	1385.71
532.71	1388.31
533.07	1392.48
533.42	1397.81
533.78	1400.57
534.14	1404.05
534.50	1406.95
534.86	1410.88
535.21	1412.21
535.57	1416.26
535.93	1418.76
536.29	1421.81
536.65	1424.67
537.00	1426.31
537.36	1429.57
537.72	1432.14
538.08	1434.62
538.44	1435.83
538.79	1438.05
539.15	1438.57
539.51	1440.29
539.87	1442.12
540.22	1444.24
540.58	1445.93
540.94	1445.43
541.29	1447.33
541.65	1448.00
542.01	1450.12
542.37	1449.76
542.72	1449.76
543.08	1449.43
543.44	1450.45
543.79	1448.86
544.15	1449.64
544.51	1450.48
544.87	1450.57
545.22	1450.57
545.58	1450.26
545.94	1450.19
546.29	1450.38
546.65	1450.50
547.01	1449.43
547.36	1448.90
547.72	1447.74
548.07	1446.60
548.43	1445.00
548.79	1443.60
549.14	1442.21
549.50	1440.95
549.86	1439.07
550.21	1438.05
550.57	1437.57
550.92	1435.17
551.28	1435.55
551.64	1433.93
551.99	1432.14
552.35	1430.57
552.70	1429.12
553.06	1428.50
553.41	1427.67
553.77	1427.17
554.13	1425.98
554.48	1425.76
554.84	1424.81
555.19	1422.98
555.55	1422.52
555.90	1420.71
556.26	1418.93
556.61	1418.10
556.97	1416.38
557.32	1415.79
557.68	1415.05
558.03	1413.14
558.39	1411.50
558.74	1410.05
559.10	1408.98
559.45	1407.43
559.81	1406.05
560.16	1404.69
560.52	1402.45
560.87	1400.50
561.23	1397.48
561.58	1397.43
561.94	1394.83
562.29	1392.50
562.64	1391.64
563.00	1388.50
563.35	1387.10
563.71	1385.86
564.06	1384.50
564.42	1383.10
564.77	1381.45
565.12	1380.79
565.48	1381.50
565.83	1380.83
566.19	1379.24
566.54	1377.12
566.89	1375.38
567.25	1375.05
567.60	1374.95
567.96	1375.26
568.31	1374.95
568.66	1373.69
569.02	1369.83
569.37	1368.38
569.72	1366.67
570.08	1364.48
570.43	1362.79
570.78	1361.93
571.14	1360.05
571.49	1357.86
571.84	1355.71
572.20	1353.26
572.55	1350.60
572.90	1346.64
573.26	1343.64
573.61	1340.00
573.96	1337.50
574.31	1335.02
574.67	1330.36
575.02	1325.86
575.37	1321.02
575.72	1316.45
576.08	1313.95
576.43	1311.50
576.78	1308.31
577.13	1305.07
577.49	1302.07
577.84	1299.07
578.19	1295.31
578.54	1292.26
578.90	1288.98
579.25	1285.33
579.60	1281.50
579.95	1276.67
580.30	1272.19
580.66	1268.90
581.01	1265.33
581.36	1261.14
581.71	1256.81
582.06	1254.64
582.42	1251.81
582.77	1247.31
583.12	1243.79
583.47	1238.38
583.82	1233.98
584.17	1229.71
584.53	1226.93
584.88	1222.33
585.23	1219.02
585.58	1214.24
585.93	1208.88
586.28	1203.67
586.63	1200.40
586.98	1196.52
587.34	1193.31
587.69	1188.90
588.04	1184.45
588.39	1180.67
588.74	1175.62
589.09	1171.24
589.44	1165.00
589.79	1159.95
590.14	1156.05
590.49	1151.14
590.84	1146.74
591.19	1143.07
591.54	1138.95
591.89	1133.17
592.25	1130.33
592.60	1124.57
592.95	1120.33
593.30	1116.67
593.65	1112.52
594.00	1106.12
594.35	1107.43
594.70	1101.90
595.05	1097.90
595.40	1093.05
595.75	1087.95
596.10	1084.26
596.45	1080.38
596.80	1076.69
597.15	1072.43
597.50	1067.07
597.85	1063.74
598.19	1059.88
598.54	1055.26
598.89	1051.26
599.24	1047.79
599.59	1042.19
599.94	1038.31
600.29	1034.81
600.64	1030.52
600.99	1027.10
601.34	1024.05
601.69	1013.67
602.04	1010.05
602.39	1005.07
602.74	1001.43
603.08	997.19
603.43	994.05
603.78	989.62
604.13	984.64
604.48	979.52
604.83	976.79
605.18	972.31
605.53	968.52
605.87	964.31
606.22	959.10
606.57	954.36
606.92	950.12
607.27	945.79
607.62	941.33
607.96	936.79
608.31	932.10
608.66	927.62
609.01	923.57
609.36	919.38
609.70	915.50
610.05	911.07
610.40	907.17
610.75	901.90
611.10	897.81
611.44	894.14
611.79	889.93
612.14	884.62
612.49	879.69
612.83	874.33
613.18	869.64
613.53	865.52
613.88	860.50
614.22	855.60
614.57	850.38
614.92	845.31
615.27	841.05
615.61	835.81
615.96	831.10
616.31	826.38
616.65	822.64
617.00	818.02
617.35	813.31
617.70	808.64
618.04	804.05
618.39	798.86
618.74	794.57
619.08	790.57
619.43	786.50
619.78	782.38
620.12	778.69
620.47	774.76
620.82	770.86
621.16	767.10
621.51	764.26
621.85	760.29
622.20	756.62
622.55	752.57
622.89	749.79
623.24	746.40
623.59	742.90
623.93	738.45
624.28	735.12
624.62	733.90
624.97	731.43
625.32	728.05
625.66	724.95
626.01	721.29
626.35	717.86
626.70	714.64
627.04	712.40
627.39	708.55
627.73	705.86
628.08	702.86
628.43	699.07
628.77	695.10
629.12	692.38
629.46	688.83
629.81	685.52
630.15	681.10
630.50	677.52
630.84	674.07
631.19	670.90
631.53	667.67
631.88	661.69
632.22	657.26
632.57	654.31
632.91	650.48
633.26	647.26
633.60	643.07
633.95	639.17
634.29	634.90
634.64	631.98
634.98	627.74
635.32	624.79
635.67	622.10
636.01	618.33
636.36	614.40
636.70	611.67
637.05	608.24
637.39	605.81
637.73	602.86
638.08	600.36
638.42	596.86
638.77	593.55
639.11	591.00
639.45	587.57
639.80	584.10
640.14	581.33
640.49	578.02
640.83	575.24
641.17	572.50
641.52	569.48
641.86	566.05
642.20	564.10
642.55	560.00
642.89	557.00
643.23	554.52
643.58	552.36
643.92	548.55
644.26	545.90
644.61	543.29
644.95	540.60
645.29	537.14
645.64	535.00
645.98	531.98
646.32	529.45
646.66	526.69
647.01	523.40
647.35	520.71
647.69	518.33
648.04	516.19
648.38	513.74
648.72	510.69
649.06	508.17
649.41	504.50
649.75	502.14
650.09	499.86
650.43	496.83
650.78	494.24
651.12	491.69
651.46	488.86
651.80	485.57
652.14	482.62
652.49	480.55
652.83	477.29
653.17	474.74
653.51	471.55
653.85	469.24
654.20	467.45
654.54	464.83
654.88	461.69
655.22	459.83
655.56	457.14
655.90	454.74
656.25	452.26
656.59	450.00
656.93	447.79
657.27	445.95
657.61	443.52
657.95	441.12
658.29	439.26
658.64	437.81
658.98	435.55
659.32	433.17
659.66	430.81
660.00	429.02
660.34	427.00
660.68	425.21
661.02	422.83
661.36	420.19
661.70	418.64
662.05	417.05
662.39	415.05
662.73	413.74
663.07	413.10
663.41	411.48
663.75	409.69
664.09	407.86
664.43	405.33
664.77	403.67
665.11	401.83
665.45	400.21
665.79	398.31
666.13	396.76
666.47	395.19
666.81	393.62
667.15	391.69
667.49	390.36
667.83	389.24
668.17	387.90
668.51	386.43
668.85	384.83
669.19	384.12
669.53	381.57
669.87	379.52
670.21	377.60
670.55	376.38
670.89	376.14
671.23	374.50
671.57	373.31
671.91	372.14
672.25	370.90
672.58	370.14
672.92	368.19
673.26	367.10
673.60	366.02
673.94	364.57
674.28	363.26
674.62	361.83
674.96	360.38
675.30	359.50
675.64	358.40
675.97	357.21
676.31	355.57
676.65	354.79
676.99	354.21
677.33	352.02
677.67	350.60
678.01	347.79
678.34	346.98
678.68	346.24
679.02	344.71
679.36	343.02
679.70	341.00
680.04	340.31
680.37	338.81
680.71	337.57
681.05	336.57
681.39	335.83
681.73	334.55
682.06	332.79
682.40	331.67
682.74	331.05
683.08	330.60
683.42	328.98
683.75	328.29
684.09	326.62
684.43	326.19
684.77	324.98
685.10	324.40
685.44	322.98
685.78	321.21
686.12	320.29
686.45	319.43
686.79	318.50
687.13	317.67
687.46	316.55
687.80	316.00
688.14	314.67
688.48	313.40
688.81	312.62
689.15	312.29
689.49	310.50
689.82	309.19
690.16	307.31
690.50	306.33
690.83	304.76
691.17	303.62
691.51	302.45
691.84	301.74
692.18	300.50
692.52	299.88
692.85	299.50
693.19	299.33
693.52	298.38
693.86	297.29
694.20	296.10
694.53	295.36
694.87	294.10
695.21	293.05
695.54	292.31
695.88	291.12
696.21	289.88
696.55	289.57
696.88	288.93
697.22	288.00
697.56	287.62
697.89	286.90
698.23	286.48
698.56	285.57
698.90	285.05
699.23	284.31
699.57	283.57
699.90	282.38
700.24	280.98
700.58	280.60
700.91	280.57
701.25	281.33
701.58	281.24
701.92	280.83
702.25	280.43
702.59	279.57
702.92	279.17
703.26	278.40
703.59	277.79
703.93	278.52
704.26	278.33
704.60	277.69
704.93	277.14
705.26	276.21
705.60	276.12
705.93	274.93
706.27	275.14
706.60	274.79
706.94	275.07
707.27	274.64
707.61	273.74
707.94	272.90
708.27	271.14
708.61	270.05
708.94	269.48
709.28	269.21
709.61	268.71
709.94	268.31
710.28	268.05
710.61	267.64
710.95	265.52
711.28	266.17
711.61	265.50
711.95	265.55
712.28	264.90
712.61	264.40
712.95	265.05
713.28	265.40
713.61	264.55
713.95	263.33
714.28	262.83
714.61	262.71
714.95	261.90
715.28	260.88
715.61	260.62
715.95	260.45
716.28	259.60
716.61	259.52
716.95	258.60
717.28	258.07
717.61	257.40
717.94	256.98
718.28	255.14
718.61	254.67
718.94	253.71
719.27	253.12
719.61	252.67
719.94	251.50
720.27	249.64
720.60	249.26
720.94	249.07
721.27	248.86
721.60	248.64
721.93	248.31
722.27	248.79
722.60	248.60
722.93	247.57
723.26	247.31
723.59	246.57
723.93	246.62
724.26	246.33
724.59	246.10
724.92	245.76
725.25	246.00
725.59	245.71
725.92	245.79
726.25	245.64
726.58	245.26
726.91	244.90
727.24	244.98
727.57	244.55
727.91	243.86
728.24	243.57
728.57	242.86
728.90	242.90
729.23	241.88
729.56	242.38
729.89	242.21
730.22	241.76
730.55	241.43
730.89	241.12
731.22	240.83
731.55	240.38
731.88	240.26
732.21	239.62
732.54	239.38
732.87	238.86
733.20	238.81
733.53	238.71
733.86	238.57
734.19	238.05
734.52	238.45
734.85	239.62
735.18	239.02
735.51	239.67
735.84	239.67
736.17	240.33
736.50	238.98
736.83	241.29
737.16	241.07
737.49	240.98
737.82	240.71
738.15	240.64
738.48	240.36
738.81	240.10
739.14	239.64
739.47	239.12
739.80	238.81
740.13	238.76
740.46	238.29
740.79	237.79
741.12	237.71
741.45	236.90
741.78	235.64
742.11	236.21
742.44	235.26
742.77	235.29
743.10	234.48
743.43	234.19
743.75	231.79
744.08	234.36
744.41	233.93
744.74	233.76
745.07	233.19
745.40	233.40
745.73	234.10
746.06	233.98
746.39	234.24
746.71	233.93
747.04	233.40
747.37	233.12
747.70	233.31
748.03	233.07
748.36	233.14
748.68	232.95
749.01	232.05
749.34	232.26
749.67	232.02
750.00	232.10
750.33	233.50
750.65	233.40
750.98	230.71
751.31	230.52
751.64	230.05
751.97	231.26
752.29	230.81
752.62	229.71
752.95	229.50
753.28	228.88
753.60	228.86
753.93	229.60
754.26	229.69
754.59	229.10
754.91	228.83
755.24	228.60
755.57	228.29
755.90	228.19
756.22	227.79
756.55	227.21
756.88	226.90
757.20	225.33
757.53	224.69
757.86	224.43
758.19	224.71
758.51	224.98
758.84	223.79
759.17	223.64
759.49	223.55
759.82	224.48
760.15	224.76
760.47	224.55
760.80	223.67
761.13	223.95
761.45	223.71
761.78	223.50
762.11	223.48
762.43	223.24
762.76	223.21
763.08	223.50
763.41	223.71
763.74	223.60
764.06	223.50
764.39	223.55
764.71	223.48
765.04	222.93
765.37	222.62
765.69	222.67
766.02	222.40
766.34	222.10
766.67	221.12
767.00	221.33
767.32	222.48
767.65	223.69
767.97	223.43
768.30	223.62
768.62	223.43
768.95	223.12
769.27	223.17
769.60	223.24
769.92	222.43
770.25	221.88
770.57	221.55
770.90	221.69
771.22	221.24
771.55	221.31
771.87	221.48
772.20	221.33
772.52	222.69
772.85	225.26
773.17	225.52
773.50	225.24
773.82	224.95
774.15	223.69
774.47	222.29
774.80	221.83
775.12	221.74
775.45	221.79
775.77	221.81
776.09	221.83
776.42	221.86
776.74	222.71
777.07	222.60
777.39	222.74
777.72	222.55
778.04	222.98
778.36	222.86
778.69	223.00
779.01	222.88
779.33	221.24
779.66	218.57
779.98	218.10
780.31	218.48
780.63	218.95
780.95	219.50
781.28	219.55
781.60	219.26
781.92	219.29
782.25	219.29
782.57	219.33
782.89	219.07
783.22	218.83
783.54	218.24
783.86	218.31
784.19	218.14
784.51	218.67
784.83	218.45
785.16	218.29
785.48	218.19
785.80	218.57
786.12	218.60
786.45	218.81
786.77	219.19
787.09	218.69
787.42	218.02
787.74	217.93
788.06	218.07
