SpectraSuite Data File
++++++++++++++++++++++++++++++++++++
Date: Tue Apr 02 18:39:46 EDT 2013
User: group
Dark Spectrum Present: No
Reference Spectrum Present: No
Number of Sampled Component Spectra: 1
Spectrometers: USB2E7196
Integration Time (usec): 580000 (USB2E7196)
Spectra Averaged: 2 (USB2E7196)
Boxcar Smoothing: 10 (USB2E7196)
Correct for Electrical Dark: No (USB2E7196)
Strobe/Lamp Enabled: No (USB2E7196)
Correct for Detector Non-linearity: No (USB2E7196)
Correct for Stray Light: No (USB2E7196)
Number of Pixels in Processed Spectrum: 2048
>>>>>Begin Processed Spectral Data<<<<<
339.09	0.00
339.48	190.50
339.86	195.50
340.24	195.50
340.63	195.00
341.01	232.00
341.39	197.50
341.78	204.00
342.16	207.00
342.54	204.50
342.93	195.76
343.31	205.29
343.69	205.88
344.07	206.24
344.46	206.95
344.84	207.81
345.22	206.67
345.60	207.43
345.99	207.71
346.37	207.86
346.75	208.10
347.13	208.38
347.52	208.45
347.90	209.19
348.28	209.38
348.66	210.17
349.05	209.76
349.43	210.00
349.81	210.48
350.19	210.79
350.57	210.90
350.96	211.38
351.34	211.93
351.72	212.33
352.10	212.74
352.48	212.62
352.87	212.62
353.25	212.64
353.63	212.76
354.01	213.07
354.39	213.40
354.77	213.57
355.15	214.48
355.54	214.40
355.92	213.88
356.30	213.93
356.68	215.45
357.06	215.76
357.44	215.64
357.82	215.40
358.20	216.50
358.58	216.64
358.97	216.60
359.35	217.07
359.73	217.36
360.11	217.40
360.49	217.74
360.87	217.76
361.25	218.10
361.63	218.60
362.01	218.71
362.39	218.50
362.77	218.69
363.15	218.33
363.53	218.57
363.91	219.02
364.29	219.19
364.67	217.14
365.05	217.02
365.43	217.26
365.81	217.45
366.19	217.64
366.57	218.57
366.95	218.50
367.33	217.86
367.71	217.93
368.09	218.17
368.47	218.14
368.85	218.19
369.23	218.48
369.61	217.69
369.99	218.26
370.37	218.67
370.75	219.55
371.13	219.00
371.51	218.62
371.89	218.33
372.27	218.26
372.65	218.43
373.03	218.50
373.41	218.45
373.78	218.52
374.16	217.31
374.54	216.60
374.92	216.43
375.30	216.64
375.68	216.31
376.06	216.60
376.44	216.57
376.82	216.48
377.19	216.29
377.57	216.29
377.95	215.36
378.33	215.12
378.71	213.60
379.09	214.02
379.47	214.29
379.84	214.17
380.22	214.00
380.60	213.62
380.98	213.45
381.36	213.33
381.73	213.02
382.11	213.48
382.49	213.40
382.87	213.36
383.25	213.45
383.62	215.83
384.00	215.17
384.38	215.19
384.76	215.64
385.13	216.48
385.51	216.40
385.89	216.05
386.27	215.98
386.64	216.48
387.02	216.48
387.40	216.38
387.78	216.45
388.15	216.52
388.53	216.43
388.91	216.48
389.29	216.24
389.66	216.48
390.04	216.12
390.42	216.57
390.79	216.50
391.17	216.45
391.55	214.19
391.92	214.40
392.30	214.50
392.68	214.12
393.05	213.88
393.43	214.07
393.81	214.45
394.18	214.24
394.56	214.43
394.94	214.67
395.31	214.50
395.69	215.17
396.06	215.45
396.44	215.71
396.82	215.55
397.19	216.64
397.57	216.40
397.95	216.45
398.32	215.95
398.70	216.12
399.07	216.52
399.45	216.38
399.82	216.40
400.20	216.24
400.58	216.14
400.95	215.52
401.33	215.81
401.70	217.29
402.08	217.26
402.45	217.31
402.83	217.71
403.20	217.95
403.58	217.86
403.95	218.12
404.33	218.67
404.71	219.02
405.08	220.26
405.46	220.67
405.83	221.29
406.21	221.64
406.58	222.21
406.96	222.43
407.33	223.19
407.70	223.69
408.08	226.00
408.45	226.90
408.83	227.90
409.20	228.48
409.58	228.17
409.95	229.62
410.33	230.55
410.70	230.93
411.08	232.38
411.45	233.55
411.82	234.69
412.20	236.19
412.57	238.86
412.95	238.43
413.32	240.29
413.69	241.83
414.07	243.62
414.44	245.62
414.82	247.71
415.19	250.14
415.56	252.98
415.94	254.21
416.31	257.38
416.68	260.48
417.06	263.90
417.43	267.43
417.81	271.19
418.18	275.10
418.55	279.21
418.93	283.43
419.30	287.64
419.67	292.38
420.04	297.29
420.42	301.90
420.79	309.90
421.16	316.00
421.54	323.40
421.91	330.60
422.28	337.52
422.66	344.88
423.03	353.69
423.40	361.07
423.77	368.76
424.15	376.67
424.52	384.69
424.89	394.10
425.26	402.36
425.64	410.79
426.01	419.88
426.38	429.64
426.75	439.57
427.13	449.81
427.50	460.40
427.87	471.79
428.24	482.57
428.61	491.50
428.99	503.79
429.36	515.43
429.73	527.38
430.10	539.57
430.47	552.57
430.85	563.95
431.22	577.67
431.59	594.02
431.96	607.62
432.33	623.60
432.70	638.40
433.08	656.21
433.45	672.50
433.82	689.71
434.19	708.24
434.56	726.79
434.93	744.02
435.30	761.26
435.68	780.36
436.05	799.19
436.42	817.57
436.79	834.69
437.16	853.83
437.53	873.10
437.90	892.88
438.27	912.07
438.64	932.17
439.01	950.69
439.38	966.12
439.75	982.55
440.13	1000.26
440.50	1017.71
440.87	1032.14
441.24	1047.19
441.61	1063.12
441.98	1074.74
442.35	1088.07
442.72	1102.57
443.09	1117.50
443.46	1125.86
443.83	1132.24
444.20	1137.50
444.57	1144.17
444.94	1147.10
445.31	1150.90
445.68	1156.55
446.05	1158.17
446.42	1156.36
446.79	1155.02
447.16	1152.17
447.53	1150.50
447.90	1143.29
448.27	1136.12
448.64	1126.50
449.01	1119.93
449.37	1107.64
449.74	1095.76
450.11	1083.45
450.48	1067.10
450.85	1049.60
451.22	1035.29
451.59	1021.67
451.96	1009.45
452.33	992.17
452.70	976.69
453.07	958.69
453.43	937.60
453.80	918.95
454.17	901.57
454.54	884.62
454.91	867.31
455.28	850.29
455.65	834.64
456.02	821.60
456.38	807.45
456.75	789.88
457.12	775.33
457.49	761.29
457.86	745.64
458.23	734.86
458.59	721.64
458.96	708.52
459.33	696.69
459.70	684.93
460.07	676.31
460.43	665.64
460.80	655.81
461.17	647.90
461.54	638.93
461.91	630.26
462.27	621.24
462.64	613.79
463.01	605.83
463.38	598.64
463.74	587.29
464.11	580.12
464.48	573.95
464.85	566.55
465.21	561.79
465.58	556.24
465.95	548.71
466.32	543.86
466.68	538.02
467.05	532.98
467.42	527.69
467.78	521.50
468.15	516.52
468.52	512.60
468.88	506.36
469.25	501.36
469.62	498.00
469.98	493.76
470.35	489.93
470.72	485.79
471.08	480.83
471.45	477.74
471.82	474.81
472.18	470.79
472.55	468.45
472.92	464.33
473.28	461.12
473.65	458.14
474.02	455.07
474.38	453.17
474.75	450.62
475.11	448.19
475.48	446.67
475.85	444.52
476.21	442.31
476.58	440.93
476.94	439.93
477.31	438.29
477.67	437.00
478.04	435.38
478.41	434.36
478.77	435.90
479.14	434.83
479.50	433.95
479.87	433.95
480.23	433.45
480.60	433.00
480.96	432.81
481.33	433.55
481.69	433.81
482.06	434.29
482.42	434.98
482.79	435.14
483.15	435.60
483.52	436.62
483.88	437.10
484.25	438.10
484.61	439.07
484.98	439.48
485.34	441.33
485.71	443.14
486.07	445.14
486.44	444.79
486.80	446.62
487.17	448.21
487.53	450.81
487.90	453.19
488.26	456.71
488.62	459.48
488.99	461.81
489.35	464.52
489.72	467.36
490.08	470.07
490.44	473.07
490.81	476.29
491.17	479.36
491.54	483.43
491.90	487.67
492.26	491.48
492.63	496.57
492.99	500.45
493.36	504.90
493.72	509.45
494.08	514.38
494.45	519.88
494.81	525.60
495.17	530.60
495.54	536.43
495.90	541.86
496.26	547.36
496.63	553.43
496.99	559.76
497.35	566.19
497.72	573.07
498.08	580.17
498.44	587.14
498.80	594.29
499.17	600.67
499.53	607.07
499.89	615.36
500.26	622.48
500.62	630.12
500.98	638.12
501.34	645.71
501.71	653.71
502.07	661.57
502.43	669.57
502.79	677.26
503.16	684.74
503.52	692.67
503.88	700.74
504.24	709.05
504.60	717.19
504.97	725.45
505.33	733.60
505.69	743.14
506.05	751.57
506.41	760.48
506.78	769.52
507.14	778.02
507.50	786.24
507.86	795.02
508.22	804.05
508.59	811.90
508.95	821.64
509.31	831.19
509.67	840.19
510.03	849.00
510.39	858.95
510.75	868.21
511.12	876.76
511.48	886.00
511.84	894.64
512.20	903.98
512.56	912.76
512.92	922.02
513.28	930.50
513.64	939.26
514.00	947.76
514.37	956.43
514.73	965.98
515.09	975.07
515.45	983.10
515.81	990.90
516.17	999.90
516.53	1007.29
516.89	1014.31
517.25	1022.19
517.61	1030.40
517.97	1037.71
518.33	1046.07
518.69	1054.36
519.05	1062.86
519.41	1070.60
519.77	1079.29
520.13	1087.00
520.49	1093.52
520.85	1100.00
521.21	1108.12
521.57	1116.07
521.93	1123.17
522.29	1130.00
522.65	1136.29
523.01	1143.50
523.37	1150.07
523.73	1156.45
524.09	1163.17
524.45	1169.95
524.81	1175.74
525.17	1182.48
525.53	1188.45
525.89	1194.33
526.25	1200.38
526.61	1205.52
526.97	1211.24
527.33	1216.19
527.68	1223.69
528.04	1230.31
528.40	1236.29
528.76	1241.36
529.12	1246.64
529.48	1252.17
529.84	1258.21
530.20	1264.48
530.56	1270.10
530.91	1276.62
531.27	1282.79
531.63	1287.88
531.99	1293.14
532.35	1299.74
532.71	1305.24
533.07	1311.07
533.42	1318.10
533.78	1323.95
534.14	1329.74
534.50	1335.38
534.86	1341.95
535.21	1345.43
535.57	1351.26
535.93	1355.74
536.29	1362.21
536.65	1368.02
537.00	1374.14
537.36	1378.76
537.72	1382.88
538.08	1388.81
538.44	1393.07
538.79	1397.74
539.15	1402.88
539.51	1407.90
539.87	1412.60
540.22	1415.86
540.58	1420.93
540.94	1424.02
541.29	1427.05
541.65	1430.29
542.01	1435.31
542.37	1437.83
542.72	1441.60
543.08	1444.55
543.44	1449.62
543.79	1451.74
544.15	1455.31
544.51	1459.05
544.87	1463.10
545.22	1467.48
545.58	1470.43
545.94	1473.95
546.29	1477.74
546.65	1481.48
547.01	1484.74
547.36	1487.45
547.72	1491.40
548.07	1495.12
548.43	1498.26
548.79	1503.43
549.14	1507.79
549.50	1510.90
549.86	1514.36
550.21	1518.64
550.57	1522.50
550.92	1525.29
551.28	1530.38
551.64	1533.95
551.99	1537.95
552.35	1541.74
552.70	1544.83
553.06	1548.31
553.41	1552.93
553.77	1557.90
554.13	1562.33
554.48	1568.05
554.84	1572.88
555.19	1578.05
555.55	1583.38
555.90	1587.81
556.26	1591.40
556.61	1595.79
556.97	1598.93
557.32	1603.71
557.68	1607.38
558.03	1612.00
558.39	1616.40
558.74	1620.21
559.10	1624.07
559.45	1628.07
559.81	1631.79
560.16	1636.38
560.52	1641.00
560.87	1645.55
561.23	1649.07
561.58	1654.67
561.94	1657.81
562.29	1661.69
562.64	1666.43
563.00	1668.67
563.35	1673.21
563.71	1677.69
564.06	1683.19
564.42	1688.74
564.77	1693.38
565.12	1699.69
565.48	1706.69
565.83	1712.43
566.19	1718.05
566.54	1723.60
566.89	1727.60
567.25	1733.90
567.60	1740.19
567.96	1747.00
568.31	1752.50
568.66	1757.57
569.02	1760.90
569.37	1764.93
569.72	1769.57
570.08	1772.88
570.43	1776.55
570.78	1780.86
571.14	1785.14
571.49	1787.57
571.84	1791.40
572.20	1794.88
572.55	1797.76
572.90	1798.52
573.26	1801.10
573.61	1802.31
573.96	1804.98
574.31	1807.67
574.67	1808.88
575.02	1810.45
575.37	1811.10
575.72	1812.36
576.08	1813.86
576.43	1815.05
576.78	1816.83
577.13	1818.14
577.49	1819.50
577.84	1822.24
578.19	1823.29
578.54	1824.95
578.90	1826.62
579.25	1828.29
579.60	1828.19
579.95	1827.95
580.30	1829.21
580.66	1830.33
581.01	1831.48
581.36	1831.07
581.71	1831.98
582.06	1833.60
582.42	1832.88
582.77	1831.95
583.12	1831.79
583.47	1831.79
583.82	1831.40
584.17	1831.69
584.53	1831.57
584.88	1831.05
585.23	1831.17
585.58	1829.95
585.93	1829.00
586.28	1828.02
586.63	1826.71
586.98	1827.71
587.34	1827.55
587.69	1826.64
588.04	1825.76
588.39	1825.10
588.74	1823.12
589.09	1822.26
589.44	1819.29
589.79	1818.95
590.14	1818.36
590.49	1817.29
590.84	1815.50
591.19	1814.74
591.54	1813.14
591.89	1812.33
592.25	1812.69
592.60	1809.60
592.95	1809.69
593.30	1808.43
593.65	1806.60
594.00	1803.57
594.35	1806.19
594.70	1803.00
595.05	1801.00
595.40	1797.64
595.75	1794.98
596.10	1794.50
596.45	1792.21
596.80	1791.17
597.15	1788.98
597.50	1786.29
597.85	1784.38
598.19	1781.17
598.54	1777.64
598.89	1774.93
599.24	1772.79
599.59	1768.69
599.94	1766.31
600.29	1762.98
600.64	1760.10
600.99	1757.83
601.34	1756.74
601.69	1748.38
602.04	1746.17
602.39	1742.64
602.74	1740.95
603.08	1737.88
603.43	1735.60
603.78	1732.88
604.13	1730.05
604.48	1725.57
604.83	1723.48
605.18	1720.10
605.53	1717.52
605.87	1714.74
606.22	1712.24
606.57	1707.81
606.92	1704.40
607.27	1701.33
607.62	1698.81
607.96	1695.60
608.31	1692.43
608.66	1687.69
609.01	1683.90
609.36	1680.93
609.70	1677.05
610.05	1672.55
610.40	1668.67
610.75	1663.57
611.10	1658.71
611.44	1652.98
611.79	1648.62
612.14	1643.29
612.49	1637.31
612.83	1631.98
613.18	1626.71
613.53	1620.50
613.88	1614.81
614.22	1608.57
614.57	1603.02
614.92	1595.60
615.27	1588.88
615.61	1582.69
615.96	1577.05
616.31	1571.79
616.65	1566.31
617.00	1560.95
617.35	1554.83
617.70	1549.43
618.04	1543.64
618.39	1536.74
618.74	1531.10
619.08	1525.24
619.43	1519.10
619.78	1513.62
620.12	1509.10
620.47	1503.71
620.82	1497.62
621.16	1491.67
621.51	1487.48
621.85	1481.07
622.20	1475.24
622.55	1469.36
622.89	1463.29
623.24	1457.76
623.59	1451.33
623.93	1445.33
624.28	1439.55
624.62	1436.88
624.97	1432.31
625.32	1426.10
625.66	1421.17
626.01	1415.38
626.35	1410.86
626.70	1405.36
627.04	1400.64
627.39	1393.90
627.73	1389.60
628.08	1384.95
628.43	1379.14
628.77	1372.88
629.12	1367.74
629.46	1362.98
629.81	1357.74
630.15	1351.29
630.50	1344.95
630.84	1339.57
631.19	1332.19
631.53	1325.88
631.88	1316.55
632.22	1307.81
632.57	1301.90
632.91	1294.95
633.26	1288.14
633.60	1281.07
633.95	1274.64
634.29	1267.29
634.64	1260.90
634.98	1252.55
635.32	1246.29
635.67	1240.79
636.01	1233.83
636.36	1226.95
636.70	1220.95
637.05	1214.05
637.39	1208.43
637.73	1202.95
638.08	1197.07
638.42	1191.83
638.77	1186.10
639.11	1179.76
639.45	1174.33
639.80	1167.62
640.14	1162.19
640.49	1156.10
640.83	1149.98
641.17	1144.69
641.52	1138.67
641.86	1133.29
642.20	1128.38
642.55	1120.81
642.89	1114.12
643.23	1108.19
643.58	1103.05
643.92	1095.98
644.26	1089.48
644.61	1083.33
644.95	1076.36
645.29	1068.17
645.64	1061.55
645.98	1054.71
646.32	1049.43
646.66	1042.90
647.01	1036.60
647.35	1030.69
647.69	1024.81
648.04	1018.48
648.38	1011.83
648.72	1005.67
649.06	999.07
649.41	991.69
649.75	985.19
650.09	979.21
650.43	972.52
650.78	964.81
651.12	958.05
651.46	951.57
651.80	944.83
652.14	939.43
652.49	934.12
652.83	928.26
653.17	921.55
653.51	914.76
653.85	908.79
654.20	902.38
654.54	895.33
654.88	888.88
655.22	883.52
655.56	876.86
655.90	870.81
656.25	864.29
656.59	858.98
656.93	853.90
657.27	848.02
657.61	841.88
657.95	836.62
658.29	831.02
658.64	825.64
658.98	819.64
659.32	812.81
659.66	807.52
660.00	801.43
660.34	796.40
660.68	790.95
661.02	785.40
661.36	780.21
661.70	774.83
662.05	770.05
662.39	764.36
662.73	759.31
663.07	754.93
663.41	750.26
663.75	744.40
664.09	738.83
664.43	733.45
664.77	728.19
665.11	722.38
665.45	717.33
665.79	712.10
666.13	707.05
666.47	702.10
666.81	696.81
667.15	691.02
667.49	686.02
667.83	681.79
668.17	676.90
668.51	671.95
668.85	667.26
669.19	662.95
669.53	657.45
669.87	652.69
670.21	646.95
670.55	641.74
670.89	638.36
671.23	633.86
671.57	629.29
671.91	625.52
672.25	621.64
672.58	617.79
672.92	613.67
673.26	609.69
673.60	606.21
673.94	602.07
674.28	598.81
674.62	595.38
674.96	590.74
675.30	587.26
675.64	583.57
675.97	580.33
676.31	575.64
676.65	571.62
676.99	568.31
677.33	564.62
677.67	561.33
678.01	556.76
678.34	553.57
678.68	550.52
679.02	546.93
679.36	543.52
679.70	539.50
680.04	535.93
680.37	532.17
680.71	528.33
681.05	525.12
681.39	521.93
681.73	517.74
682.06	514.45
682.40	510.43
682.74	507.07
683.08	503.98
683.42	500.38
683.75	497.95
684.09	493.88
684.43	490.21
684.77	486.62
685.10	483.31
685.44	479.93
685.78	476.05
686.12	472.55
686.45	469.00
686.79	465.81
687.13	463.45
687.46	460.67
687.80	458.02
688.14	454.50
688.48	451.60
688.81	448.76
689.15	446.26
689.49	443.67
689.82	441.00
690.16	437.19
690.50	434.86
690.83	431.48
691.17	428.45
691.51	426.00
691.84	423.48
692.18	420.90
692.52	418.19
692.85	416.00
693.19	414.31
693.52	412.05
693.86	409.05
694.20	406.07
694.53	403.74
694.87	400.90
695.21	398.50
695.54	395.64
695.88	393.00
696.21	389.62
696.55	387.21
696.88	384.74
697.22	382.48
697.56	380.31
697.89	378.12
698.23	376.29
698.56	373.81
698.90	372.26
699.23	370.10
699.57	368.43
699.90	366.26
700.24	363.48
700.58	361.45
700.91	360.26
701.25	359.86
701.58	358.67
701.92	357.45
702.25	355.83
702.59	354.00
702.92	352.19
703.26	350.95
703.59	349.31
703.93	349.43
704.26	348.33
704.60	346.69
704.93	345.17
705.26	343.45
705.60	342.36
705.93	340.00
706.27	338.95
706.60	337.50
706.94	337.02
707.27	335.62
707.61	334.19
707.94	332.79
708.27	329.79
708.61	327.40
708.94	325.67
709.28	324.38
709.61	322.95
709.94	321.88
710.28	320.45
710.61	318.67
710.95	315.29
711.28	314.79
711.61	313.17
711.95	312.14
712.28	310.93
712.61	309.50
712.95	309.50
713.28	309.24
713.61	307.48
713.95	305.48
714.28	304.36
714.61	303.12
714.95	301.62
715.28	300.31
715.61	299.24
715.95	298.05
716.28	296.69
716.61	296.21
716.95	294.81
717.28	293.71
717.61	292.76
717.94	291.98
718.28	289.57
718.61	288.67
718.94	287.45
719.27	286.10
719.61	285.33
719.94	283.76
720.27	281.76
720.60	280.76
720.94	279.83
721.27	279.07
721.60	278.57
721.93	277.81
722.27	277.86
722.60	277.43
722.93	276.55
723.26	276.07
723.59	274.36
723.93	273.76
724.26	272.98
724.59	272.40
724.92	271.79
725.25	271.95
725.59	271.29
725.92	270.74
726.25	270.38
726.58	269.48
726.91	268.67
727.24	268.31
727.57	267.93
727.91	267.02
728.24	266.50
728.57	265.55
728.90	265.17
729.23	263.93
729.56	264.10
729.89	263.67
730.22	263.02
730.55	262.83
730.89	262.57
731.22	262.00
731.55	261.52
731.88	261.19
732.21	260.00
732.54	259.36
732.87	258.76
733.20	258.52
733.53	258.19
733.86	257.95
734.19	256.95
734.52	256.57
734.85	257.52
735.18	256.88
735.51	257.05
735.84	256.62
736.17	256.62
736.50	255.17
736.83	256.74
737.16	256.17
737.49	255.90
737.82	255.48
738.15	255.55
738.48	254.98
738.81	254.19
739.14	253.86
739.47	253.50
739.80	253.29
740.13	253.14
740.46	252.55
740.79	251.62
741.12	251.33
741.45	250.64
741.78	249.17
742.11	249.62
742.44	248.71
742.77	248.55
743.10	247.74
743.43	247.38
743.75	245.12
744.08	247.31
744.41	246.79
744.74	246.02
745.07	245.00
745.40	244.93
745.73	245.64
746.06	245.14
746.39	244.93
746.71	244.33
747.04	243.50
747.37	243.17
747.70	243.33
748.03	242.98
748.36	242.93
748.68	242.64
749.01	241.40
749.34	241.07
749.67	240.83
750.00	241.14
750.33	242.43
750.65	242.36
750.98	239.43
751.31	239.33
751.64	239.50
751.97	240.48
752.29	240.17
752.62	238.69
752.95	238.24
753.28	237.69
753.60	237.43
753.93	237.62
754.26	237.26
754.59	236.38
754.91	236.10
755.24	235.93
755.57	235.45
755.90	235.24
756.22	234.95
756.55	234.17
756.88	233.10
757.20	231.31
757.53	230.57
757.86	230.50
758.19	230.45
758.51	230.07
758.84	228.62
759.17	228.29
759.49	228.55
759.82	229.69
760.15	229.76
760.47	229.40
760.80	228.88
761.13	229.24
761.45	229.24
761.78	228.81
762.11	228.62
762.43	228.43
762.76	228.26
763.08	228.31
763.41	228.29
763.74	228.71
764.06	228.67
764.39	228.79
764.71	228.60
765.04	228.17
765.37	227.93
765.69	228.10
766.02	227.88
766.34	227.50
766.67	226.52
767.00	226.88
767.32	227.98
767.65	229.14
767.97	228.71
768.30	228.52
768.62	228.81
768.95	228.50
769.27	228.36
769.60	228.45
769.92	228.07
770.25	227.79
770.57	226.93
770.90	226.67
771.22	226.02
771.55	226.14
771.87	226.10
772.20	225.90
772.52	227.38
772.85	229.76
773.17	229.76
773.50	229.50
773.82	229.07
774.15	228.10
774.47	226.62
774.80	226.38
775.12	226.17
775.45	225.88
775.77	225.90
776.09	225.98
776.42	225.95
776.74	226.12
777.07	225.93
777.39	226.05
777.72	225.88
778.04	226.19
778.36	225.86
778.69	225.52
779.01	225.67
779.33	224.02
779.66	221.69
779.98	221.45
780.31	221.52
780.63	222.17
780.95	222.60
781.28	222.50
781.60	222.26
781.92	222.57
782.25	222.67
782.57	222.40
782.89	222.19
783.22	221.83
783.54	221.86
783.86	221.95
784.19	221.88
784.51	222.48
784.83	221.83
785.16	221.71
785.48	221.95
