SpectraSuite Data File
++++++++++++++++++++++++++++++++++++
Date: Tue Apr 02 18:44:04 EDT 2013
User: group
Dark Spectrum Present: No
Reference Spectrum Present: No
Number of Sampled Component Spectra: 1
Spectrometers: USB2E7196
Integration Time (usec): 580000 (USB2E7196)
Spectra Averaged: 2 (USB2E7196)
Boxcar Smoothing: 10 (USB2E7196)
Correct for Electrical Dark: No (USB2E7196)
Strobe/Lamp Enabled: No (USB2E7196)
Correct for Detector Non-linearity: No (USB2E7196)
Correct for Stray Light: No (USB2E7196)
Number of Pixels in Processed Spectrum: 2048
>>>>>Begin Processed Spectral Data<<<<<
339.09	0.00
339.48	194.50
339.86	196.00
340.24	195.50
340.63	195.00
341.01	232.00
341.39	204.00
341.78	206.00
342.16	214.50
342.54	201.50
342.93	197.95
343.31	207.93
343.69	208.55
344.07	209.17
344.46	210.10
344.84	210.98
345.22	209.60
345.60	210.05
345.99	210.21
346.37	210.12
346.75	210.64
347.13	211.00
347.52	211.00
347.90	211.71
348.28	211.79
348.66	212.43
349.05	211.93
349.43	212.19
349.81	212.33
350.19	212.50
350.57	212.79
350.96	213.14
351.34	213.33
351.72	213.50
352.10	213.55
352.48	213.33
352.87	213.21
353.25	213.52
353.63	213.40
354.01	213.36
354.39	213.55
354.77	213.55
355.15	213.83
355.54	213.90
355.92	213.55
356.30	213.50
356.68	214.81
357.06	215.05
357.44	214.83
357.82	214.76
358.20	215.64
358.58	215.40
358.97	215.40
359.35	215.86
359.73	216.21
360.11	216.10
360.49	216.10
360.87	216.14
361.25	216.43
361.63	217.21
362.01	217.55
362.39	217.31
362.77	217.36
363.15	217.29
363.53	217.21
363.91	217.02
364.29	217.00
364.67	215.26
365.05	215.21
365.43	215.48
365.81	215.83
366.19	216.05
366.57	216.88
366.95	216.71
367.33	216.17
367.71	216.00
368.09	216.48
368.47	216.43
368.85	216.33
369.23	216.86
369.61	216.12
369.99	216.76
370.37	217.05
370.75	218.10
371.13	217.67
371.51	217.14
371.89	217.12
372.27	217.38
372.65	217.40
373.03	217.52
373.41	217.31
373.78	217.12
374.16	215.93
374.54	215.21
374.92	214.93
375.30	214.81
375.68	214.52
376.06	214.62
376.44	214.57
376.82	214.48
377.19	214.14
377.57	213.98
377.95	213.19
378.33	212.71
378.71	211.33
379.09	211.67
379.47	212.24
379.84	212.24
380.22	212.05
380.60	211.60
380.98	211.31
381.36	211.17
381.73	210.90
382.11	211.19
382.49	211.55
382.87	211.50
383.25	211.64
383.62	214.19
384.00	213.69
384.38	213.71
384.76	214.43
385.13	215.12
385.51	215.12
385.89	214.81
386.27	215.31
386.64	215.86
387.02	215.67
387.40	215.36
387.78	215.38
388.15	215.57
388.53	215.43
388.91	215.62
389.29	215.57
389.66	215.88
390.04	215.71
390.42	215.79
390.79	216.05
391.17	216.10
391.55	213.69
391.92	213.88
392.30	214.05
392.68	213.40
393.05	213.29
393.43	213.38
393.81	213.62
394.18	213.02
394.56	213.12
394.94	213.79
395.31	213.57
395.69	214.43
396.06	214.62
396.44	214.86
396.82	214.50
397.19	215.88
397.57	215.64
397.95	216.02
398.32	215.62
398.70	215.55
399.07	215.90
399.45	215.83
399.82	215.76
400.20	215.74
400.58	216.02
400.95	215.24
401.33	215.74
401.70	217.26
402.08	217.67
402.45	217.45
402.83	217.69
403.20	218.00
403.58	217.52
403.95	218.05
404.33	218.60
404.71	218.81
405.08	219.90
405.46	220.26
405.83	220.50
406.21	220.79
406.58	221.33
406.96	221.67
407.33	222.40
407.70	223.12
408.08	225.19
408.45	225.83
408.83	227.05
409.20	227.31
409.58	226.83
409.95	227.88
410.33	228.83
410.70	229.05
411.08	230.12
411.45	231.26
411.82	231.64
412.20	233.19
412.57	235.88
412.95	235.26
413.32	237.17
413.69	238.57
414.07	240.31
414.44	242.14
414.82	244.26
415.19	246.45
415.56	248.81
415.94	250.07
416.31	253.02
416.68	255.81
417.06	259.21
417.43	262.74
417.81	266.05
418.18	269.52
418.55	273.21
418.93	277.50
419.30	281.48
419.67	286.17
420.04	290.55
420.42	294.81
420.79	302.05
421.16	307.50
421.54	314.21
421.91	320.38
422.28	326.86
422.66	333.36
423.03	341.36
423.40	348.26
423.77	355.26
424.15	362.43
424.52	370.07
424.89	378.71
425.26	386.14
425.64	393.60
426.01	401.90
426.38	411.00
426.75	420.48
427.13	430.21
427.50	439.71
427.87	449.31
428.24	459.29
428.61	467.45
428.99	478.55
429.36	489.33
429.73	499.90
430.10	510.95
430.47	522.81
430.85	533.07
431.22	545.52
431.59	560.71
431.96	573.17
432.33	586.43
432.70	600.14
433.08	616.69
433.45	632.07
433.82	647.21
434.19	664.71
434.56	681.43
434.93	696.90
435.30	712.60
435.68	730.31
436.05	747.43
436.42	764.57
436.79	781.17
437.16	798.36
437.53	816.79
437.90	834.52
438.27	852.36
438.64	870.24
439.01	887.43
439.38	900.71
439.75	915.76
440.13	933.48
440.50	949.69
440.87	962.64
441.24	975.57
441.61	990.88
441.98	1000.79
442.35	1012.79
442.72	1025.64
443.09	1039.38
443.46	1047.26
443.83	1052.36
444.20	1057.26
444.57	1062.74
444.94	1065.48
445.31	1068.95
445.68	1074.17
446.05	1075.69
446.42	1075.21
446.79	1074.21
447.16	1072.83
447.53	1071.29
447.90	1064.48
448.27	1057.10
448.64	1047.81
449.01	1041.98
449.37	1030.55
449.74	1019.55
450.11	1007.81
450.48	993.02
450.85	977.24
451.22	964.45
451.59	952.64
451.96	940.93
452.33	925.31
452.70	911.38
453.07	893.95
453.43	875.33
453.80	858.79
454.17	842.52
454.54	826.69
454.91	810.45
455.28	794.45
455.65	779.45
456.02	768.19
456.38	755.48
456.75	739.76
457.12	726.40
457.49	713.76
457.86	700.12
458.23	690.00
458.59	678.31
458.96	666.29
459.33	655.57
459.70	645.52
460.07	637.48
460.43	627.93
460.80	619.69
461.17	612.17
461.54	603.40
461.91	595.52
462.27	587.36
462.64	580.31
463.01	572.93
463.38	566.67
463.74	555.98
464.11	549.88
464.48	544.62
464.85	538.52
465.21	534.43
465.58	529.24
465.95	522.90
466.32	517.52
466.68	512.24
467.05	507.43
467.42	502.31
467.78	496.40
468.15	491.19
468.52	487.50
468.88	481.55
469.25	476.88
469.62	473.52
469.98	469.36
470.35	465.69
470.72	462.29
471.08	457.55
471.45	454.52
471.82	451.55
472.18	448.10
472.55	445.29
472.92	441.74
473.28	438.79
473.65	436.19
474.02	434.43
474.38	432.69
474.75	430.69
475.11	427.98
475.48	426.50
475.85	425.10
476.21	423.36
476.58	422.26
476.94	421.24
477.31	419.62
477.67	418.43
478.04	417.43
478.41	416.83
478.77	418.45
479.14	417.52
479.50	416.93
479.87	416.50
480.23	416.36
480.60	415.67
480.96	415.40
481.33	416.00
481.69	415.40
482.06	415.71
482.42	415.98
482.79	416.45
483.15	416.69
483.52	417.45
483.88	417.71
484.25	418.38
484.61	418.93
484.98	419.45
485.34	421.45
485.71	422.83
486.07	423.74
486.44	423.31
486.80	425.00
487.17	426.24
487.53	428.64
487.90	430.52
488.26	433.52
488.62	436.50
488.99	438.40
489.35	441.24
489.72	443.62
490.08	445.98
490.44	448.79
490.81	451.86
491.17	454.55
491.54	458.50
491.90	462.14
492.26	465.81
492.63	470.00
492.99	473.38
493.36	477.40
493.72	482.21
494.08	486.40
494.45	490.81
494.81	496.14
495.17	500.71
495.54	506.19
495.90	511.00
496.26	515.88
496.63	521.24
496.99	526.76
497.35	532.55
497.72	538.76
498.08	544.48
498.44	550.69
498.80	557.57
499.17	563.24
499.53	569.12
499.89	576.29
500.26	583.24
500.62	589.83
500.98	596.74
501.34	603.62
501.71	611.52
502.07	618.55
502.43	625.43
502.79	631.90
503.16	638.90
503.52	646.19
503.88	652.45
504.24	660.12
504.60	667.60
504.97	675.14
505.33	682.62
505.69	691.67
506.05	699.36
506.41	706.95
506.78	715.14
507.14	722.98
507.50	730.40
507.86	737.69
508.22	745.86
508.59	753.26
508.95	760.98
509.31	769.02
509.67	777.38
510.03	785.45
510.39	793.48
510.75	801.45
511.12	809.10
511.48	817.31
511.84	824.67
512.20	832.12
512.56	840.00
512.92	848.02
513.28	853.95
513.64	860.74
514.00	868.40
514.37	875.79
514.73	883.62
515.09	891.29
515.45	898.33
515.81	905.86
516.17	912.93
516.53	919.12
516.89	924.86
517.25	931.64
517.61	938.24
517.97	944.14
518.33	950.24
518.69	956.95
519.05	963.57
519.41	969.86
519.77	977.88
520.13	983.17
520.49	988.33
520.85	995.07
521.21	1002.76
521.57	1008.05
521.93	1012.93
522.29	1018.52
522.65	1022.36
523.01	1028.57
523.37	1033.17
523.73	1038.45
524.09	1044.14
524.45	1049.05
524.81	1052.93
525.17	1057.88
525.53	1062.93
525.89	1067.10
526.25	1071.05
526.61	1074.76
526.97	1078.40
527.33	1081.57
527.68	1088.07
528.04	1092.31
528.40	1096.31
528.76	1099.36
529.12	1103.62
529.48	1108.69
529.84	1112.12
530.20	1117.50
530.56	1121.02
530.91	1125.33
531.27	1129.76
531.63	1134.10
531.99	1138.14
532.35	1142.60
532.71	1146.38
533.07	1150.50
533.42	1157.64
533.78	1162.26
534.14	1167.67
534.50	1172.36
534.86	1176.71
535.21	1178.88
535.57	1183.12
535.93	1186.38
536.29	1190.90
536.65	1195.64
537.00	1199.33
537.36	1203.17
537.72	1206.38
538.08	1210.36
538.44	1213.29
538.79	1216.81
539.15	1220.12
539.51	1223.29
539.87	1226.38
540.22	1229.74
540.58	1233.57
540.94	1234.14
541.29	1236.71
541.65	1238.64
542.01	1241.48
542.37	1243.64
542.72	1246.14
543.08	1248.64
543.44	1252.62
543.79	1254.21
544.15	1256.52
544.51	1258.98
544.87	1262.12
545.22	1265.74
545.58	1268.02
545.94	1271.10
546.29	1273.24
546.65	1275.67
547.01	1278.50
547.36	1281.50
547.72	1282.98
548.07	1285.48
548.43	1287.69
548.79	1290.12
549.14	1293.24
549.50	1296.88
549.86	1298.67
550.21	1301.43
550.57	1304.81
550.92	1306.93
551.28	1310.07
551.64	1313.05
551.99	1316.40
552.35	1318.88
552.70	1321.45
553.06	1325.60
553.41	1328.10
553.77	1332.71
554.13	1336.24
554.48	1339.76
554.84	1343.95
555.19	1348.76
555.55	1353.79
555.90	1358.05
556.26	1361.50
556.61	1364.40
556.97	1367.29
557.32	1371.76
557.68	1375.83
558.03	1378.86
558.39	1381.90
558.74	1386.40
559.10	1389.76
559.45	1393.45
559.81	1398.52
560.16	1402.31
560.52	1405.55
560.87	1410.43
561.23	1413.31
561.58	1418.76
561.94	1423.29
562.29	1427.00
562.64	1431.02
563.00	1433.57
563.35	1437.81
563.71	1443.62
564.06	1449.48
564.42	1454.00
564.77	1459.55
565.12	1465.31
565.48	1472.60
565.83	1479.21
566.19	1484.74
566.54	1490.26
566.89	1495.81
567.25	1501.57
567.60	1508.48
567.96	1516.29
568.31	1523.29
568.66	1529.98
569.02	1534.50
569.37	1539.64
569.72	1545.71
570.08	1551.31
570.43	1557.00
570.78	1563.43
571.14	1569.17
571.49	1574.64
571.84	1580.81
572.20	1585.67
572.55	1590.14
572.90	1593.93
573.26	1598.67
573.61	1602.88
573.96	1607.62
574.31	1611.74
574.67	1615.19
575.02	1618.57
575.37	1621.02
575.72	1623.38
576.08	1626.95
576.43	1631.10
576.78	1635.31
577.13	1638.40
577.49	1642.36
577.84	1647.33
578.19	1650.57
578.54	1654.10
578.90	1657.33
579.25	1660.71
579.60	1663.38
579.95	1666.48
580.30	1669.88
580.66	1673.12
581.01	1675.93
581.36	1679.55
581.71	1683.12
582.06	1687.64
582.42	1691.69
582.77	1694.45
583.12	1698.02
583.47	1701.12
583.82	1703.60
584.17	1706.12
584.53	1710.31
584.88	1712.95
585.23	1716.17
585.58	1717.93
585.93	1720.05
586.28	1722.64
586.63	1725.38
586.98	1728.67
587.34	1732.31
587.69	1734.86
588.04	1737.71
588.39	1741.17
588.74	1742.29
589.09	1744.52
589.44	1744.86
589.79	1745.76
590.14	1748.24
590.49	1750.48
590.84	1751.79
591.19	1754.38
591.54	1756.26
591.89	1756.57
592.25	1760.40
592.60	1760.48
592.95	1762.93
593.30	1765.02
593.65	1766.38
594.00	1766.02
594.35	1773.12
594.70	1773.38
595.05	1774.43
595.40	1775.05
595.75	1774.62
596.10	1776.07
596.45	1776.93
596.80	1779.02
597.15	1780.45
597.50	1780.12
597.85	1781.48
598.19	1782.05
598.54	1782.14
598.89	1783.29
599.24	1784.83
599.59	1783.36
599.94	1784.07
600.29	1784.45
600.64	1783.52
600.99	1784.10
601.34	1785.81
601.69	1779.45
602.04	1779.02
602.39	1779.05
602.74	1779.74
603.08	1779.67
603.43	1780.17
603.78	1779.88
604.13	1778.83
604.48	1777.64
604.83	1778.14
605.18	1776.71
605.53	1776.36
605.87	1775.00
606.22	1774.26
606.57	1772.64
606.92	1771.19
607.27	1770.48
607.62	1769.10
607.96	1769.12
608.31	1768.19
608.66	1767.26
609.01	1766.64
609.36	1766.45
609.70	1763.74
610.05	1760.86
610.40	1759.81
610.75	1757.24
611.10	1755.64
611.44	1752.57
611.79	1750.36
612.14	1747.29
612.49	1744.48
612.83	1742.38
613.18	1739.57
613.53	1736.50
613.88	1733.24
614.22	1730.14
614.57	1725.62
614.92	1722.10
615.27	1718.24
615.61	1713.93
615.96	1709.64
616.31	1706.52
616.65	1702.88
617.00	1700.79
617.35	1697.95
617.70	1694.86
618.04	1690.76
618.39	1687.02
618.74	1684.69
619.08	1681.52
619.43	1678.69
619.78	1674.93
620.12	1671.19
620.47	1667.81
620.82	1662.93
621.16	1657.52
621.51	1654.31
621.85	1650.52
622.20	1646.21
622.55	1642.10
622.89	1638.79
623.24	1636.36
623.59	1632.40
623.93	1628.14
624.28	1623.57
624.62	1620.88
624.97	1617.86
625.32	1614.76
625.66	1610.26
626.01	1605.83
626.35	1601.38
626.70	1597.26
627.04	1594.10
627.39	1589.38
627.73	1586.02
628.08	1583.62
628.43	1581.10
628.77	1576.79
629.12	1574.26
629.46	1571.71
629.81	1567.69
630.15	1562.40
630.50	1556.45
630.84	1551.05
631.19	1545.93
631.53	1541.60
631.88	1534.76
632.22	1528.43
632.57	1524.24
632.91	1519.40
633.26	1515.12
633.60	1510.67
633.95	1505.50
634.29	1499.55
634.64	1495.57
634.98	1490.81
635.32	1485.81
635.67	1482.43
636.01	1478.43
636.36	1472.52
636.70	1468.12
637.05	1463.93
637.39	1460.71
637.73	1457.10
638.08	1452.86
638.42	1448.88
638.77	1444.74
639.11	1440.21
639.45	1435.93
639.80	1430.05
640.14	1425.40
640.49	1420.12
640.83	1414.38
641.17	1409.43
641.52	1405.10
641.86	1399.71
642.20	1395.86
642.55	1389.69
642.89	1383.69
643.23	1377.64
643.58	1373.52
643.92	1366.71
644.26	1360.48
644.61	1354.21
644.95	1347.64
645.29	1342.05
645.64	1336.40
645.98	1330.52
646.32	1325.55
646.66	1318.95
647.01	1312.52
647.35	1307.64
647.69	1301.60
648.04	1296.29
648.38	1290.48
648.72	1284.19
649.06	1278.14
649.41	1270.71
649.75	1264.69
650.09	1258.43
650.43	1252.31
650.78	1245.33
651.12	1239.19
651.46	1232.67
651.80	1226.55
652.14	1220.36
652.49	1214.38
652.83	1207.86
653.17	1200.38
653.51	1192.93
653.85	1186.81
654.20	1181.26
654.54	1173.76
654.88	1166.88
655.22	1161.02
655.56	1153.69
655.90	1147.21
656.25	1140.52
656.59	1134.24
656.93	1128.07
657.27	1122.79
657.61	1116.21
657.95	1110.79
658.29	1104.79
658.64	1099.55
658.98	1092.67
659.32	1085.95
659.66	1079.24
660.00	1072.69
660.34	1066.88
660.68	1061.67
661.02	1055.43
661.36	1048.67
661.70	1042.50
662.05	1036.86
662.39	1030.98
662.73	1026.24
663.07	1021.60
663.41	1015.19
663.75	1008.88
664.09	1003.64
664.43	996.31
664.77	990.07
665.11	983.19
665.45	976.95
665.79	970.33
666.13	964.21
666.47	958.86
666.81	952.88
667.15	947.24
667.49	941.62
667.83	936.02
668.17	930.57
668.51	925.45
668.85	920.33
669.19	915.33
669.53	908.60
669.87	902.12
670.21	895.21
670.55	889.21
670.89	884.17
671.23	878.36
671.57	872.57
671.91	867.52
672.25	862.62
672.58	857.81
672.92	852.38
673.26	847.57
673.60	842.05
673.94	836.86
674.28	831.74
674.62	827.05
674.96	821.14
675.30	816.31
675.64	810.86
675.97	805.48
676.31	799.57
676.65	794.52
676.99	790.98
677.33	785.71
677.67	781.57
678.01	775.69
678.34	770.19
678.68	766.48
679.02	760.95
679.36	754.95
679.70	749.74
680.04	744.93
680.37	740.00
680.71	734.98
681.05	730.67
681.39	725.93
681.73	720.71
682.06	715.95
682.40	710.76
682.74	706.50
683.08	702.31
683.42	697.83
683.75	693.64
684.09	687.71
684.43	683.10
684.77	677.74
685.10	673.50
685.44	668.74
685.78	663.31
686.12	659.17
686.45	655.21
686.79	650.19
687.13	645.83
687.46	641.19
687.80	637.55
688.14	632.86
688.48	628.67
688.81	624.38
689.15	620.83
689.49	616.36
689.82	612.19
690.16	606.79
690.50	602.60
690.83	598.17
691.17	593.50
691.51	589.69
691.84	586.12
692.18	582.31
692.52	579.05
692.85	575.90
693.19	573.12
693.52	569.19
693.86	565.48
694.20	561.76
694.53	557.95
694.87	553.76
695.21	549.60
695.54	545.55
695.88	541.57
696.21	536.55
696.55	532.98
696.88	529.19
697.22	526.26
697.56	523.10
697.89	519.29
698.23	516.24
698.56	512.33
698.90	508.98
699.23	504.88
699.57	501.10
699.90	497.05
700.24	492.40
700.58	488.95
700.91	485.83
701.25	483.81
701.58	481.40
701.92	478.40
702.25	475.45
702.59	472.26
702.92	469.21
703.26	466.50
703.59	463.40
703.93	461.50
704.26	458.50
704.60	455.31
704.93	452.24
705.26	449.50
705.60	447.36
705.93	444.02
706.27	442.10
706.60	439.64
706.94	437.83
707.27	434.93
707.61	432.31
707.94	429.74
708.27	425.48
708.61	421.79
708.94	419.31
709.28	416.90
709.61	414.40
709.94	412.07
710.28	410.07
710.61	407.81
710.95	404.05
711.28	402.71
711.61	400.45
711.95	399.00
712.28	396.43
712.61	393.90
712.95	393.36
713.28	391.81
713.61	389.43
713.95	386.69
714.28	385.19
714.61	383.14
714.95	380.93
715.28	378.98
715.61	377.48
715.95	375.50
716.28	373.26
716.61	371.60
716.95	369.21
717.28	367.00
717.61	364.98
717.94	363.26
718.28	359.86
718.61	357.60
718.94	355.21
719.27	353.57
719.61	351.74
719.94	349.21
720.27	346.45
720.60	344.57
720.94	342.60
721.27	340.69
721.60	339.24
721.93	337.45
722.27	336.52
722.60	334.93
722.93	333.14
723.26	331.93
723.59	329.93
723.93	328.69
724.26	327.62
724.59	326.19
724.92	324.76
725.25	324.07
725.59	323.05
725.92	322.02
726.25	320.79
726.58	319.83
726.91	318.29
727.24	317.33
727.57	316.38
727.91	314.88
728.24	313.74
728.57	312.29
728.90	311.60
729.23	309.79
729.56	309.50
729.89	308.43
730.22	307.00
730.55	306.33
730.89	305.43
731.22	304.24
731.55	303.02
731.88	301.95
732.21	300.74
732.54	299.83
732.87	298.88
733.20	297.98
733.53	296.76
733.86	295.93
734.19	294.67
734.52	293.83
734.85	294.55
735.18	293.52
735.51	293.19
735.84	292.43
736.17	292.17
736.50	290.43
736.83	292.24
737.16	291.76
737.49	290.57
737.82	289.52
738.15	288.79
738.48	288.21
738.81	287.52
739.14	286.36
739.47	285.31
739.80	284.33
740.13	283.74
740.46	282.83
740.79	281.64
741.12	280.95
741.45	279.98
741.78	278.14
742.11	278.07
742.44	277.12
742.77	276.74
743.10	275.55
743.43	274.62
743.75	271.40
744.08	273.05
744.41	272.36
744.74	271.71
745.07	270.71
745.40	270.52
745.73	270.50
746.06	270.02
746.39	269.64
746.71	268.95
747.04	267.95
747.37	267.24
747.70	267.10
748.03	266.45
748.36	266.05
748.68	265.33
749.01	264.02
749.34	263.43
749.67	262.48
750.00	262.10
750.33	263.29
750.65	263.07
750.98	260.12
751.31	259.52
751.64	259.14
751.97	259.98
752.29	258.79
752.62	257.38
752.95	256.95
753.28	256.07
753.60	255.43
753.93	255.43
754.26	255.14
754.59	254.24
754.91	253.62
755.24	252.98
755.57	252.52
755.90	252.05
756.22	251.36
756.55	250.69
756.88	249.90
757.20	247.69
757.53	246.48
757.86	246.07
758.19	246.14
758.51	245.71
758.84	243.90
759.17	243.52
759.49	243.40
759.82	243.98
760.15	243.71
760.47	243.31
760.80	242.33
761.13	242.40
761.45	242.02
761.78	241.62
762.11	241.24
762.43	240.62
762.76	240.24
763.08	240.00
763.41	239.60
763.74	239.60
764.06	239.52
764.39	239.31
764.71	238.50
765.04	237.93
765.37	237.40
765.69	237.31
766.02	237.10
766.34	236.31
766.67	235.17
767.00	235.40
767.32	236.24
767.65	237.45
767.97	236.83
768.30	236.86
768.62	236.50
768.95	236.10
769.27	235.69
769.60	235.52
769.92	234.93
770.25	234.26
770.57	233.64
770.90	233.21
771.22	232.95
771.55	233.10
771.87	232.79
772.20	232.21
772.52	233.48
772.85	235.55
773.17	235.69
773.50	235.07
773.82	234.60
774.15	233.57
774.47	231.83
774.80	231.36
775.12	231.00
775.45	230.69
775.77	230.55
776.09	230.69
776.42	230.67
776.74	231.31
777.07	231.33
777.39	231.36
777.72	231.05
778.04	230.98
778.36	230.64
778.69	230.38
779.01	230.55
779.33	228.76
779.66	226.45
779.98	226.21
780.31	226.36
780.63	226.67
780.95	226.81
781.28	226.60
781.60	226.36
781.92	226.19
782.25	226.43
782.57	226.31
782.89	226.05
783.22	225.90
783.54	225.14
783.86	225.26
784.19	224.71
784.51	225.33
784.83	224.81
785.16	224.33
