SpectraSuite Data File
++++++++++++++++++++++++++++++++++++
Date: Tue Apr 02 18:37:42 EDT 2013
User: group
Dark Spectrum Present: No
Reference Spectrum Present: No
Number of Sampled Component Spectra: 1
Spectrometers: USB2E7196
Integration Time (usec): 580000 (USB2E7196)
Spectra Averaged: 2 (USB2E7196)
Boxcar Smoothing: 10 (USB2E7196)
Correct for Electrical Dark: No (USB2E7196)
Strobe/Lamp Enabled: No (USB2E7196)
Correct for Detector Non-linearity: No (USB2E7196)
Correct for Stray Light: No (USB2E7196)
Number of Pixels in Processed Spectrum: 2048
>>>>>Begin Processed Spectral Data<<<<<
339.09	0.00
339.48	194.50
339.86	197.50
340.24	200.50
340.63	199.50
341.01	228.00
341.39	206.00
341.78	209.00
342.16	213.50
342.54	206.50
342.93	200.05
343.31	209.74
343.69	210.21
344.07	210.64
344.46	211.26
344.84	211.79
345.22	210.79
345.60	210.95
345.99	211.24
346.37	211.07
346.75	211.10
347.13	211.26
347.52	211.45
347.90	212.07
348.28	212.05
348.66	212.55
349.05	211.86
349.43	211.98
349.81	212.05
350.19	212.40
350.57	212.52
350.96	212.48
351.34	213.05
351.72	213.31
352.10	213.40
352.48	213.43
352.87	213.31
353.25	213.55
353.63	213.40
354.01	213.10
354.39	213.00
354.77	212.90
355.15	213.14
355.54	212.79
355.92	212.31
356.30	212.38
356.68	213.64
357.06	213.69
357.44	213.43
357.82	213.36
358.20	214.26
358.58	214.19
358.97	213.95
359.35	214.12
359.73	214.48
360.11	214.50
360.49	214.33
360.87	214.64
361.25	214.67
361.63	215.29
362.01	215.24
362.39	215.31
362.77	215.50
363.15	215.31
363.53	215.29
363.91	215.26
364.29	215.05
364.67	213.05
365.05	213.05
365.43	213.36
365.81	213.45
366.19	213.38
366.57	214.36
366.95	214.24
367.33	213.74
367.71	213.69
368.09	214.19
368.47	214.10
368.85	213.83
369.23	214.29
369.61	213.69
369.99	214.71
370.37	215.19
370.75	216.19
371.13	215.83
371.51	215.69
371.89	215.67
372.27	215.90
372.65	215.88
373.03	216.19
373.41	215.95
373.78	215.93
374.16	214.71
374.54	213.67
374.92	213.67
375.30	213.64
375.68	213.12
376.06	212.81
376.44	212.67
376.82	212.67
377.19	212.43
377.57	212.45
377.95	211.57
378.33	211.33
378.71	210.10
379.09	210.57
379.47	210.88
379.84	210.86
380.22	210.81
380.60	210.76
380.98	210.50
381.36	210.48
381.73	210.24
382.11	210.76
382.49	211.00
382.87	210.95
383.25	211.14
383.62	213.52
384.00	213.33
384.38	213.45
384.76	213.98
385.13	215.02
385.51	214.93
385.89	214.88
386.27	214.83
386.64	215.38
387.02	215.14
387.40	214.98
387.78	215.00
388.15	214.95
388.53	214.69
388.91	214.86
389.29	214.71
389.66	214.93
390.04	214.62
390.42	215.17
390.79	215.17
391.17	215.12
391.55	212.95
391.92	213.07
392.30	213.40
392.68	212.88
393.05	212.50
393.43	212.79
393.81	212.90
394.18	212.64
394.56	212.71
394.94	213.17
395.31	213.19
395.69	214.12
396.06	214.33
396.44	214.55
396.82	214.29
397.19	215.40
397.57	215.45
397.95	215.95
398.32	215.29
398.70	215.57
399.07	216.02
399.45	216.21
399.82	216.29
400.20	216.24
400.58	216.48
400.95	215.67
401.33	216.24
401.70	217.74
402.08	217.88
402.45	217.98
402.83	218.36
403.20	218.64
403.58	218.36
403.95	218.98
404.33	219.83
404.71	220.07
405.08	221.36
405.46	221.55
405.83	221.76
406.21	222.33
406.58	222.67
406.96	223.00
407.33	223.60
407.70	224.38
408.08	226.45
408.45	227.55
408.83	228.64
409.20	229.17
409.58	228.93
409.95	230.26
410.33	231.52
410.70	232.10
411.08	233.26
411.45	234.19
411.82	234.98
412.20	236.60
412.57	239.24
412.95	239.07
413.32	241.29
413.69	243.02
414.07	245.10
414.44	247.48
414.82	249.86
415.19	252.45
415.56	255.02
415.94	256.71
416.31	259.86
416.68	263.26
417.06	266.98
417.43	271.05
417.81	275.19
418.18	279.07
418.55	283.79
418.93	288.48
419.30	293.62
419.67	299.07
420.04	304.00
420.42	309.14
420.79	317.21
421.16	323.48
421.54	331.19
421.91	338.38
422.28	345.21
422.66	353.17
423.03	362.31
423.40	370.00
423.77	378.81
424.15	386.81
424.52	395.90
424.89	405.88
425.26	414.76
425.64	423.67
426.01	433.88
426.38	443.81
426.75	455.07
427.13	466.14
427.50	477.31
427.87	489.26
428.24	500.90
428.61	511.33
428.99	524.98
429.36	537.50
429.73	550.90
430.10	564.93
430.47	578.64
430.85	591.74
431.22	607.24
431.59	624.19
431.96	639.52
432.33	656.76
432.70	673.02
433.08	692.17
433.45	710.19
433.82	728.40
434.19	749.48
434.56	769.48
434.93	788.55
435.30	808.36
435.68	829.88
436.05	850.71
436.42	870.90
436.79	889.55
437.16	910.86
437.53	932.74
437.90	954.19
438.27	975.48
438.64	997.62
439.01	1018.52
439.38	1035.48
439.75	1053.26
440.13	1072.74
440.50	1092.05
440.87	1107.95
441.24	1124.69
441.61	1143.10
441.98	1156.17
442.35	1170.55
442.72	1185.98
443.09	1201.36
443.46	1210.12
443.83	1217.31
444.20	1223.57
444.57	1231.19
444.94	1234.86
445.31	1238.95
445.68	1244.95
446.05	1246.74
446.42	1245.40
446.79	1244.38
447.16	1242.88
447.53	1242.74
447.90	1235.88
448.27	1228.36
448.64	1217.52
449.01	1209.81
449.37	1195.02
449.74	1181.69
450.11	1167.74
450.48	1150.45
450.85	1131.60
451.22	1117.12
451.59	1102.69
451.96	1088.86
452.33	1070.26
452.70	1054.05
453.07	1033.57
453.43	1010.83
453.80	991.79
454.17	972.57
454.54	953.45
454.91	934.07
455.28	914.29
455.65	896.43
456.02	881.45
456.38	866.79
456.75	848.55
457.12	833.90
457.49	818.55
457.86	802.33
458.23	790.19
458.59	776.57
458.96	762.12
459.33	749.02
459.70	736.00
460.07	726.50
460.43	714.55
460.80	703.98
461.17	695.33
461.54	685.50
461.91	675.67
462.27	665.93
462.64	657.00
463.01	648.43
463.38	640.38
463.74	629.00
464.11	621.19
464.48	614.38
464.85	605.86
465.21	600.90
465.58	595.24
465.95	587.57
466.32	582.05
466.68	575.67
467.05	569.95
467.42	563.79
467.78	556.81
468.15	551.07
468.52	546.79
468.88	539.93
469.25	534.02
469.62	530.52
469.98	525.81
470.35	521.86
470.72	517.55
471.08	512.40
471.45	509.33
471.82	506.00
472.18	502.10
472.55	500.19
472.92	495.40
473.28	491.57
473.65	488.43
474.02	485.26
474.38	483.12
474.75	480.74
475.11	478.48
475.48	476.90
475.85	474.74
476.21	472.64
476.58	471.62
476.94	470.17
477.31	468.60
477.67	467.43
478.04	466.10
478.41	465.48
478.77	466.76
479.14	464.93
479.50	464.36
479.87	463.64
480.23	463.17
480.60	463.02
480.96	463.43
481.33	464.57
481.69	464.50
482.06	464.69
482.42	465.33
482.79	466.05
483.15	466.86
483.52	468.31
483.88	469.36
484.25	470.45
484.61	471.95
484.98	472.45
485.34	474.55
485.71	477.07
486.07	478.60
486.44	478.76
486.80	481.02
487.17	483.31
487.53	486.67
487.90	489.52
488.26	493.55
488.62	496.57
488.99	498.90
489.35	502.38
489.72	505.93
490.08	509.38
490.44	512.90
490.81	517.31
491.17	521.33
491.54	525.71
491.90	530.71
492.26	536.07
492.63	541.40
492.99	546.60
493.36	551.33
493.72	557.64
494.08	563.50
494.45	570.24
494.81	576.71
495.17	582.64
495.54	589.93
495.90	595.81
496.26	602.45
496.63	609.79
496.99	617.10
497.35	624.60
497.72	632.55
498.08	640.36
498.44	648.10
498.80	656.55
499.17	664.81
499.53	672.62
499.89	681.00
500.26	690.40
500.62	698.86
500.98	708.14
501.34	716.60
501.71	726.50
502.07	735.38
502.43	744.64
502.79	754.00
503.16	762.43
503.52	772.17
503.88	781.55
504.24	791.31
504.60	801.24
504.97	811.45
505.33	820.55
505.69	831.88
506.05	842.00
506.41	852.02
506.78	862.10
507.14	871.83
507.50	881.45
507.86	891.00
508.22	901.62
508.59	911.14
508.95	921.43
509.31	931.76
509.67	941.71
510.03	951.83
510.39	962.60
510.75	972.86
511.12	982.33
511.48	993.02
511.84	1001.98
512.20	1011.98
512.56	1022.29
512.92	1033.14
513.28	1042.64
513.64	1051.88
514.00	1061.69
514.37	1071.02
514.73	1081.02
515.09	1090.90
515.45	1100.02
515.81	1108.95
516.17	1118.45
516.53	1127.02
516.89	1134.67
517.25	1144.05
517.61	1152.81
517.97	1160.60
518.33	1168.79
518.69	1177.88
519.05	1185.90
519.41	1194.62
519.77	1203.45
520.13	1210.36
520.49	1216.76
520.85	1223.98
521.21	1232.17
521.57	1239.33
521.93	1245.98
522.29	1253.88
522.65	1260.17
523.01	1267.31
523.37	1273.26
523.73	1279.40
524.09	1285.55
524.45	1291.60
524.81	1296.24
525.17	1301.83
525.53	1306.74
525.89	1312.02
526.25	1317.45
526.61	1321.81
526.97	1326.29
527.33	1330.14
527.68	1336.17
528.04	1341.60
528.40	1345.40
528.76	1349.19
529.12	1352.74
529.48	1358.14
529.84	1361.24
530.20	1365.48
530.56	1368.93
530.91	1372.98
531.27	1376.67
531.63	1380.71
531.99	1384.52
532.35	1388.76
532.71	1391.40
533.07	1395.95
533.42	1401.02
533.78	1403.93
534.14	1407.95
534.50	1410.98
534.86	1414.17
535.21	1415.76
535.57	1418.43
535.93	1420.74
536.29	1423.95
536.65	1427.98
537.00	1429.10
537.36	1430.95
537.72	1432.57
538.08	1434.81
538.44	1436.67
538.79	1438.40
539.15	1439.76
539.51	1441.57
539.87	1442.71
540.22	1444.55
540.58	1446.43
540.94	1446.60
541.29	1448.14
541.65	1447.50
542.01	1449.05
542.37	1450.00
542.72	1450.19
543.08	1450.55
543.44	1451.52
543.79	1450.12
544.15	1449.24
544.51	1450.60
544.87	1451.02
545.22	1451.24
545.58	1451.81
545.94	1451.24
546.29	1452.02
546.65	1451.79
547.01	1450.67
547.36	1449.98
547.72	1449.29
548.07	1447.05
548.43	1445.83
548.79	1443.90
549.14	1443.71
549.50	1443.12
549.86	1440.64
550.21	1440.19
550.57	1439.67
550.92	1437.24
551.28	1436.79
551.64	1435.57
551.99	1433.88
552.35	1432.17
552.70	1430.33
553.06	1428.95
553.41	1427.31
553.77	1426.50
554.13	1425.31
554.48	1424.95
554.84	1424.48
555.19	1423.60
555.55	1424.00
555.90	1422.83
556.26	1421.50
556.61	1419.83
556.97	1416.98
557.32	1416.17
557.68	1414.60
558.03	1412.45
558.39	1412.07
558.74	1410.55
559.10	1409.00
559.45	1406.90
559.81	1406.12
560.16	1404.98
560.52	1403.21
560.87	1402.31
561.23	1399.93
561.58	1399.60
561.94	1397.29
562.29	1395.12
562.64	1393.10
563.00	1389.98
563.35	1387.79
563.71	1386.62
564.06	1385.52
564.42	1384.98
564.77	1383.31
565.12	1383.02
565.48	1383.19
565.83	1381.86
566.19	1381.48
566.54	1380.64
566.89	1379.69
567.25	1377.95
567.60	1378.05
567.96	1377.74
568.31	1377.26
568.66	1375.43
569.02	1372.10
569.37	1369.69
569.72	1367.98
570.08	1365.90
570.43	1363.29
570.78	1361.93
571.14	1360.31
571.49	1358.29
571.84	1356.21
572.20	1354.33
572.55	1351.00
572.90	1346.95
573.26	1344.69
573.61	1341.48
573.96	1337.76
574.31	1334.31
574.67	1330.83
575.02	1326.74
575.37	1322.26
575.72	1317.40
576.08	1314.36
576.43	1311.24
576.78	1308.57
577.13	1305.10
577.49	1301.52
577.84	1299.12
578.19	1295.24
578.54	1291.67
578.90	1288.10
579.25	1283.93
579.60	1279.90
579.95	1275.62
580.30	1272.10
580.66	1269.10
581.01	1264.71
581.36	1261.21
581.71	1257.26
582.06	1255.38
582.42	1251.26
582.77	1247.14
583.12	1243.95
583.47	1239.38
583.82	1235.31
584.17	1231.14
584.53	1228.19
584.88	1224.79
585.23	1220.88
585.58	1216.74
585.93	1211.90
586.28	1208.62
586.63	1205.14
586.98	1201.31
587.34	1198.45
587.69	1193.57
588.04	1188.43
588.39	1184.81
588.74	1179.93
589.09	1175.93
589.44	1170.14
589.79	1166.12
590.14	1161.79
590.49	1157.17
590.84	1153.10
591.19	1148.81
591.54	1144.95
591.89	1139.48
592.25	1136.26
592.60	1131.19
592.95	1127.26
593.30	1123.69
593.65	1118.60
594.00	1113.14
594.35	1114.62
594.70	1108.74
595.05	1105.02
595.40	1100.38
595.75	1095.74
596.10	1091.62
596.45	1087.62
596.80	1083.52
597.15	1078.76
597.50	1073.29
597.85	1070.26
598.19	1065.52
598.54	1061.71
598.89	1057.24
599.24	1052.60
599.59	1047.29
599.94	1042.86
600.29	1038.69
600.64	1034.14
600.99	1029.79
601.34	1026.55
601.69	1015.95
602.04	1011.64
602.39	1007.50
602.74	1003.88
603.08	999.29
603.43	995.79
603.78	992.02
604.13	986.95
604.48	982.31
604.83	979.14
605.18	974.07
605.53	969.86
605.87	965.52
606.22	960.90
606.57	956.81
606.92	951.48
607.27	947.14
607.62	942.69
607.96	938.55
608.31	934.52
608.66	930.33
609.01	926.24
609.36	922.67
609.70	918.10
610.05	913.02
610.40	908.88
610.75	903.64
611.10	899.00
611.44	895.00
611.79	890.64
612.14	886.45
612.49	881.05
612.83	876.14
613.18	870.90
613.53	866.48
613.88	861.71
614.22	857.93
614.57	853.48
614.92	848.55
615.27	843.07
615.61	837.90
615.96	832.43
616.31	828.12
616.65	824.00
617.00	819.02
617.35	814.33
617.70	809.93
618.04	805.45
618.39	799.81
618.74	795.83
619.08	791.83
619.43	787.26
619.78	783.40
620.12	779.62
620.47	776.24
620.82	771.76
621.16	767.95
621.51	765.24
621.85	761.31
622.20	757.40
622.55	753.33
622.89	749.45
623.24	746.62
623.59	742.52
623.93	738.26
624.28	735.43
624.62	734.17
624.97	732.24
625.32	728.64
625.66	725.69
626.01	721.33
626.35	717.86
626.70	713.74
627.04	710.93
627.39	707.67
627.73	704.40
628.08	701.90
628.43	698.21
628.77	692.98
629.12	689.93
629.46	686.62
629.81	684.00
630.15	680.90
630.50	676.36
630.84	672.95
631.19	669.07
631.53	665.38
631.88	659.86
632.22	654.24
632.57	651.17
632.91	647.57
633.26	644.64
633.60	641.24
633.95	638.05
634.29	633.86
634.64	630.43
634.98	626.07
635.32	622.93
635.67	620.60
636.01	617.76
636.36	614.17
636.70	611.33
637.05	608.05
637.39	605.00
637.73	602.45
638.08	600.07
638.42	597.38
638.77	594.64
639.11	591.88
639.45	588.69
639.80	585.38
640.14	583.12
640.49	579.79
640.83	576.31
641.17	573.69
641.52	570.76
641.86	567.74
642.20	565.76
642.55	561.83
642.89	557.76
643.23	554.67
643.58	552.55
643.92	549.19
644.26	546.14
644.61	543.29
644.95	540.24
645.29	536.48
645.64	534.14
645.98	530.93
646.32	528.24
646.66	525.90
647.01	522.98
647.35	520.05
647.69	517.69
648.04	515.52
648.38	512.76
648.72	510.02
649.06	507.45
649.41	504.48
649.75	501.79
650.09	499.86
650.43	497.36
650.78	494.17
651.12	491.50
651.46	488.81
651.80	486.05
652.14	483.29
652.49	481.43
652.83	478.10
653.17	475.52
653.51	472.38
653.85	469.74
654.20	467.55
654.54	464.38
654.88	461.62
655.22	459.86
655.56	457.50
655.90	455.36
656.25	453.00
656.59	450.62
656.93	448.74
657.27	447.05
657.61	444.24
657.95	442.33
658.29	440.36
658.64	438.71
658.98	436.36
659.32	434.00
659.66	431.45
660.00	429.57
660.34	427.62
660.68	425.90
661.02	423.90
661.36	421.71
661.70	420.24
662.05	418.21
662.39	415.90
662.73	414.55
663.07	413.57
663.41	411.83
663.75	409.79
664.09	407.76
664.43	405.19
664.77	403.88
665.11	401.45
665.45	399.33
665.79	397.50
666.13	395.48
666.47	394.17
666.81	392.90
667.15	390.83
667.49	389.10
667.83	388.17
668.17	386.81
668.51	385.40
668.85	383.86
669.19	383.45
669.53	381.31
669.87	379.45
670.21	377.40
670.55	375.83
670.89	375.24
671.23	373.62
671.57	372.38
671.91	371.24
672.25	369.93
672.58	369.24
672.92	367.36
673.26	366.67
673.60	365.29
673.94	363.83
674.28	362.79
674.62	361.90
674.96	359.95
675.30	358.76
675.64	357.67
675.97	356.69
676.31	354.88
676.65	353.50
676.99	352.74
677.33	351.05
677.67	349.74
678.01	347.26
678.34	346.14
678.68	345.24
679.02	343.52
679.36	342.31
679.70	340.60
680.04	339.79
680.37	338.36
680.71	337.12
681.05	335.83
681.39	334.74
681.73	333.50
682.06	332.33
682.40	331.26
682.74	330.07
683.08	329.45
683.42	327.95
683.75	327.60
684.09	326.19
684.43	325.52
684.77	324.33
685.10	323.81
685.44	323.00
685.78	321.69
686.12	320.95
686.45	319.95
686.79	318.64
687.13	317.55
687.46	316.52
687.80	316.07
688.14	315.14
688.48	314.17
688.81	313.02
689.15	312.48
689.49	311.29
689.82	310.50
690.16	308.31
690.50	307.36
690.83	305.64
691.17	304.31
691.51	303.07
691.84	302.40
692.18	301.19
692.52	300.17
692.85	299.45
693.19	299.12
693.52	298.07
693.86	297.19
694.20	296.57
694.53	295.67
694.87	294.21
695.21	293.19
695.54	292.55
695.88	291.33
696.21	289.86
696.55	289.10
696.88	288.38
697.22	287.81
697.56	287.43
697.89	286.69
698.23	286.38
698.56	285.52
698.90	284.86
699.23	284.02
699.57	283.50
699.90	282.55
700.24	281.12
700.58	280.76
700.91	280.50
701.25	281.12
701.58	281.21
701.92	281.26
702.25	280.71
702.59	279.79
702.92	279.24
703.26	278.90
703.59	278.21
703.93	279.10
704.26	278.90
704.60	278.17
704.93	277.62
705.26	276.62
705.60	276.38
705.93	275.64
706.27	275.76
706.60	275.38
706.94	275.76
707.27	275.21
707.61	274.36
707.94	273.50
708.27	271.50
708.61	270.10
708.94	269.02
709.28	268.50
709.61	268.05
709.94	267.48
710.28	266.98
710.61	266.57
710.95	264.00
711.28	264.88
711.61	264.10
711.95	264.26
712.28	263.33
712.61	262.50
712.95	262.67
713.28	262.93
713.61	262.12
713.95	260.67
714.28	260.55
714.61	260.36
714.95	259.88
715.28	258.93
715.61	258.48
715.95	258.38
716.28	257.60
716.61	257.40
716.95	257.05
717.28	256.45
717.61	255.98
717.94	255.88
718.28	253.76
718.61	253.52
718.94	252.45
719.27	252.29
719.61	252.10
719.94	251.17
720.27	250.05
720.60	249.64
720.94	249.36
721.27	248.93
721.60	248.83
721.93	248.36
722.27	249.10
722.60	249.21
722.93	248.64
723.26	248.62
723.59	247.86
723.93	247.57
724.26	247.29
724.59	246.64
724.92	246.26
725.25	246.57
725.59	246.24
725.92	246.33
726.25	245.95
726.58	245.81
726.91	245.45
727.24	245.31
727.57	244.79
727.91	244.24
728.24	244.02
728.57	243.52
728.90	243.71
729.23	242.76
729.56	243.14
729.89	243.00
730.22	242.64
730.55	242.55
730.89	242.26
731.22	242.12
731.55	241.88
731.88	241.64
732.21	241.21
732.54	240.98
732.87	240.64
733.20	240.50
733.53	240.00
733.86	240.14
734.19	239.33
734.52	239.71
734.85	241.12
735.18	240.50
735.51	241.07
735.84	241.05
736.17	241.43
736.50	240.24
736.83	242.24
737.16	242.00
737.49	241.90
737.82	241.74
738.15	241.64
738.48	241.62
738.81	241.24
739.14	240.38
739.47	239.88
739.80	239.52
740.13	239.83
740.46	239.48
740.79	238.95
741.12	238.71
741.45	237.98
741.78	236.36
742.11	236.64
742.44	235.67
742.77	235.69
743.10	235.14
743.43	234.76
743.75	232.57
744.08	235.12
744.41	234.60
744.74	234.29
745.07	233.67
745.40	233.38
745.73	234.24
746.06	234.31
746.39	234.50
746.71	234.14
747.04	233.43
747.37	233.29
747.70	233.43
748.03	233.52
748.36	233.60
748.68	233.57
749.01	232.79
749.34	232.76
749.67	232.45
750.00	232.62
750.33	234.02
750.65	233.64
750.98	230.71
751.31	230.69
751.64	230.71
751.97	232.05
752.29	231.79
752.62	230.57
752.95	230.36
753.28	229.74
753.60	229.86
753.93	230.31
754.26	230.48
754.59	229.62
754.91	229.24
755.24	228.88
755.57	228.38
755.90	228.21
756.22	227.79
756.55	227.40
756.88	226.57
757.20	224.95
757.53	224.60
757.86	224.67
758.19	224.60
758.51	224.50
758.84	223.07
759.17	223.17
759.49	223.19
759.82	224.19
760.15	224.48
760.47	224.14
760.80	223.62
761.13	223.79
761.45	223.67
761.78	223.76
762.11	223.79
762.43	223.71
762.76	223.69
763.08	223.86
763.41	223.74
763.74	223.74
764.06	223.62
764.39	223.43
764.71	223.10
765.04	222.76
765.37	222.40
765.69	222.19
766.02	222.10
766.34	222.00
766.67	221.07
767.00	221.05
767.32	222.10
767.65	223.26
767.97	223.12
768.30	223.40
768.62	223.36
768.95	223.24
769.27	223.02
769.60	223.43
769.92	222.88
770.25	222.62
770.57	222.21
770.90	222.24
771.22	221.98
771.55	222.07
771.87	222.40
772.20	222.14
772.52	223.93
772.85	226.07
773.17	226.00
773.50	225.74
773.82	225.43
774.15	224.48
774.47	222.67
774.80	222.21
775.12	222.19
775.45	221.93
775.77	221.67
776.09	222.10
776.42	221.88
776.74	222.71
777.07	222.40
777.39	222.64
777.72	222.45
778.04	222.81
778.36	222.67
778.69	222.38
779.01	222.60
779.33	220.76
779.66	218.50
779.98	218.14
780.31	218.38
780.63	219.29
780.95	219.52
781.28	219.67
781.60	219.43
781.92	219.40
782.25	219.50
782.57	219.55
782.89	219.10
783.22	219.05
783.54	218.50
783.86	218.60
784.19	218.26
784.51	218.88
784.83	218.62
785.16	218.55
785.48	218.69
785.80	218.60
786.12	218.88
786.45	218.81
786.77	218.88
787.09	218.74
787.42	218.02
787.74	217.95
788.06	218.31
