SpectraSuite Data File
++++++++++++++++++++++++++++++++++++
Date: Tue Apr 02 18:37:39 EDT 2013
User: group
Dark Spectrum Present: No
Reference Spectrum Present: No
Number of Sampled Component Spectra: 1
Spectrometers: USB2E7196
Integration Time (usec): 580000 (USB2E7196)
Spectra Averaged: 2 (USB2E7196)
Boxcar Smoothing: 10 (USB2E7196)
Correct for Electrical Dark: No (USB2E7196)
Strobe/Lamp Enabled: No (USB2E7196)
Correct for Detector Non-linearity: No (USB2E7196)
Correct for Stray Light: No (USB2E7196)
Number of Pixels in Processed Spectrum: 2048
>>>>>Begin Processed Spectral Data<<<<<
339.09	0.00
339.48	196.00
339.86	191.50
340.24	193.50
340.63	197.50
341.01	226.50
341.39	200.50
341.78	203.00
342.16	208.50
342.54	204.50
342.93	196.19
343.31	206.21
343.69	206.67
344.07	207.43
344.46	208.50
344.84	209.00
345.22	208.02
345.60	208.57
345.99	209.10
346.37	209.17
346.75	209.38
347.13	209.64
347.52	209.93
347.90	210.76
348.28	210.86
348.66	211.31
349.05	210.83
349.43	211.26
349.81	211.31
350.19	211.57
350.57	211.81
350.96	212.24
351.34	212.31
351.72	212.40
352.10	212.40
352.48	211.86
352.87	211.90
353.25	212.17
353.63	212.17
354.01	211.79
354.39	211.90
354.77	212.07
355.15	212.64
355.54	212.45
355.92	211.90
356.30	211.95
356.68	213.31
357.06	213.38
357.44	212.90
357.82	213.12
358.20	214.07
358.58	214.05
358.97	214.14
359.35	214.60
359.73	215.05
360.11	215.07
360.49	215.38
360.87	215.45
361.25	215.52
361.63	216.26
362.01	216.81
362.39	216.74
362.77	216.86
363.15	216.64
363.53	216.64
363.91	216.79
364.29	216.81
364.67	214.90
365.05	215.05
365.43	215.24
365.81	215.38
366.19	215.26
366.57	215.88
366.95	215.76
367.33	215.31
367.71	215.29
368.09	215.62
368.47	215.64
368.85	215.62
369.23	216.10
369.61	215.33
369.99	215.60
370.37	216.21
370.75	217.12
371.13	216.74
371.51	216.55
371.89	216.48
372.27	216.67
372.65	216.86
373.03	216.88
373.41	216.81
373.78	216.76
374.16	215.57
374.54	215.05
374.92	214.90
375.30	215.00
375.68	214.60
376.06	214.74
376.44	214.48
376.82	214.52
377.19	214.40
377.57	214.24
377.95	213.69
378.33	213.14
378.71	211.86
379.09	212.05
379.47	212.26
379.84	212.17
380.22	211.95
380.60	211.38
380.98	211.21
381.36	211.31
381.73	211.05
382.11	211.86
382.49	212.10
382.87	211.95
383.25	211.98
383.62	214.33
384.00	213.88
384.38	214.07
384.76	214.55
385.13	215.45
385.51	215.62
385.89	215.43
386.27	215.60
386.64	216.02
387.02	215.69
387.40	215.40
387.78	215.67
388.15	215.76
388.53	216.00
388.91	215.95
389.29	215.69
389.66	216.07
390.04	215.60
390.42	215.81
390.79	215.74
391.17	215.67
391.55	213.60
391.92	213.74
392.30	213.93
392.68	213.64
393.05	213.33
393.43	213.31
393.81	213.36
394.18	212.98
394.56	212.88
394.94	213.52
395.31	213.40
395.69	214.02
396.06	214.31
396.44	214.40
396.82	214.33
397.19	215.62
397.57	215.38
397.95	215.81
398.32	215.24
398.70	215.57
399.07	216.07
399.45	215.86
399.82	215.98
400.20	215.76
400.58	215.79
400.95	215.00
401.33	215.60
401.70	217.17
402.08	217.50
402.45	217.60
402.83	218.33
403.20	218.88
403.58	218.67
403.95	219.10
404.33	219.76
404.71	220.26
405.08	221.29
405.46	221.57
405.83	221.90
406.21	222.55
406.58	223.19
406.96	223.52
407.33	224.31
407.70	225.05
408.08	227.57
408.45	228.50
408.83	229.57
409.20	230.10
409.58	229.90
409.95	231.14
410.33	232.40
410.70	232.86
411.08	234.21
411.45	235.45
411.82	236.38
412.20	238.10
412.57	240.93
412.95	240.98
413.32	243.10
413.69	244.69
414.07	246.52
414.44	248.45
414.82	250.62
415.19	253.33
415.56	255.88
415.94	257.31
416.31	260.50
416.68	263.62
417.06	267.19
417.43	271.14
417.81	275.19
418.18	279.26
418.55	283.52
418.93	288.17
419.30	293.19
419.67	298.52
420.04	303.31
420.42	308.19
420.79	316.36
421.16	323.29
421.54	331.62
421.91	338.79
422.28	345.93
422.66	353.95
423.03	362.88
423.40	370.60
423.77	379.24
424.15	387.45
424.52	396.50
424.89	406.36
425.26	415.24
425.64	424.31
426.01	434.21
426.38	444.24
426.75	454.79
427.13	465.90
427.50	477.19
427.87	489.45
428.24	500.98
428.61	511.43
428.99	524.21
429.36	536.57
429.73	550.21
430.10	564.17
430.47	578.05
430.85	590.98
431.22	606.48
431.59	623.83
431.96	639.17
432.33	656.45
432.70	673.00
433.08	692.14
433.45	710.48
433.82	728.50
434.19	749.07
434.56	770.05
434.93	788.36
435.30	807.69
435.68	828.90
436.05	850.14
436.42	870.12
436.79	889.81
437.16	910.55
437.53	931.62
437.90	953.43
438.27	975.02
438.64	996.86
439.01	1017.93
439.38	1035.02
439.75	1053.26
440.13	1073.40
440.50	1092.48
440.87	1108.81
441.24	1125.71
441.61	1143.98
441.98	1157.79
442.35	1172.02
442.72	1188.88
443.09	1204.57
443.46	1213.36
443.83	1219.95
444.20	1226.57
444.57	1233.60
444.94	1237.55
445.31	1242.17
445.68	1248.33
446.05	1249.76
446.42	1249.55
446.79	1247.93
447.16	1245.74
447.53	1244.07
447.90	1236.98
448.27	1229.57
448.64	1218.79
449.01	1210.74
449.37	1197.21
449.74	1183.62
450.11	1169.98
450.48	1152.17
450.85	1133.86
451.22	1119.19
451.59	1105.19
451.96	1091.00
452.33	1072.83
452.70	1056.00
453.07	1035.76
453.43	1012.60
453.80	993.19
454.17	973.69
454.54	955.17
454.91	935.64
455.28	917.14
455.65	899.10
456.02	884.45
456.38	869.55
456.75	850.93
457.12	835.24
457.49	820.43
457.86	803.55
458.23	791.17
458.59	777.21
458.96	763.21
459.33	749.83
459.70	737.38
460.07	727.10
460.43	715.29
460.80	704.57
461.17	696.24
461.54	686.69
461.91	676.62
462.27	666.81
462.64	658.55
463.01	649.31
463.38	641.48
463.74	629.33
464.11	621.07
464.48	614.36
464.85	607.33
465.21	601.64
465.58	595.86
465.95	587.90
466.32	581.98
466.68	575.67
467.05	569.88
467.42	563.74
467.78	557.26
468.15	551.79
468.52	547.57
468.88	540.40
469.25	534.45
469.62	530.43
469.98	525.90
470.35	521.79
470.72	517.60
471.08	512.07
471.45	508.93
471.82	506.26
472.18	502.10
472.55	499.10
472.92	495.07
473.28	491.71
473.65	488.29
474.02	485.29
474.38	482.55
474.75	480.45
475.11	477.90
475.48	475.90
475.85	473.52
476.21	471.86
476.58	470.74
476.94	469.43
477.31	468.21
477.67	466.81
478.04	465.76
478.41	465.10
478.77	466.43
479.14	465.31
479.50	464.43
479.87	464.24
480.23	463.57
480.60	463.10
480.96	463.24
481.33	464.36
481.69	463.93
482.06	464.24
482.42	464.60
482.79	465.31
483.15	465.57
483.52	467.31
483.88	467.86
484.25	468.64
484.61	469.69
484.98	470.62
485.34	472.98
485.71	474.90
486.07	477.07
486.44	477.26
486.80	479.83
487.17	482.17
487.53	485.12
487.90	488.00
488.26	491.81
488.62	495.05
488.99	497.93
489.35	502.05
489.72	505.83
490.08	509.33
490.44	512.90
490.81	517.64
491.17	521.64
491.54	526.24
491.90	531.40
492.26	536.48
492.63	541.60
492.99	546.14
493.36	551.69
493.72	556.95
494.08	562.88
494.45	568.79
494.81	574.86
495.17	580.71
495.54	587.98
495.90	594.26
496.26	601.07
496.63	608.26
496.99	615.62
497.35	623.64
497.72	631.62
498.08	639.24
498.44	647.07
498.80	655.57
499.17	663.60
499.53	671.95
499.89	680.93
500.26	690.31
500.62	698.93
500.98	708.17
501.34	717.17
501.71	726.76
502.07	735.69
502.43	744.57
502.79	754.02
503.16	762.76
503.52	771.98
503.88	781.00
504.24	789.64
504.60	799.40
504.97	809.29
505.33	819.24
505.69	830.95
506.05	840.88
506.41	851.00
506.78	861.26
507.14	870.71
507.50	881.07
507.86	890.69
508.22	900.90
508.59	910.02
508.95	920.48
509.31	931.95
509.67	942.71
510.03	952.86
510.39	963.10
510.75	973.10
511.12	982.79
511.48	993.57
511.84	1004.90
512.20	1014.43
512.56	1024.36
512.92	1034.31
513.28	1043.38
513.64	1053.81
514.00	1062.90
514.37	1072.36
514.73	1082.50
515.09	1092.45
515.45	1101.52
515.81	1111.10
516.17	1120.19
516.53	1128.83
516.89	1135.90
517.25	1143.88
517.61	1154.57
517.97	1162.90
518.33	1171.29
518.69	1181.07
519.05	1188.21
519.41	1195.67
519.77	1205.55
520.13	1212.38
520.49	1219.31
520.85	1226.69
521.21	1233.74
521.57	1241.31
521.93	1247.71
522.29	1254.05
522.65	1259.14
523.01	1266.31
523.37	1272.10
523.73	1279.12
524.09	1285.38
524.45	1290.74
524.81	1296.57
525.17	1301.02
525.53	1306.12
525.89	1311.33
526.25	1316.40
526.61	1321.45
526.97	1325.79
527.33	1329.14
527.68	1336.24
528.04	1341.45
528.40	1344.88
528.76	1349.14
529.12	1353.05
529.48	1358.33
529.84	1362.17
530.20	1366.14
530.56	1370.10
530.91	1374.02
531.27	1376.88
531.63	1380.38
531.99	1383.83
532.35	1387.69
532.71	1390.29
533.07	1393.86
533.42	1399.60
533.78	1403.14
534.14	1407.12
534.50	1410.38
534.86	1414.24
535.21	1415.36
535.57	1417.93
535.93	1421.02
536.29	1424.57
536.65	1427.76
537.00	1429.71
537.36	1432.48
537.72	1435.43
538.08	1437.40
538.44	1438.76
538.79	1441.69
539.15	1443.00
539.51	1445.38
539.87	1447.40
540.22	1449.36
540.58	1451.50
540.94	1451.17
541.29	1451.36
541.65	1451.79
542.01	1453.69
542.37	1454.21
542.72	1453.90
543.08	1453.10
543.44	1453.62
543.79	1452.26
544.15	1452.14
544.51	1452.83
544.87	1452.79
545.22	1453.05
545.58	1452.36
545.94	1452.52
546.29	1452.36
546.65	1452.05
547.01	1450.74
547.36	1449.50
547.72	1449.00
548.07	1447.69
548.43	1446.48
548.79	1445.43
549.14	1444.52
549.50	1442.88
549.86	1440.10
550.21	1439.57
550.57	1439.67
550.92	1437.76
551.28	1437.45
551.64	1436.10
551.99	1434.31
552.35	1433.24
552.70	1431.31
553.06	1429.79
553.41	1428.62
553.77	1427.69
554.13	1426.95
554.48	1426.98
554.84	1426.43
555.19	1425.14
555.55	1425.24
555.90	1424.07
556.26	1422.33
556.61	1420.45
556.97	1417.55
557.32	1416.52
557.68	1414.76
558.03	1412.83
558.39	1411.26
558.74	1408.90
559.10	1407.55
559.45	1406.86
559.81	1405.17
560.16	1402.86
560.52	1401.12
560.87	1399.69
561.23	1396.69
561.58	1396.19
561.94	1393.26
562.29	1390.60
562.64	1389.26
563.00	1385.71
563.35	1383.60
563.71	1382.52
564.06	1381.69
564.42	1381.45
564.77	1380.76
565.12	1379.98
565.48	1380.40
565.83	1380.07
566.19	1378.93
566.54	1377.69
566.89	1375.21
567.25	1374.31
567.60	1375.50
567.96	1376.69
568.31	1376.36
568.66	1376.02
569.02	1372.98
569.37	1370.93
569.72	1370.43
570.08	1367.90
570.43	1366.14
570.78	1364.74
571.14	1362.90
571.49	1360.79
571.84	1359.76
572.20	1356.79
572.55	1354.67
572.90	1350.69
573.26	1347.50
573.61	1345.50
573.96	1342.52
574.31	1339.50
574.67	1336.05
575.02	1331.07
575.37	1326.10
575.72	1321.88
576.08	1318.02
576.43	1314.21
576.78	1311.40
577.13	1307.24
577.49	1304.26
577.84	1301.31
578.19	1297.05
578.54	1293.52
578.90	1290.26
579.25	1285.29
579.60	1281.52
579.95	1277.21
580.30	1273.17
580.66	1270.29
581.01	1265.71
581.36	1260.86
581.71	1257.74
582.06	1254.93
582.42	1251.71
582.77	1247.14
583.12	1242.62
583.47	1239.02
583.82	1235.62
584.17	1231.93
584.53	1228.48
584.88	1223.36
585.23	1219.29
585.58	1215.07
585.93	1210.10
586.28	1205.95
586.63	1202.74
586.98	1199.62
587.34	1196.33
587.69	1192.57
588.04	1187.90
588.39	1183.71
588.74	1178.71
589.09	1173.95
589.44	1168.14
589.79	1163.64
590.14	1159.71
590.49	1155.10
590.84	1149.38
591.19	1145.10
591.54	1141.26
591.89	1136.21
592.25	1134.43
592.60	1129.95
592.95	1126.48
593.30	1122.05
593.65	1116.88
594.00	1111.50
594.35	1112.36
594.70	1106.45
595.05	1102.29
595.40	1097.14
595.75	1092.52
596.10	1089.57
596.45	1085.57
596.80	1081.86
597.15	1076.21
597.50	1072.24
597.85	1068.95
598.19	1065.17
598.54	1060.55
598.89	1055.71
599.24	1051.40
599.59	1045.52
599.94	1040.74
600.29	1036.31
600.64	1033.00
600.99	1029.38
601.34	1025.79
601.69	1015.36
602.04	1010.79
602.39	1005.50
602.74	1001.40
603.08	997.67
603.43	994.48
603.78	989.93
604.13	985.19
604.48	980.88
604.83	976.19
605.18	971.81
605.53	967.60
605.87	963.17
606.22	958.64
606.57	954.40
606.92	949.31
607.27	945.90
607.62	941.24
607.96	936.50
608.31	931.83
608.66	927.14
609.01	922.48
609.36	918.86
609.70	914.86
610.05	910.17
610.40	905.76
610.75	900.50
611.10	896.07
611.44	891.81
611.79	888.45
612.14	884.24
612.49	879.52
612.83	874.48
613.18	869.74
613.53	865.10
613.88	860.02
614.22	855.33
614.57	849.86
614.92	845.14
615.27	840.95
615.61	835.83
615.96	831.02
616.31	827.10
616.65	824.00
617.00	819.67
617.35	816.33
617.70	811.52
618.04	806.93
618.39	801.98
618.74	797.64
619.08	793.05
619.43	788.48
619.78	783.69
620.12	780.21
620.47	776.90
620.82	772.67
621.16	768.26
621.51	765.95
621.85	761.76
622.20	758.19
622.55	753.26
622.89	749.76
623.24	746.29
623.59	742.00
623.93	737.05
624.28	733.64
624.62	731.81
624.97	729.71
625.32	725.88
625.66	722.62
626.01	718.93
626.35	715.21
626.70	711.38
627.04	708.43
627.39	704.60
627.73	701.67
628.08	698.90
628.43	695.50
628.77	690.98
629.12	688.14
629.46	685.02
629.81	682.40
630.15	678.81
630.50	675.02
630.84	671.55
631.19	668.02
631.53	664.19
631.88	658.40
632.22	652.60
632.57	649.40
632.91	645.67
633.26	642.57
633.60	639.26
633.95	635.86
634.29	632.19
634.64	628.86
634.98	625.10
635.32	622.43
635.67	620.21
636.01	617.19
636.36	613.95
636.70	610.55
637.05	607.14
637.39	604.29
637.73	601.83
638.08	599.19
638.42	595.93
638.77	593.40
639.11	589.98
639.45	587.43
639.80	584.05
640.14	581.81
640.49	578.40
640.83	574.90
641.17	572.45
641.52	569.02
641.86	566.36
642.20	563.81
642.55	560.12
642.89	556.98
643.23	554.00
643.58	551.43
643.92	547.60
644.26	544.76
644.61	542.10
644.95	539.24
645.29	536.12
645.64	533.71
645.98	530.36
646.32	528.48
646.66	525.64
647.01	522.93
647.35	520.14
647.69	517.74
648.04	515.71
648.38	513.10
648.72	510.90
649.06	508.38
649.41	505.02
649.75	502.29
650.09	499.50
650.43	496.76
650.78	493.38
651.12	490.81
651.46	487.86
651.80	485.21
652.14	482.07
652.49	480.07
652.83	477.02
653.17	474.79
653.51	471.60
653.85	469.79
654.20	468.02
654.54	465.19
654.88	462.17
655.22	460.38
655.56	457.74
655.90	455.52
656.25	452.71
656.59	450.33
656.93	448.14
657.27	446.45
657.61	443.76
657.95	442.17
658.29	440.21
658.64	438.86
658.98	436.55
659.32	434.79
659.66	432.48
660.00	431.02
660.34	428.57
660.68	426.60
661.02	424.55
661.36	421.90
661.70	420.07
662.05	418.45
662.39	416.55
662.73	415.64
663.07	414.76
663.41	413.45
663.75	411.67
664.09	409.81
664.43	407.21
664.77	405.79
665.11	403.76
665.45	402.10
665.79	400.40
666.13	398.52
666.47	396.36
666.81	394.52
667.15	392.33
667.49	391.38
667.83	390.57
668.17	388.86
668.51	387.43
668.85	386.17
669.19	385.57
669.53	383.12
669.87	380.88
670.21	378.69
670.55	377.05
670.89	376.55
671.23	375.10
671.57	374.12
671.91	372.60
672.25	371.57
672.58	371.05
672.92	368.88
673.26	367.55
673.60	366.71
673.94	365.57
674.28	364.43
674.62	363.05
674.96	361.36
675.30	360.05
675.64	358.86
675.97	357.45
676.31	355.33
676.65	354.07
676.99	353.38
677.33	351.83
677.67	350.48
678.01	348.24
678.34	347.14
678.68	346.12
679.02	345.05
679.36	343.50
679.70	341.48
680.04	340.31
680.37	339.02
680.71	337.33
681.05	336.24
681.39	335.38
681.73	333.71
682.06	332.33
682.40	331.00
682.74	330.10
683.08	329.36
683.42	328.07
683.75	327.38
684.09	325.79
684.43	324.86
684.77	323.74
685.10	322.71
685.44	321.40
685.78	320.36
686.12	319.31
686.45	318.50
686.79	317.67
687.13	317.45
687.46	316.55
687.80	316.50
688.14	315.12
688.48	313.90
688.81	313.52
689.15	313.05
689.49	312.07
689.82	310.83
690.16	309.38
690.50	308.52
690.83	307.17
691.17	305.88
691.51	305.05
691.84	304.07
692.18	303.07
692.52	302.33
692.85	301.38
693.19	301.07
693.52	299.90
693.86	298.62
694.20	297.05
694.53	296.38
694.87	294.86
695.21	294.12
695.54	293.38
695.88	291.90
696.21	290.40
696.55	289.79
696.88	289.14
697.22	288.40
697.56	288.19
697.89	287.29
698.23	286.95
698.56	286.00
698.90	285.55
699.23	284.95
699.57	284.31
699.90	283.57
700.24	282.07
700.58	281.57
700.91	281.57
701.25	282.64
701.58	282.36
701.92	282.29
702.25	281.40
702.59	280.76
702.92	280.31
703.26	279.81
703.59	279.19
703.93	279.90
704.26	279.36
704.60	278.74
704.93	278.36
705.26	277.29
705.60	277.10
705.93	276.12
706.27	275.83
706.60	275.64
706.94	275.52
707.27	274.93
707.61	274.29
707.94	273.36
708.27	271.07
708.61	269.95
708.94	269.07
709.28	268.81
709.61	267.76
709.94	267.31
710.28	266.93
710.61	266.40
710.95	264.29
711.28	265.00
711.61	264.33
711.95	264.45
712.28	263.88
712.61	263.07
712.95	263.76
713.28	264.07
713.61	263.02
713.95	262.10
714.28	261.57
714.61	261.00
714.95	260.50
715.28	260.00
715.61	259.64
715.95	259.36
716.28	258.76
716.61	258.93
716.95	258.40
717.28	257.64
717.61	257.07
717.94	256.60
718.28	254.52
718.61	253.88
718.94	252.74
719.27	252.36
719.61	252.00
719.94	250.93
720.27	249.57
720.60	249.14
720.94	248.57
721.27	248.57
721.60	248.60
721.93	248.31
722.27	248.57
722.60	248.33
722.93	247.74
723.26	247.50
723.59	246.79
723.93	246.64
724.26	246.90
724.59	246.55
724.92	246.50
725.25	247.02
725.59	246.71
725.92	246.64
726.25	246.31
726.58	246.19
726.91	245.60
727.24	245.67
727.57	245.40
727.91	245.14
728.24	244.81
728.57	244.00
728.90	243.74
729.23	242.86
729.56	243.71
729.89	243.29
730.22	242.93
730.55	242.76
730.89	242.55
731.22	241.67
731.55	241.24
731.88	241.12
732.21	240.43
732.54	239.74
732.87	239.40
733.20	239.45
733.53	239.10
733.86	239.14
734.19	238.38
734.52	238.24
734.85	239.12
735.18	238.60
735.51	239.07
735.84	239.19
736.17	239.74
736.50	238.24
736.83	240.48
737.16	240.40
737.49	240.05
737.82	239.45
738.15	239.79
738.48	239.67
738.81	239.21
739.14	238.88
739.47	239.02
739.80	238.81
740.13	238.57
740.46	238.14
740.79	237.55
741.12	237.64
741.45	237.29
741.78	236.02
742.11	236.33
742.44	235.69
742.77	235.48
743.10	234.95
743.43	234.62
743.75	232.29
744.08	234.74
744.41	234.48
744.74	234.48
745.07	233.76
745.40	234.00
745.73	234.67
746.06	234.52
746.39	234.67
746.71	234.36
747.04	234.00
747.37	234.00
747.70	234.48
748.03	234.02
748.36	234.29
748.68	234.14
749.01	233.62
749.34	233.36
749.67	233.29
750.00	233.17
750.33	234.74
750.65	234.76
750.98	231.81
751.31	232.00
751.64	231.79
751.97	233.10
752.29	232.81
752.62	231.79
752.95	231.50
753.28	230.83
753.60	231.00
753.93	231.36
754.26	231.12
754.59	230.10
754.91	229.95
755.24	229.57
755.57	229.45
755.90	229.36
756.22	229.07
756.55	228.55
756.88	228.19
757.20	226.38
757.53	225.76
757.86	225.67
758.19	225.55
758.51	225.64
758.84	224.17
759.17	223.76
759.49	223.83
759.82	224.55
760.15	224.79
760.47	224.50
760.80	223.64
761.13	223.79
761.45	223.74
761.78	223.52
762.11	223.31
762.43	222.98
762.76	222.79
763.08	223.14
763.41	223.31
763.74	223.24
764.06	223.33
764.39	223.40
764.71	223.31
765.04	223.07
765.37	222.57
765.69	222.50
766.02	222.62
766.34	222.31
766.67	221.43
767.00	221.60
767.32	222.60
767.65	224.02
767.97	223.67
768.30	223.93
768.62	224.00
768.95	223.79
769.27	223.60
769.60	223.90
769.92	223.38
770.25	222.74
770.57	222.24
770.90	222.00
771.22	221.71
771.55	221.88
771.87	221.81
772.20	221.74
772.52	223.29
772.85	225.24
773.17	225.21
773.50	225.31
773.82	225.05
774.15	223.90
774.47	222.40
774.80	222.31
775.12	222.38
775.45	221.98
775.77	221.93
776.09	222.21
776.42	222.02
776.74	222.62
777.07	222.64
777.39	222.62
777.72	222.69
778.04	222.90
778.36	222.45
778.69	222.33
779.01	222.71
779.33	220.98
779.66	218.79
779.98	218.60
780.31	218.67
780.63	219.24
780.95	219.52
781.28	219.60
781.60	219.26
781.92	218.83
782.25	218.98
782.57	218.95
782.89	218.81
783.22	218.86
783.54	218.26
783.86	218.60
784.19	218.81
784.51	219.38
784.83	218.98
785.16	219.07
785.48	219.02
785.80	218.95
786.12	219.17
786.45	219.07
786.77	219.21
787.09	218.98
787.42	218.29
787.74	218.21
788.06	218.24
