SpectraSuite Data File
++++++++++++++++++++++++++++++++++++
Date: Tue Apr 02 18:44:51 EDT 2013
User: group
Dark Spectrum Present: No
Reference Spectrum Present: No
Number of Sampled Component Spectra: 1
Spectrometers: USB2E7196
Integration Time (usec): 580000 (USB2E7196)
Spectra Averaged: 2 (USB2E7196)
Boxcar Smoothing: 10 (USB2E7196)
Correct for Electrical Dark: No (USB2E7196)
Strobe/Lamp Enabled: No (USB2E7196)
Correct for Detector Non-linearity: No (USB2E7196)
Correct for Stray Light: No (USB2E7196)
Number of Pixels in Processed Spectrum: 2048
>>>>>Begin Processed Spectral Data<<<<<
339.09	0.00
339.48	197.00
339.86	197.50
340.24	202.00
340.63	198.00
341.01	239.50
341.39	200.00
341.78	209.50
342.16	211.00
342.54	207.50
342.93	199.74
343.31	209.67
343.69	210.40
344.07	210.76
344.46	211.40
344.84	212.29
345.22	211.10
345.60	211.81
345.99	211.93
346.37	212.07
346.75	212.31
347.13	212.67
347.52	212.81
347.90	213.38
348.28	213.55
348.66	214.05
349.05	213.52
349.43	213.69
349.81	213.88
350.19	213.74
350.57	214.17
350.96	214.29
351.34	214.29
351.72	214.21
352.10	214.26
352.48	213.90
352.87	213.43
353.25	213.17
353.63	212.90
354.01	212.76
354.39	212.48
354.77	212.50
355.15	212.83
355.54	212.64
355.92	211.88
356.30	211.86
356.68	212.79
357.06	212.93
357.44	212.52
357.82	212.36
358.20	212.95
358.58	212.90
358.97	212.88
359.35	213.55
359.73	213.76
360.11	214.10
360.49	213.90
360.87	213.76
361.25	214.05
361.63	214.60
362.01	214.67
362.39	214.64
362.77	214.64
363.15	214.52
363.53	214.52
363.91	214.83
364.29	214.83
364.67	212.90
365.05	212.93
365.43	213.07
365.81	213.21
366.19	213.43
366.57	214.21
366.95	214.17
367.33	213.64
367.71	213.38
368.09	213.50
368.47	213.93
368.85	214.19
369.23	214.50
369.61	213.71
369.99	214.38
370.37	214.64
370.75	215.36
371.13	215.00
371.51	214.71
371.89	214.79
372.27	214.67
372.65	214.95
373.03	214.88
373.41	214.83
373.78	214.83
374.16	213.71
374.54	212.81
374.92	212.67
375.30	212.40
375.68	212.33
376.06	212.45
376.44	212.36
376.82	212.33
377.19	212.36
377.57	212.50
377.95	211.74
378.33	211.69
378.71	210.60
379.09	210.79
379.47	210.95
379.84	210.79
380.22	210.62
380.60	210.40
380.98	210.26
381.36	210.48
381.73	210.14
382.11	210.76
382.49	210.86
382.87	210.60
383.25	210.67
383.62	213.07
384.00	212.67
384.38	212.76
384.76	213.17
385.13	213.83
385.51	213.83
385.89	213.71
386.27	213.93
386.64	214.36
387.02	214.48
387.40	214.31
387.78	214.33
388.15	214.57
388.53	214.38
388.91	214.57
389.29	214.31
389.66	214.52
390.04	214.24
390.42	214.67
390.79	214.83
391.17	215.00
391.55	212.83
391.92	213.00
392.30	213.12
392.68	213.00
393.05	212.64
393.43	212.79
393.81	213.07
394.18	212.67
394.56	212.76
394.94	213.07
395.31	213.07
395.69	214.00
396.06	214.38
396.44	214.60
396.82	214.33
397.19	215.50
397.57	215.52
397.95	216.05
398.32	215.57
398.70	216.05
399.07	216.48
399.45	216.31
399.82	216.10
400.20	215.79
400.58	215.81
400.95	215.12
401.33	215.62
401.70	217.17
402.08	217.67
402.45	217.67
402.83	218.21
403.20	218.40
403.58	217.76
403.95	218.31
404.33	218.79
404.71	219.19
405.08	220.48
405.46	220.71
405.83	220.83
406.21	221.05
406.58	221.48
406.96	221.83
407.33	222.31
407.70	223.14
408.08	225.57
408.45	226.21
408.83	227.33
409.20	227.71
409.58	227.24
409.95	227.98
410.33	228.86
410.70	229.19
411.08	230.43
411.45	231.88
411.82	232.48
412.20	234.17
412.57	236.48
412.95	235.76
413.32	237.60
413.69	239.05
414.07	240.76
414.44	242.33
414.82	244.33
415.19	246.86
415.56	249.02
415.94	250.19
416.31	253.14
416.68	255.95
417.06	259.33
417.43	262.98
417.81	266.57
418.18	270.40
418.55	274.24
418.93	278.26
419.30	282.17
419.67	286.76
420.04	291.12
420.42	295.69
420.79	303.10
421.16	308.88
421.54	315.86
421.91	322.17
422.28	328.57
422.66	334.86
423.03	342.57
423.40	349.62
423.77	356.74
424.15	363.69
424.52	371.19
424.89	379.52
425.26	387.29
425.64	394.81
426.01	403.02
426.38	411.55
426.75	421.19
427.13	430.31
427.50	439.90
427.87	450.12
428.24	459.83
428.61	468.05
428.99	479.21
429.36	489.31
429.73	500.10
430.10	511.57
430.47	523.43
430.85	534.00
431.22	545.98
431.59	560.64
431.96	573.48
432.33	587.19
432.70	600.52
433.08	616.02
433.45	631.33
433.82	646.57
434.19	663.40
434.56	679.93
434.93	695.67
435.30	711.90
435.68	729.52
436.05	746.57
436.42	763.19
436.79	778.48
437.16	795.81
437.53	813.98
437.90	831.74
438.27	849.12
438.64	867.38
439.01	885.00
439.38	898.57
439.75	913.69
440.13	931.40
440.50	947.48
440.87	960.36
441.24	973.74
441.61	988.00
441.98	999.21
442.35	1011.38
442.72	1024.76
443.09	1037.83
443.46	1044.62
443.83	1049.81
444.20	1055.52
444.57	1062.07
444.94	1065.00
445.31	1068.79
445.68	1074.31
446.05	1075.64
446.42	1074.38
446.79	1072.64
447.16	1071.33
447.53	1070.19
447.90	1063.83
448.27	1057.36
448.64	1048.83
449.01	1042.10
449.37	1031.33
449.74	1019.79
450.11	1008.00
450.48	993.48
450.85	977.50
451.22	964.76
451.59	953.05
451.96	940.90
452.33	925.19
452.70	911.24
453.07	893.71
453.43	874.24
453.80	857.93
454.17	842.36
454.54	827.40
454.91	810.62
455.28	794.31
455.65	778.90
456.02	767.86
456.38	755.50
456.75	740.38
457.12	727.00
457.49	714.79
457.86	701.10
458.23	690.50
458.59	678.93
458.96	667.31
459.33	656.67
459.70	646.33
460.07	638.21
460.43	628.40
460.80	620.12
461.17	612.64
461.54	604.83
461.91	596.67
462.27	588.10
462.64	581.38
463.01	574.33
463.38	568.12
463.74	557.24
464.11	550.79
464.48	545.10
464.85	539.05
465.21	534.45
465.58	529.45
465.95	523.00
466.32	517.76
466.68	512.74
467.05	507.62
467.42	502.38
467.78	496.79
468.15	492.19
468.52	488.21
468.88	482.86
469.25	478.19
469.62	474.64
469.98	470.79
470.35	467.31
470.72	463.31
471.08	458.31
471.45	455.55
471.82	452.36
472.18	449.10
472.55	446.52
472.92	442.74
473.28	439.57
473.65	436.50
474.02	434.05
474.38	432.07
474.75	430.02
475.11	427.45
475.48	425.90
475.85	424.36
476.21	422.71
476.58	421.43
476.94	419.71
477.31	418.52
477.67	417.40
478.04	416.36
478.41	415.86
478.77	417.31
479.14	415.79
479.50	415.29
479.87	414.76
480.23	414.17
480.60	413.69
480.96	413.52
481.33	414.60
481.69	414.60
482.06	414.76
482.42	415.40
482.79	415.95
483.15	416.10
483.52	416.98
483.88	417.31
484.25	417.88
484.61	419.07
484.98	419.69
485.34	421.67
485.71	422.86
486.07	423.95
486.44	423.71
486.80	425.38
487.17	426.69
487.53	429.00
487.90	431.50
488.26	434.98
488.62	437.60
488.99	439.50
489.35	441.95
489.72	444.71
490.08	447.21
490.44	450.19
490.81	453.40
491.17	456.21
491.54	460.24
491.90	464.02
492.26	467.69
492.63	471.24
492.99	474.62
493.36	478.76
493.72	483.12
494.08	487.33
494.45	492.38
494.81	497.60
495.17	502.31
495.54	507.52
495.90	511.55
496.26	516.50
496.63	521.81
496.99	527.43
497.35	533.17
497.72	538.69
498.08	544.26
498.44	550.38
498.80	557.12
499.17	562.81
499.53	568.71
499.89	575.36
500.26	582.05
500.62	588.52
500.98	595.83
501.34	602.74
501.71	609.74
502.07	616.55
502.43	623.36
502.79	630.29
503.16	637.14
503.52	644.93
503.88	651.64
504.24	659.33
504.60	667.07
504.97	674.60
505.33	682.57
505.69	691.62
506.05	699.52
506.41	706.79
506.78	714.33
507.14	721.67
507.50	729.62
507.86	738.21
508.22	746.38
508.59	752.95
508.95	760.86
509.31	769.98
509.67	778.05
510.03	785.43
510.39	793.93
510.75	800.86
511.12	808.29
511.48	817.02
511.84	824.31
512.20	831.90
512.56	839.14
512.92	846.86
513.28	853.74
513.64	860.86
514.00	868.10
514.37	876.02
514.73	883.24
515.09	890.74
515.45	896.88
515.81	903.64
516.17	911.12
516.53	917.69
516.89	923.10
517.25	928.93
517.61	936.76
517.97	942.05
518.33	949.38
518.69	955.69
519.05	962.62
519.41	968.74
519.77	975.52
520.13	981.90
520.49	987.76
520.85	993.43
521.21	1000.05
521.57	1005.76
521.93	1010.98
522.29	1017.36
522.65	1021.79
523.01	1027.86
523.37	1032.40
523.73	1037.38
524.09	1042.17
524.45	1047.38
524.81	1052.71
525.17	1056.71
525.53	1061.81
525.89	1066.38
526.25	1071.74
526.61	1074.33
526.97	1078.67
527.33	1082.31
527.68	1087.88
528.04	1091.76
528.40	1096.00
528.76	1099.57
529.12	1103.74
529.48	1107.98
529.84	1112.02
530.20	1117.10
530.56	1120.90
530.91	1125.88
531.27	1131.24
531.63	1135.43
531.99	1139.02
532.35	1142.76
532.71	1146.17
533.07	1150.93
533.42	1156.76
533.78	1160.45
534.14	1165.52
534.50	1169.45
534.86	1173.98
535.21	1176.05
535.57	1179.95
535.93	1183.29
536.29	1188.07
536.65	1192.31
537.00	1195.64
537.36	1198.98
537.72	1201.90
538.08	1205.14
538.44	1208.07
538.79	1210.36
539.15	1213.62
539.51	1217.24
539.87	1220.86
540.22	1224.21
540.58	1226.38
540.94	1228.02
541.29	1230.62
541.65	1232.81
542.01	1236.45
542.37	1238.29
542.72	1240.76
543.08	1243.14
543.44	1247.05
543.79	1247.48
544.15	1250.40
544.51	1253.36
544.87	1255.60
545.22	1258.19
545.58	1261.40
545.94	1264.05
546.29	1266.57
546.65	1269.00
547.01	1271.14
547.36	1273.74
547.72	1276.19
548.07	1278.93
548.43	1280.57
548.79	1282.88
549.14	1285.57
549.50	1288.14
549.86	1290.60
550.21	1293.95
550.57	1297.26
550.92	1299.00
551.28	1303.00
551.64	1305.60
551.99	1307.86
552.35	1310.86
552.70	1313.71
553.06	1316.45
553.41	1319.88
553.77	1324.55
554.13	1328.60
554.48	1332.95
554.84	1336.74
555.19	1341.40
555.55	1346.67
555.90	1350.79
556.26	1355.00
556.61	1358.88
556.97	1361.45
557.32	1366.29
557.68	1369.36
558.03	1373.26
558.39	1377.00
558.74	1381.12
559.10	1384.79
559.45	1389.71
559.81	1394.55
560.16	1398.74
560.52	1402.71
560.87	1407.64
561.23	1410.86
561.58	1416.57
561.94	1420.02
562.29	1423.74
562.64	1427.55
563.00	1431.33
563.35	1436.71
563.71	1440.64
564.06	1445.52
564.42	1452.12
564.77	1457.19
565.12	1464.31
565.48	1471.71
565.83	1478.05
566.19	1483.71
566.54	1488.50
566.89	1493.57
567.25	1498.90
567.60	1506.21
567.96	1514.50
568.31	1521.05
568.66	1527.36
569.02	1531.05
569.37	1537.26
569.72	1543.36
570.08	1548.98
570.43	1554.02
570.78	1558.76
571.14	1566.17
571.49	1571.76
571.84	1577.48
572.20	1583.17
572.55	1587.43
572.90	1589.98
573.26	1594.38
573.61	1599.17
573.96	1604.79
574.31	1609.24
574.67	1613.57
575.02	1616.79
575.37	1618.79
575.72	1621.14
576.08	1624.81
576.43	1629.71
576.78	1632.60
577.13	1636.21
577.49	1640.36
577.84	1644.00
578.19	1648.31
578.54	1651.67
578.90	1655.90
579.25	1658.19
579.60	1660.83
579.95	1663.88
580.30	1667.83
580.66	1671.43
581.01	1674.71
581.36	1677.86
581.71	1680.95
582.06	1686.48
582.42	1690.71
582.77	1694.40
583.12	1697.81
583.47	1701.62
583.82	1705.38
584.17	1709.64
584.53	1713.02
584.88	1716.50
585.23	1720.62
585.58	1723.52
585.93	1725.50
586.28	1727.93
586.63	1731.57
586.98	1734.38
587.34	1738.55
587.69	1740.64
588.04	1742.95
588.39	1745.36
588.74	1747.00
589.09	1750.24
589.44	1749.88
589.79	1751.19
590.14	1752.74
590.49	1755.21
590.84	1756.00
591.19	1756.90
591.54	1758.86
591.89	1760.29
592.25	1763.83
592.60	1764.60
592.95	1765.67
593.30	1767.50
593.65	1768.36
594.00	1768.95
594.35	1775.71
594.70	1774.74
595.05	1776.55
595.40	1777.50
595.75	1777.00
596.10	1779.02
596.45	1780.02
596.80	1782.05
597.15	1782.62
597.50	1782.52
597.85	1783.60
598.19	1784.10
598.54	1783.71
598.89	1783.36
599.24	1784.50
599.59	1782.93
599.94	1782.83
600.29	1782.90
600.64	1783.14
600.99	1783.33
601.34	1783.43
601.69	1777.57
602.04	1777.12
602.39	1776.33
602.74	1775.88
603.08	1776.36
603.43	1776.43
603.78	1776.21
604.13	1774.95
604.48	1774.33
604.83	1775.50
605.18	1773.79
605.53	1773.17
605.87	1772.52
606.22	1771.88
606.57	1770.02
606.92	1767.14
607.27	1766.43
607.62	1765.02
607.96	1763.55
608.31	1763.57
608.66	1762.29
609.01	1761.19
609.36	1762.07
609.70	1760.81
610.05	1758.81
610.40	1756.45
610.75	1753.52
611.10	1751.48
611.44	1749.29
611.79	1746.83
612.14	1743.38
612.49	1740.76
612.83	1738.38
613.18	1736.26
613.53	1732.55
613.88	1729.21
614.22	1726.81
614.57	1722.21
614.92	1719.31
615.27	1716.14
615.61	1711.10
615.96	1706.81
616.31	1702.76
616.65	1699.81
617.00	1697.12
617.35	1695.40
617.70	1693.33
618.04	1689.62
618.39	1686.02
618.74	1682.36
619.08	1678.74
619.43	1676.43
619.78	1673.95
620.12	1670.90
620.47	1667.29
620.82	1663.71
621.16	1659.74
621.51	1657.52
621.85	1654.05
622.20	1650.21
622.55	1646.17
622.89	1643.05
623.24	1640.36
623.59	1637.21
623.93	1631.69
624.28	1627.43
624.62	1624.19
624.97	1620.95
625.32	1618.10
625.66	1614.48
626.01	1610.45
626.35	1606.95
626.70	1601.93
627.04	1598.26
627.39	1593.64
627.73	1590.21
628.08	1587.50
628.43	1584.81
628.77	1580.33
629.12	1577.43
629.46	1573.81
629.81	1569.79
630.15	1565.00
630.50	1560.02
630.84	1555.12
631.19	1550.55
631.53	1545.00
631.88	1537.95
632.22	1531.02
632.57	1526.33
632.91	1520.69
633.26	1516.64
633.60	1511.19
633.95	1505.93
634.29	1500.69
634.64	1496.57
634.98	1491.52
635.32	1487.17
635.67	1482.64
636.01	1478.05
636.36	1472.52
636.70	1467.95
637.05	1463.21
637.39	1459.69
637.73	1455.98
638.08	1452.33
638.42	1448.40
638.77	1445.05
639.11	1441.43
639.45	1437.74
639.80	1432.50
640.14	1426.98
640.49	1421.76
640.83	1417.50
641.17	1413.19
641.52	1407.52
641.86	1402.14
642.20	1397.50
642.55	1391.45
642.89	1385.38
643.23	1379.86
643.58	1375.57
643.92	1369.76
644.26	1364.21
644.61	1359.60
644.95	1353.60
645.29	1346.62
645.64	1340.38
645.98	1334.26
646.32	1329.00
646.66	1323.31
647.01	1316.74
647.35	1312.48
647.69	1306.52
648.04	1301.10
648.38	1295.24
648.72	1289.86
649.06	1284.62
649.41	1278.62
649.75	1272.64
650.09	1267.24
650.43	1260.88
650.78	1254.29
651.12	1248.38
651.46	1242.36
651.80	1234.95
652.14	1229.19
652.49	1224.17
652.83	1218.31
653.17	1211.67
653.51	1204.86
653.85	1199.40
654.20	1193.43
654.54	1185.95
654.88	1180.02
655.22	1173.95
655.56	1167.76
655.90	1161.21
656.25	1153.81
656.59	1146.67
656.93	1141.12
657.27	1136.29
657.61	1129.64
657.95	1124.07
658.29	1117.64
658.64	1111.50
658.98	1105.17
659.32	1098.00
659.66	1091.48
660.00	1085.52
660.34	1079.62
660.68	1073.40
661.02	1065.86
661.36	1060.45
661.70	1054.29
662.05	1047.98
662.39	1041.71
662.73	1035.83
663.07	1030.45
663.41	1024.90
663.75	1019.24
664.09	1012.71
664.43	1005.76
664.77	999.86
665.11	992.86
665.45	987.36
665.79	981.52
666.13	975.07
666.47	969.90
666.81	963.88
667.15	957.43
667.49	952.07
667.83	946.88
668.17	942.17
668.51	936.71
668.85	932.38
669.19	927.55
669.53	920.86
669.87	914.45
670.21	908.52
670.55	902.50
670.89	898.29
671.23	892.79
671.57	886.98
671.91	882.07
672.25	877.05
672.58	872.10
672.92	866.29
673.26	861.57
673.60	856.05
673.94	851.33
674.28	846.26
674.62	841.00
674.96	835.50
675.30	830.45
675.64	824.83
675.97	819.36
676.31	813.67
676.65	809.24
676.99	806.12
677.33	800.98
677.67	796.90
678.01	791.14
678.34	786.31
678.68	781.50
679.02	775.81
679.36	770.95
679.70	765.07
680.04	760.07
680.37	754.90
680.71	749.76
681.05	744.88
681.39	740.33
681.73	735.24
682.06	730.36
682.40	725.74
682.74	721.17
683.08	717.10
683.42	712.12
683.75	707.62
684.09	701.40
684.43	696.62
684.77	690.83
685.10	685.74
685.44	680.98
685.78	675.52
686.12	671.33
686.45	666.55
686.79	662.33
687.13	658.43
687.46	654.07
687.80	650.57
688.14	646.00
688.48	641.83
688.81	637.36
689.15	633.33
689.49	628.60
689.82	624.50
690.16	618.86
690.50	614.60
690.83	610.00
691.17	605.71
691.51	601.98
691.84	598.40
692.18	594.05
692.52	589.86
692.85	586.76
693.19	583.45
693.52	579.57
693.86	574.98
694.20	570.60
694.53	566.69
694.87	562.19
695.21	558.07
695.54	553.52
695.88	549.86
696.21	544.90
696.55	541.07
696.88	537.12
697.22	533.69
697.56	530.60
697.89	526.95
698.23	523.57
698.56	519.26
698.90	515.81
699.23	512.36
699.57	509.10
699.90	505.17
700.24	500.98
700.58	497.14
700.91	494.50
701.25	493.14
701.58	490.50
701.92	487.48
702.25	484.29
702.59	480.88
702.92	477.57
703.26	474.95
703.59	471.52
703.93	469.79
704.26	466.83
704.60	463.50
704.93	460.36
705.26	457.12
705.60	454.55
705.93	451.21
706.27	448.98
706.60	446.45
706.94	444.43
707.27	441.81
707.61	439.67
707.94	436.86
708.27	432.10
708.61	428.71
708.94	425.93
709.28	423.21
709.61	420.88
709.94	418.43
710.28	415.79
710.61	413.19
710.95	408.98
711.28	407.98
711.61	405.21
711.95	403.29
712.28	400.86
712.61	398.48
712.95	397.43
713.28	395.90
713.61	393.19
713.95	390.83
714.28	388.88
714.61	386.31
714.95	383.95
715.28	382.26
715.61	380.14
715.95	378.14
716.28	376.10
716.61	374.40
716.95	372.21
717.28	370.26
717.61	368.64
717.94	367.02
718.28	363.60
718.61	362.00
718.94	359.86
719.27	358.14
719.61	356.48
719.94	354.14
720.27	351.10
720.60	349.69
720.94	347.62
721.27	346.02
721.60	344.90
721.93	343.57
722.27	342.45
722.60	340.95
722.93	338.98
723.26	337.62
723.59	335.76
723.93	334.50
724.26	333.60
724.59	332.19
724.92	330.60
725.25	330.02
725.59	328.64
725.92	327.81
726.25	326.50
726.58	325.26
726.91	324.21
727.24	323.62
727.57	322.26
727.91	320.60
728.24	319.36
728.57	317.86
728.90	316.67
729.23	315.00
729.56	314.50
729.89	313.52
730.22	312.31
730.55	311.24
730.89	310.12
731.22	308.71
731.55	307.29
731.88	306.52
732.21	304.95
732.54	303.60
732.87	302.14
733.20	301.43
733.53	300.40
733.86	298.98
734.19	297.50
734.52	296.71
734.85	297.31
735.18	296.19
735.51	296.00
735.84	295.10
736.17	294.67
736.50	292.98
736.83	294.57
737.16	293.69
737.49	292.93
737.82	291.98
738.15	291.29
738.48	290.83
738.81	289.71
739.14	288.93
739.47	288.40
739.80	287.62
740.13	286.90
740.46	285.50
740.79	284.43
741.12	283.50
741.45	282.31
741.78	280.43
742.11	280.26
742.44	279.05
742.77	278.43
743.10	276.93
743.43	276.19
743.75	273.38
744.08	275.12
744.41	274.33
744.74	273.36
745.07	272.17
745.40	271.48
745.73	271.69
746.06	270.79
746.39	270.33
746.71	269.40
747.04	268.48
747.37	268.12
747.70	267.95
748.03	267.29
748.36	267.10
748.68	266.29
749.01	264.88
749.34	264.26
749.67	263.74
750.00	263.95
750.33	264.81
750.65	264.45
750.98	261.64
751.31	261.24
751.64	261.05
751.97	261.69
752.29	261.14
752.62	259.98
752.95	259.62
753.28	258.55
753.60	257.83
753.93	257.83
754.26	257.43
754.59	256.48
754.91	256.10
755.24	255.31
755.57	254.57
755.90	254.07
756.22	253.31
756.55	252.69
756.88	251.60
757.20	249.74
757.53	248.62
757.86	248.10
758.19	247.40
758.51	246.86
758.84	245.55
759.17	244.81
759.49	243.98
759.82	244.43
760.15	244.31
760.47	244.24
760.80	243.24
761.13	243.17
761.45	242.55
761.78	241.76
762.11	241.38
762.43	241.14
762.76	240.79
763.08	240.71
763.41	240.17
763.74	239.98
764.06	239.83
764.39	239.57
764.71	239.00
765.04	238.86
765.37	238.38
765.69	238.14
766.02	237.79
766.34	237.60
766.67	236.48
767.00	236.55
767.32	237.21
767.65	238.05
767.97	237.45
768.30	237.50
768.62	237.60
768.95	237.21
769.27	236.67
769.60	236.67
769.92	236.24
770.25	235.86
770.57	235.07
770.90	234.67
771.22	234.19
771.55	234.33
771.87	234.00
772.20	233.57
772.52	234.93
772.85	237.52
773.17	237.17
773.50	237.00
773.82	236.57
774.15	235.31
774.47	233.83
774.80	233.43
775.12	233.07
775.45	232.71
775.77	232.48
776.09	232.90
776.42	232.81
776.74	232.98
777.07	232.67
777.39	232.62
777.72	232.43
778.04	232.40
778.36	231.86
778.69	231.81
779.01	231.76
779.33	229.76
779.66	227.00
779.98	227.00
780.31	226.67
780.63	227.31
780.95	227.67
781.28	227.62
781.60	227.38
781.92	227.21
782.25	227.19
782.57	227.02
782.89	226.45
783.22	226.12
783.54	225.81
783.86	225.71
784.19	225.60
784.51	226.07
784.83	225.71
785.16	225.55
