SpectraSuite Data File
++++++++++++++++++++++++++++++++++++
Date: Tue Apr 02 18:41:38 EDT 2013
User: group
Dark Spectrum Present: No
Reference Spectrum Present: No
Number of Sampled Component Spectra: 1
Spectrometers: USB2E7196
Integration Time (usec): 580000 (USB2E7196)
Spectra Averaged: 2 (USB2E7196)
Boxcar Smoothing: 10 (USB2E7196)
Correct for Electrical Dark: No (USB2E7196)
Strobe/Lamp Enabled: No (USB2E7196)
Correct for Detector Non-linearity: No (USB2E7196)
Correct for Stray Light: No (USB2E7196)
Number of Pixels in Processed Spectrum: 2048
>>>>>Begin Processed Spectral Data<<<<<
339.09	0.00
339.48	192.50
339.86	194.50
340.24	196.00
340.63	196.50
341.01	234.00
341.39	201.50
341.78	201.00
342.16	208.50
342.54	204.00
342.93	195.26
343.31	205.10
343.69	205.60
344.07	206.21
344.46	206.98
344.84	207.64
345.22	206.19
345.60	206.76
345.99	207.31
346.37	207.36
346.75	207.36
347.13	207.60
347.52	208.00
347.90	208.83
348.28	209.05
348.66	209.60
349.05	208.93
349.43	209.31
349.81	209.83
350.19	209.83
350.57	209.93
350.96	210.29
351.34	210.43
351.72	210.62
352.10	210.57
352.48	210.36
352.87	210.33
353.25	210.83
353.63	210.43
354.01	210.24
354.39	210.24
354.77	210.48
355.15	211.05
355.54	210.88
355.92	210.33
356.30	210.48
356.68	211.69
357.06	212.00
357.44	211.60
357.82	211.69
358.20	212.88
358.58	212.90
358.97	212.98
359.35	213.62
359.73	214.31
360.11	214.33
360.49	214.57
360.87	214.45
361.25	214.57
361.63	215.55
362.01	215.67
362.39	215.90
362.77	216.07
363.15	215.88
363.53	215.93
363.91	216.31
364.29	216.21
364.67	214.45
365.05	214.60
365.43	215.02
365.81	215.19
366.19	215.10
366.57	216.17
366.95	216.24
367.33	215.55
367.71	215.19
368.09	215.76
368.47	215.81
368.85	215.83
369.23	216.10
369.61	215.29
369.99	216.02
370.37	216.02
370.75	217.07
371.13	216.79
371.51	216.50
371.89	216.50
372.27	216.74
372.65	217.02
373.03	217.29
373.41	217.12
373.78	216.88
374.16	216.14
374.54	215.29
374.92	215.17
375.30	215.31
375.68	214.93
376.06	214.90
376.44	214.88
376.82	215.14
377.19	214.86
377.57	214.83
377.95	214.21
378.33	214.24
378.71	213.00
379.09	213.38
379.47	213.69
379.84	213.45
380.22	213.40
380.60	212.81
380.98	212.52
381.36	212.48
381.73	212.43
382.11	212.69
382.49	212.76
382.87	212.64
383.25	212.71
383.62	215.19
384.00	214.93
384.38	214.95
384.76	215.45
385.13	216.43
385.51	216.52
385.89	216.26
386.27	216.29
386.64	216.71
387.02	216.45
387.40	216.38
387.78	216.43
388.15	216.38
388.53	216.48
388.91	216.55
389.29	216.50
389.66	216.71
390.04	216.33
390.42	216.88
390.79	217.00
391.17	216.86
391.55	214.67
391.92	214.52
392.30	214.45
392.68	213.88
393.05	213.67
393.43	213.55
393.81	213.71
394.18	213.43
394.56	213.43
394.94	213.74
395.31	213.52
395.69	213.88
396.06	214.17
396.44	214.26
396.82	214.19
397.19	215.21
397.57	214.95
397.95	215.14
398.32	214.52
398.70	214.69
399.07	215.14
399.45	215.14
399.82	215.05
400.20	215.19
400.58	215.14
400.95	214.26
401.33	214.95
401.70	216.33
402.08	216.48
402.45	216.62
402.83	217.10
403.20	217.31
403.58	217.45
403.95	217.86
404.33	218.48
404.71	218.76
405.08	219.81
405.46	220.24
405.83	220.60
406.21	220.83
406.58	221.50
406.96	221.74
407.33	222.38
407.70	223.24
408.08	225.31
408.45	226.57
408.83	227.71
409.20	227.98
409.58	227.71
409.95	228.90
410.33	229.79
410.70	230.29
411.08	231.71
411.45	232.83
411.82	233.76
412.20	235.38
412.57	237.90
412.95	237.50
413.32	239.21
413.69	240.79
414.07	242.69
414.44	244.52
414.82	246.81
415.19	249.17
415.56	251.19
415.94	252.48
416.31	255.10
416.68	258.00
417.06	261.57
417.43	265.19
417.81	268.40
418.18	272.21
418.55	276.05
418.93	279.95
419.30	284.10
419.67	288.52
420.04	292.55
420.42	296.57
420.79	304.29
421.16	310.12
421.54	317.21
421.91	323.50
422.28	329.81
422.66	336.24
423.03	344.38
423.40	351.60
423.77	358.48
424.15	365.64
424.52	373.40
424.89	382.12
425.26	389.83
425.64	397.95
426.01	406.36
426.38	415.19
426.75	424.95
427.13	434.40
427.50	444.50
427.87	455.00
428.24	465.07
428.61	473.50
428.99	484.98
429.36	495.48
429.73	506.90
430.10	518.55
430.47	530.88
430.85	541.67
431.22	554.48
431.59	569.81
431.96	582.71
432.33	596.88
432.70	610.12
433.08	626.90
433.45	642.33
433.82	657.43
434.19	675.07
434.56	691.98
434.93	708.10
435.30	724.38
435.68	742.64
436.05	761.05
436.42	778.31
436.79	794.71
437.16	812.52
437.53	830.64
437.90	848.95
438.27	866.93
438.64	885.55
439.01	903.69
439.38	918.67
439.75	934.10
440.13	951.29
440.50	967.74
440.87	980.26
441.24	994.31
441.61	1010.19
441.98	1020.95
442.35	1033.57
442.72	1046.29
443.09	1059.86
443.46	1068.21
443.83	1072.55
444.20	1077.57
444.57	1083.67
444.94	1086.74
445.31	1091.02
445.68	1096.36
446.05	1097.88
446.42	1096.29
446.79	1094.98
447.16	1092.52
447.53	1091.88
447.90	1085.83
448.27	1079.50
448.64	1071.10
449.01	1064.26
449.37	1052.45
449.74	1041.45
450.11	1030.24
450.48	1015.67
450.85	999.17
451.22	984.93
451.59	973.57
451.96	961.88
452.33	945.90
452.70	931.43
453.07	913.31
453.43	893.60
453.80	876.93
454.17	861.55
454.54	845.14
454.91	828.43
455.28	811.52
455.65	796.26
456.02	784.26
456.38	771.02
456.75	755.45
457.12	742.02
457.49	729.12
457.86	713.81
458.23	703.88
458.59	692.33
458.96	680.64
459.33	669.60
459.70	658.29
460.07	649.71
460.43	640.05
460.80	631.62
461.17	624.12
461.54	615.14
461.91	606.40
462.27	597.90
462.64	590.43
463.01	583.14
463.38	576.45
463.74	565.74
464.11	558.98
464.48	553.48
464.85	546.93
465.21	542.29
465.58	537.71
465.95	530.67
466.32	525.10
466.68	519.83
467.05	514.26
467.42	509.55
467.78	503.76
468.15	498.74
468.52	495.05
468.88	489.29
469.25	484.67
469.62	481.31
469.98	477.60
470.35	474.36
470.72	470.62
471.08	465.67
471.45	462.62
471.82	459.83
472.18	455.79
472.55	453.14
472.92	449.36
473.28	445.86
473.65	443.19
474.02	440.55
474.38	438.45
474.75	436.88
475.11	434.29
475.48	432.40
475.85	430.52
476.21	428.60
476.58	427.33
476.94	426.17
477.31	424.60
477.67	423.10
478.04	421.83
478.41	421.02
478.77	422.55
479.14	421.90
479.50	421.19
479.87	420.98
480.23	420.83
480.60	420.43
480.96	420.43
481.33	421.43
481.69	421.31
482.06	421.12
482.42	421.07
482.79	421.38
483.15	422.10
483.52	423.05
483.88	422.98
484.25	423.67
484.61	424.33
484.98	424.83
485.34	426.86
485.71	428.52
486.07	429.36
486.44	428.69
486.80	429.90
487.17	431.55
487.53	433.81
487.90	435.79
488.26	438.79
488.62	441.55
488.99	443.07
489.35	446.12
489.72	448.90
490.08	451.62
490.44	454.69
490.81	458.12
491.17	461.48
491.54	465.10
491.90	468.81
492.26	472.00
492.63	476.36
492.99	479.40
493.36	483.40
493.72	487.98
494.08	492.74
494.45	497.45
494.81	502.40
495.17	506.81
495.54	511.98
495.90	516.40
496.26	521.02
496.63	526.52
496.99	531.98
497.35	537.98
497.72	544.43
498.08	550.45
498.44	556.10
498.80	561.83
499.17	568.05
499.53	574.31
499.89	582.07
500.26	588.26
500.62	595.90
500.98	603.12
501.34	610.38
501.71	617.62
502.07	625.24
502.43	631.98
502.79	639.05
503.16	646.07
503.52	653.74
503.88	661.17
504.24	668.88
504.60	676.29
504.97	684.55
505.33	691.36
505.69	700.14
506.05	708.26
506.41	716.24
506.78	724.24
507.14	731.90
507.50	739.81
507.86	748.52
508.22	756.26
508.59	763.81
508.95	772.17
509.31	781.00
509.67	788.64
510.03	797.14
510.39	805.21
510.75	813.24
511.12	820.69
511.48	828.64
511.84	836.31
512.20	844.40
512.56	851.93
512.92	860.29
513.28	867.55
513.64	875.12
514.00	883.17
514.37	891.45
514.73	899.00
515.09	906.67
515.45	913.83
515.81	921.00
516.17	928.14
516.53	933.93
516.89	939.57
517.25	946.52
517.61	954.02
517.97	960.60
518.33	966.98
518.69	974.31
519.05	981.17
519.41	987.69
519.77	995.60
520.13	1001.45
520.49	1007.24
520.85	1013.40
521.21	1020.88
521.57	1027.10
521.93	1031.60
522.29	1037.48
522.65	1042.36
523.01	1047.86
523.37	1053.05
523.73	1058.24
524.09	1064.29
524.45	1069.40
524.81	1074.24
525.17	1079.40
525.53	1085.14
525.89	1090.69
526.25	1095.19
526.61	1099.57
526.97	1104.31
527.33	1107.71
527.68	1114.21
528.04	1119.36
528.40	1123.40
528.76	1126.88
529.12	1131.12
529.48	1136.76
529.84	1140.69
530.20	1145.71
530.56	1150.43
530.91	1155.31
531.27	1159.74
531.63	1163.81
531.99	1168.79
532.35	1173.17
532.71	1176.12
533.07	1180.36
533.42	1186.81
533.78	1190.64
534.14	1195.40
534.50	1199.64
534.86	1205.33
535.21	1208.12
535.57	1212.29
535.93	1215.64
536.29	1220.14
536.65	1224.29
537.00	1227.64
537.36	1231.69
537.72	1235.12
538.08	1238.86
538.44	1242.55
538.79	1246.93
539.15	1250.17
539.51	1253.60
539.87	1258.00
540.22	1262.29
540.58	1265.31
540.94	1266.74
541.29	1270.60
541.65	1273.12
542.01	1277.19
542.37	1279.00
542.72	1281.19
543.08	1283.95
543.44	1288.17
543.79	1290.45
544.15	1293.21
544.51	1297.36
544.87	1300.76
545.22	1304.19
545.58	1307.60
545.94	1309.76
546.29	1312.71
546.65	1316.48
547.01	1319.62
547.36	1321.45
547.72	1324.43
548.07	1328.05
548.43	1330.31
548.79	1332.71
549.14	1336.02
549.50	1339.93
549.86	1342.19
550.21	1345.90
550.57	1349.50
550.92	1352.26
551.28	1356.19
551.64	1360.19
551.99	1362.90
552.35	1366.90
552.70	1370.31
553.06	1373.93
553.41	1378.26
553.77	1382.48
554.13	1386.40
554.48	1391.05
554.84	1396.38
555.19	1400.45
555.55	1405.95
555.90	1410.95
556.26	1415.48
556.61	1420.31
556.97	1422.67
557.32	1427.36
557.68	1432.05
558.03	1436.10
558.39	1440.21
558.74	1443.93
559.10	1448.31
559.45	1453.10
559.81	1458.17
560.16	1461.67
560.52	1465.67
560.87	1470.86
561.23	1475.38
561.58	1481.07
561.94	1485.50
562.29	1489.95
562.64	1495.67
563.00	1498.79
563.35	1502.88
563.71	1508.21
564.06	1512.33
564.42	1517.64
564.77	1524.10
565.12	1530.50
565.48	1537.14
565.83	1542.98
566.19	1548.95
566.54	1554.02
566.89	1559.60
567.25	1565.24
567.60	1572.90
567.96	1579.60
568.31	1585.76
568.66	1591.24
569.02	1595.83
569.37	1600.45
569.72	1605.60
570.08	1609.62
570.43	1614.76
570.78	1620.64
571.14	1627.29
571.49	1633.76
571.84	1638.90
572.20	1643.02
572.55	1647.79
572.90	1651.17
573.26	1655.31
573.61	1659.62
573.96	1664.93
574.31	1667.98
574.67	1671.12
575.02	1673.50
575.37	1676.05
575.72	1678.40
576.08	1682.24
576.43	1685.64
576.78	1689.19
577.13	1692.38
577.49	1696.52
577.84	1700.43
578.19	1703.74
578.54	1706.69
578.90	1710.26
579.25	1713.55
579.60	1715.71
579.95	1717.00
580.30	1720.31
580.66	1724.76
581.01	1727.83
581.36	1729.64
581.71	1733.45
582.06	1737.79
582.42	1741.62
582.77	1743.95
583.12	1746.76
583.47	1749.40
583.82	1752.14
584.17	1754.43
584.53	1757.83
584.88	1760.19
585.23	1762.10
585.58	1764.33
585.93	1765.17
586.28	1765.93
586.63	1768.83
586.98	1772.29
587.34	1775.40
587.69	1777.33
588.04	1778.10
588.39	1779.07
588.74	1779.90
589.09	1782.24
589.44	1781.81
589.79	1782.60
590.14	1784.79
590.49	1786.05
590.84	1786.57
591.19	1788.12
591.54	1788.76
591.89	1788.81
592.25	1790.79
592.60	1791.38
592.95	1792.33
593.30	1794.26
593.65	1794.81
594.00	1793.76
594.35	1799.26
594.70	1797.67
595.05	1797.64
595.40	1798.31
595.75	1799.10
596.10	1800.45
596.45	1800.29
596.80	1801.05
597.15	1800.83
597.50	1800.24
597.85	1801.69
598.19	1801.05
598.54	1800.74
598.89	1800.24
599.24	1800.45
599.59	1799.10
599.94	1799.90
600.29	1799.79
600.64	1798.26
600.99	1798.38
601.34	1798.88
601.69	1792.60
602.04	1792.74
602.39	1791.62
602.74	1791.05
603.08	1789.24
603.43	1788.81
603.78	1787.26
604.13	1786.00
604.48	1785.60
604.83	1784.98
605.18	1782.50
605.53	1782.07
605.87	1780.60
606.22	1779.67
606.57	1777.60
606.92	1775.76
607.27	1773.45
607.62	1771.31
607.96	1770.76
608.31	1769.71
608.66	1767.45
609.01	1765.81
609.36	1763.98
609.70	1761.98
610.05	1758.69
610.40	1756.62
610.75	1753.52
611.10	1751.14
611.44	1747.67
611.79	1743.90
612.14	1740.40
612.49	1737.88
612.83	1734.57
613.18	1730.29
613.53	1727.24
613.88	1723.67
614.22	1720.07
614.57	1716.40
614.92	1711.90
615.27	1706.93
615.61	1701.31
615.96	1697.17
616.31	1691.74
616.65	1689.07
617.00	1685.24
617.35	1681.57
617.70	1677.33
618.04	1671.86
618.39	1666.76
618.74	1662.43
619.08	1657.83
619.43	1652.86
619.78	1647.10
620.12	1642.33
620.47	1638.21
620.82	1633.21
621.16	1628.17
621.51	1623.31
621.85	1617.69
622.20	1612.64
622.55	1606.76
622.89	1602.33
623.24	1597.45
623.59	1593.52
623.93	1587.52
624.28	1582.48
624.62	1580.14
624.97	1576.48
625.32	1573.12
625.66	1568.81
626.01	1563.71
626.35	1559.50
626.70	1555.00
627.04	1552.05
627.39	1547.24
627.73	1543.12
628.08	1539.76
628.43	1535.48
628.77	1530.26
629.12	1525.43
629.46	1521.40
629.81	1517.74
630.15	1513.21
630.50	1508.07
630.84	1502.95
631.19	1497.57
631.53	1492.07
631.88	1484.29
632.22	1477.29
632.57	1472.14
632.91	1466.10
633.26	1461.74
633.60	1455.81
633.95	1450.19
634.29	1442.64
634.64	1437.05
634.98	1431.79
635.32	1426.29
635.67	1421.62
636.01	1416.86
636.36	1411.50
636.70	1406.86
637.05	1400.69
637.39	1394.93
637.73	1390.29
638.08	1385.38
638.42	1380.38
638.77	1375.64
639.11	1370.02
639.45	1365.21
639.80	1358.60
640.14	1353.52
640.49	1347.67
640.83	1341.71
641.17	1336.45
641.52	1331.62
641.86	1326.05
642.20	1319.88
642.55	1312.17
642.89	1305.07
643.23	1298.33
643.58	1292.88
643.92	1285.36
644.26	1279.33
644.61	1273.19
644.95	1265.90
645.29	1259.14
645.64	1253.33
645.98	1246.69
646.32	1240.48
646.66	1233.79
647.01	1227.43
647.35	1220.81
647.69	1214.45
648.04	1208.88
648.38	1202.74
648.72	1196.24
649.06	1189.88
649.41	1182.88
649.75	1177.00
650.09	1171.02
650.43	1165.14
650.78	1158.19
651.12	1151.31
651.46	1144.62
651.80	1137.74
652.14	1131.10
652.49	1125.31
652.83	1118.02
653.17	1111.50
653.51	1103.98
653.85	1097.36
654.20	1090.57
654.54	1083.19
654.88	1075.83
655.22	1069.40
655.56	1062.60
655.90	1055.98
656.25	1049.38
656.59	1043.19
656.93	1037.24
657.27	1031.45
657.61	1024.62
657.95	1019.26
658.29	1013.69
658.64	1008.24
658.98	1002.29
659.32	996.14
659.66	989.55
660.00	983.19
660.34	976.98
660.68	971.86
661.02	965.90
661.36	959.69
661.70	954.19
662.05	948.55
662.39	942.57
662.73	938.10
663.07	933.31
663.41	927.67
663.75	921.81
664.09	916.12
664.43	909.64
664.77	904.24
665.11	897.64
665.45	891.74
665.79	885.81
666.13	879.71
666.47	874.64
666.81	868.36
667.15	862.57
667.49	857.17
667.83	852.05
668.17	846.52
668.51	841.74
668.85	837.07
669.19	832.62
669.53	826.69
669.87	819.57
670.21	813.26
670.55	807.26
670.89	802.79
671.23	797.21
671.57	792.21
671.91	786.36
672.25	781.43
672.58	777.19
672.92	771.74
673.26	767.40
673.60	761.90
673.94	756.86
674.28	752.05
674.62	747.79
674.96	742.19
675.30	737.62
675.64	732.43
675.97	727.14
676.31	721.95
676.65	717.26
676.99	713.98
677.33	709.33
677.67	704.88
678.01	699.48
678.34	695.36
678.68	691.12
679.02	686.26
679.36	681.45
679.70	676.62
680.04	672.57
680.37	667.10
680.71	662.67
681.05	659.00
681.39	654.36
681.73	649.29
682.06	645.00
682.40	640.76
682.74	636.90
683.08	633.43
683.42	628.26
683.75	624.17
684.09	618.60
684.43	613.95
684.77	609.95
685.10	605.60
685.44	600.81
685.78	596.12
686.12	592.55
686.45	588.19
686.79	583.81
687.13	579.83
687.46	576.14
687.80	572.98
688.14	568.43
688.48	564.90
688.81	560.98
689.15	557.79
689.49	553.88
689.82	549.67
690.16	544.62
690.50	541.24
690.83	536.90
691.17	533.26
691.51	529.71
691.84	525.62
692.18	522.05
692.52	518.26
692.85	515.07
693.19	512.40
693.52	508.98
693.86	504.88
694.20	501.21
694.53	497.74
694.87	493.57
695.21	489.62
695.54	486.31
695.88	482.69
696.21	478.19
696.55	474.88
696.88	471.43
697.22	468.29
697.56	465.36
697.89	462.48
698.23	459.60
698.56	456.48
698.90	453.50
699.23	449.88
699.57	447.36
699.90	443.95
700.24	440.07
700.58	436.86
700.91	434.64
701.25	433.26
701.58	431.10
701.92	428.83
702.25	426.50
702.59	423.79
702.92	421.36
703.26	419.43
703.59	416.74
703.93	415.98
704.26	413.50
704.60	410.98
704.93	408.33
705.26	405.86
705.60	403.90
705.93	401.31
706.27	399.71
706.60	397.26
706.94	395.98
707.27	393.90
707.61	392.26
707.94	390.02
708.27	386.24
708.61	383.86
708.94	381.12
709.28	379.38
709.61	376.90
709.94	374.67
710.28	372.67
710.61	370.48
710.95	366.86
711.28	366.45
711.61	364.48
711.95	363.40
712.28	361.45
712.61	359.45
712.95	358.86
713.28	358.19
713.61	356.33
713.95	353.98
714.28	352.02
714.61	350.26
714.95	348.21
715.28	346.26
715.61	344.31
715.95	343.48
716.28	341.33
716.61	340.02
716.95	338.38
717.28	336.55
717.61	335.19
717.94	333.52
718.28	330.62
718.61	329.17
718.94	327.19
719.27	325.55
719.61	324.02
719.94	321.90
720.27	318.90
720.60	317.38
720.94	315.71
721.27	314.40
721.60	313.14
721.93	311.81
722.27	311.50
722.60	310.45
722.93	308.60
723.26	307.76
723.59	306.26
723.93	305.40
724.26	304.38
724.59	303.07
724.92	302.45
725.25	302.10
725.59	301.14
725.92	300.38
726.25	299.57
726.58	298.62
726.91	297.57
727.24	297.40
727.57	296.62
727.91	295.38
728.24	294.83
728.57	293.71
728.90	293.31
729.23	291.45
729.56	291.24
729.89	290.21
730.22	288.93
730.55	287.98
730.89	286.88
731.22	285.93
731.55	285.33
731.88	284.40
732.21	283.36
732.54	282.31
732.87	281.33
733.20	280.48
733.53	279.67
733.86	279.02
734.19	277.36
734.52	276.83
734.85	277.67
735.18	276.62
735.51	276.43
735.84	275.55
736.17	275.71
736.50	274.17
736.83	276.02
737.16	275.76
737.49	275.45
737.82	274.88
738.15	274.38
738.48	273.67
738.81	272.98
739.14	272.00
739.47	271.24
739.80	270.83
740.13	270.52
740.46	269.60
740.79	268.64
741.12	268.24
741.45	267.21
741.78	265.26
742.11	265.14
742.44	264.17
742.77	264.07
743.10	262.90
743.43	262.43
743.75	259.57
744.08	261.67
744.41	260.86
744.74	260.36
745.07	259.19
745.40	258.86
745.73	259.07
746.06	258.48
746.39	258.12
746.71	257.17
747.04	256.26
747.37	255.90
747.70	255.83
748.03	255.50
748.36	255.36
748.68	254.90
749.01	253.67
749.34	253.14
749.67	252.36
750.00	252.33
750.33	253.43
750.65	253.43
750.98	250.43
751.31	250.00
751.64	249.52
751.97	250.57
752.29	249.79
752.62	248.29
752.95	247.90
753.28	247.19
753.60	246.81
753.93	246.95
754.26	246.62
754.59	245.60
754.91	244.98
755.24	244.40
755.57	244.07
755.90	243.83
756.22	243.40
756.55	242.93
756.88	242.43
757.20	240.40
757.53	239.24
757.86	238.62
758.19	238.45
758.51	238.21
758.84	236.67
759.17	236.24
759.49	236.17
759.82	236.69
760.15	236.76
760.47	236.60
760.80	235.55
761.13	235.38
761.45	235.17
761.78	235.00
762.11	234.67
762.43	234.50
762.76	234.12
763.08	233.95
763.41	233.71
763.74	233.33
764.06	233.02
764.39	233.07
764.71	232.90
765.04	232.43
765.37	231.79
765.69	231.67
766.02	231.57
766.34	231.36
766.67	230.38
767.00	230.48
767.32	231.14
767.65	232.40
767.97	232.05
768.30	231.76
768.62	231.45
768.95	231.21
769.27	230.48
769.60	230.90
769.92	230.57
770.25	230.02
770.57	229.26
770.90	229.24
771.22	228.71
771.55	228.52
771.87	228.52
772.20	228.48
772.52	230.00
772.85	232.17
773.17	232.00
773.50	231.67
773.82	231.19
774.15	230.24
774.47	228.52
774.80	228.24
775.12	228.36
775.45	228.21
775.77	227.98
776.09	228.19
776.42	227.81
776.74	228.21
777.07	227.93
777.39	228.12
777.72	227.76
778.04	227.88
778.36	227.55
778.69	227.48
779.01	227.60
779.33	225.67
779.66	223.38
779.98	223.07
780.31	223.14
780.63	223.95
780.95	224.10
781.28	224.14
781.60	224.05
781.92	224.07
782.25	224.00
782.57	223.88
782.89	223.52
783.22	223.19
783.54	222.67
783.86	223.02
784.19	222.86
784.51	223.71
784.83	223.48
785.16	223.43
