SpectraSuite Data File
++++++++++++++++++++++++++++++++++++
Date: Tue Apr 02 18:37:38 EDT 2013
User: group
Dark Spectrum Present: No
Reference Spectrum Present: No
Number of Sampled Component Spectra: 1
Spectrometers: USB2E7196
Integration Time (usec): 580000 (USB2E7196)
Spectra Averaged: 2 (USB2E7196)
Boxcar Smoothing: 10 (USB2E7196)
Correct for Electrical Dark: No (USB2E7196)
Strobe/Lamp Enabled: No (USB2E7196)
Correct for Detector Non-linearity: No (USB2E7196)
Correct for Stray Light: No (USB2E7196)
Number of Pixels in Processed Spectrum: 2048
>>>>>Begin Processed Spectral Data<<<<<
339.09	0.00
339.48	192.50
339.86	196.00
340.24	200.50
340.63	199.00
341.01	233.00
341.39	199.50
341.78	206.50
342.16	207.50
342.54	201.50
342.93	197.45
343.31	207.07
343.69	207.57
344.07	208.12
344.46	208.69
344.84	209.14
345.22	207.74
345.60	208.29
345.99	208.62
346.37	208.71
346.75	208.88
347.13	209.07
347.52	209.26
347.90	209.74
348.28	209.76
348.66	209.95
349.05	209.33
349.43	209.69
349.81	210.00
350.19	210.05
350.57	210.26
350.96	210.38
351.34	210.81
351.72	211.00
352.10	211.02
352.48	210.79
352.87	210.67
353.25	210.93
353.63	210.90
354.01	210.62
354.39	210.83
354.77	210.81
355.15	211.07
355.54	210.79
355.92	210.29
356.30	210.43
356.68	212.07
357.06	212.52
357.44	212.36
357.82	212.43
358.20	213.55
358.58	213.45
358.97	213.67
359.35	214.12
359.73	214.86
360.11	214.98
360.49	215.21
360.87	215.50
361.25	215.88
361.63	216.83
362.01	217.31
362.39	217.05
362.77	217.48
363.15	217.74
363.53	217.93
363.91	218.31
364.29	218.36
364.67	216.55
365.05	216.60
365.43	217.10
365.81	217.19
366.19	217.48
366.57	218.40
366.95	218.31
367.33	217.98
367.71	217.71
368.09	218.38
368.47	218.50
368.85	218.36
369.23	218.71
369.61	217.76
369.99	218.36
370.37	219.10
370.75	220.33
371.13	219.81
371.51	219.52
371.89	219.81
372.27	219.98
372.65	220.14
373.03	220.21
373.41	219.74
373.78	219.93
374.16	218.83
374.54	218.21
374.92	217.95
375.30	217.93
375.68	217.74
376.06	217.74
376.44	217.52
376.82	217.81
377.19	217.69
377.57	217.79
377.95	217.00
378.33	216.48
378.71	215.12
379.09	215.43
379.47	215.79
379.84	215.38
380.22	215.21
380.60	214.74
380.98	214.67
381.36	214.81
381.73	214.26
382.11	214.69
382.49	214.52
382.87	214.33
383.25	214.33
383.62	216.40
384.00	215.88
384.38	216.00
384.76	216.33
385.13	216.86
385.51	216.74
385.89	216.52
386.27	216.62
386.64	216.98
387.02	216.50
387.40	216.31
387.78	216.50
388.15	216.62
388.53	216.64
388.91	216.52
389.29	216.17
389.66	216.38
390.04	215.98
390.42	216.40
390.79	216.76
391.17	216.55
391.55	214.38
391.92	214.21
392.30	214.33
392.68	213.86
393.05	213.81
393.43	213.93
393.81	213.88
394.18	213.50
394.56	213.40
394.94	214.19
395.31	213.74
395.69	214.38
396.06	214.29
396.44	214.43
396.82	214.26
397.19	215.45
397.57	215.33
397.95	215.71
398.32	215.31
398.70	215.33
399.07	215.90
399.45	215.71
399.82	215.90
400.20	215.62
400.58	215.52
400.95	214.86
401.33	215.45
401.70	217.21
402.08	217.55
402.45	217.38
402.83	217.67
403.20	218.24
403.58	217.83
403.95	218.50
404.33	218.95
404.71	219.38
405.08	220.62
405.46	220.83
405.83	221.17
406.21	221.50
406.58	222.02
406.96	222.43
407.33	223.55
407.70	224.36
408.08	226.79
408.45	227.98
408.83	229.12
409.20	229.55
409.58	228.98
409.95	230.29
410.33	231.71
410.70	232.45
411.08	233.81
411.45	235.29
411.82	236.02
412.20	237.98
412.57	240.52
412.95	240.17
413.32	242.33
413.69	243.90
414.07	245.83
414.44	248.02
414.82	250.36
415.19	253.14
415.56	255.81
415.94	257.33
416.31	260.67
416.68	263.76
417.06	267.38
417.43	271.57
417.81	275.48
418.18	279.48
418.55	283.86
418.93	288.45
419.30	292.98
419.67	298.48
420.04	303.45
420.42	308.50
420.79	317.02
421.16	323.62
421.54	331.71
421.91	338.64
422.28	345.76
422.66	353.57
423.03	362.17
423.40	370.26
423.77	379.07
424.15	387.50
424.52	396.74
424.89	406.98
425.26	416.10
425.64	424.95
426.01	434.69
426.38	445.29
426.75	456.17
427.13	467.43
427.50	478.74
427.87	490.86
428.24	502.74
428.61	512.52
428.99	525.67
429.36	538.24
429.73	551.98
430.10	565.36
430.47	579.00
430.85	592.17
431.22	606.71
431.59	623.90
431.96	638.74
432.33	655.86
432.70	672.02
433.08	691.52
433.45	710.12
433.82	728.55
434.19	748.57
434.56	769.24
434.93	787.67
435.30	806.36
435.68	827.90
436.05	848.38
436.42	869.14
436.79	888.52
437.16	909.43
437.53	931.43
437.90	952.60
438.27	974.17
438.64	996.24
439.01	1017.45
439.38	1033.81
439.75	1051.90
440.13	1071.90
440.50	1091.05
440.87	1106.79
441.24	1122.69
441.61	1141.05
441.98	1154.38
442.35	1168.93
442.72	1185.17
443.09	1201.21
443.46	1210.17
443.83	1217.17
444.20	1222.93
444.57	1229.62
444.94	1233.76
445.31	1237.52
445.68	1244.21
446.05	1246.26
446.42	1244.43
446.79	1243.00
447.16	1240.93
447.53	1239.95
447.90	1232.48
448.27	1224.57
448.64	1213.90
449.01	1207.02
449.37	1193.40
449.74	1179.64
450.11	1165.76
450.48	1148.29
450.85	1129.81
451.22	1114.45
451.59	1100.64
451.96	1087.79
452.33	1069.93
452.70	1053.31
453.07	1033.43
453.43	1011.19
453.80	990.86
454.17	972.50
454.54	953.55
454.91	934.24
455.28	915.48
455.65	897.86
456.02	883.62
456.38	868.67
456.75	849.81
457.12	833.86
457.49	819.29
457.86	802.86
458.23	790.81
458.59	777.50
458.96	763.86
459.33	750.67
459.70	737.45
460.07	727.40
460.43	715.24
460.80	705.12
461.17	696.02
461.54	686.86
461.91	677.10
462.27	667.62
462.64	659.83
463.01	650.57
463.38	642.00
463.74	629.90
464.11	622.02
464.48	615.36
464.85	607.93
465.21	602.57
465.58	596.43
465.95	588.81
466.32	582.29
466.68	575.57
467.05	569.98
467.42	563.71
467.78	557.36
468.15	551.64
468.52	546.98
468.88	540.38
469.25	534.86
469.62	530.83
469.98	526.02
470.35	521.93
470.72	517.90
471.08	513.12
471.45	509.86
471.82	506.67
472.18	502.19
472.55	499.64
472.92	495.60
473.28	492.07
473.65	488.40
474.02	485.62
474.38	483.14
474.75	480.71
475.11	478.55
475.48	476.67
475.85	474.93
476.21	472.33
476.58	471.17
476.94	469.83
477.31	468.05
477.67	467.31
478.04	466.19
478.41	465.07
478.77	466.21
479.14	465.31
479.50	464.50
479.87	464.57
480.23	464.00
480.60	463.57
480.96	463.74
481.33	465.21
481.69	465.45
482.06	466.05
482.42	466.40
482.79	466.74
483.15	467.33
483.52	468.74
483.88	469.67
484.25	470.14
484.61	471.43
484.98	472.90
485.34	474.98
485.71	476.60
486.07	478.98
486.44	479.29
486.80	481.45
487.17	483.60
487.53	486.79
487.90	489.86
488.26	493.83
488.62	497.02
488.99	499.55
489.35	503.26
489.72	506.45
490.08	509.95
490.44	514.05
490.81	518.43
491.17	522.10
491.54	526.74
491.90	532.00
492.26	536.64
492.63	541.74
492.99	546.33
493.36	551.95
493.72	557.62
494.08	563.26
494.45	569.48
494.81	575.74
495.17	581.21
495.54	587.55
495.90	593.45
496.26	600.43
496.63	607.40
496.99	614.29
497.35	622.07
497.72	629.98
498.08	637.10
498.44	644.57
498.80	652.88
499.17	660.79
499.53	668.98
499.89	678.33
500.26	687.26
500.62	696.10
500.98	705.31
501.34	713.90
501.71	723.76
502.07	733.45
502.43	742.98
502.79	751.98
503.16	761.50
503.52	771.50
503.88	780.31
504.24	790.67
504.60	800.95
504.97	811.43
505.33	820.90
505.69	832.07
506.05	842.64
506.41	853.07
506.78	863.81
507.14	873.81
507.50	883.26
507.86	893.12
508.22	903.57
508.59	913.05
508.95	923.86
509.31	935.00
509.67	944.60
510.03	954.60
510.39	965.81
510.75	976.07
511.12	985.50
511.48	995.62
511.84	1004.83
512.20	1014.36
512.56	1024.31
512.92	1035.02
513.28	1044.95
513.64	1054.21
514.00	1063.36
514.37	1072.67
514.73	1082.14
515.09	1091.86
515.45	1100.67
515.81	1109.81
516.17	1119.38
516.53	1127.33
516.89	1134.88
517.25	1143.29
517.61	1152.79
517.97	1160.52
518.33	1169.12
518.69	1178.33
519.05	1186.95
519.41	1195.45
519.77	1204.14
520.13	1211.40
520.49	1218.26
520.85	1224.64
521.21	1232.40
521.57	1240.14
521.93	1246.48
522.29	1253.71
522.65	1259.38
523.01	1266.81
523.37	1272.29
523.73	1278.60
524.09	1284.81
524.45	1290.07
524.81	1295.40
525.17	1299.74
525.53	1305.64
525.89	1310.38
526.25	1315.38
526.61	1320.64
526.97	1324.48
527.33	1329.02
527.68	1335.12
528.04	1339.60
528.40	1343.83
528.76	1348.21
529.12	1351.57
529.48	1357.24
529.84	1360.74
530.20	1365.21
530.56	1368.76
530.91	1373.10
531.27	1376.38
531.63	1380.90
531.99	1384.14
532.35	1387.86
532.71	1391.62
533.07	1395.33
533.42	1401.02
533.78	1403.71
534.14	1406.52
534.50	1410.10
534.86	1413.69
535.21	1414.93
535.57	1418.50
535.93	1421.31
536.29	1424.36
536.65	1427.50
537.00	1429.69
537.36	1432.26
537.72	1435.19
538.08	1437.50
538.44	1438.81
538.79	1440.71
539.15	1441.95
539.51	1445.02
539.87	1447.52
540.22	1449.29
540.58	1450.38
540.94	1450.60
541.29	1452.21
541.65	1452.57
542.01	1454.12
542.37	1454.48
542.72	1454.43
543.08	1453.05
543.44	1453.48
543.79	1453.14
544.15	1453.07
544.51	1453.10
544.87	1452.86
545.22	1452.90
545.58	1452.12
545.94	1452.60
546.29	1452.86
546.65	1452.10
547.01	1450.57
547.36	1450.19
547.72	1448.95
548.07	1447.95
548.43	1445.10
548.79	1443.60
549.14	1443.05
549.50	1441.60
549.86	1439.60
550.21	1439.52
550.57	1439.90
550.92	1438.45
551.28	1436.98
551.64	1435.17
551.99	1433.21
552.35	1431.33
552.70	1429.05
553.06	1428.76
553.41	1427.26
553.77	1427.19
554.13	1426.76
554.48	1426.93
554.84	1425.76
555.19	1424.60
555.55	1425.24
555.90	1424.76
556.26	1423.95
556.61	1422.40
556.97	1420.24
557.32	1418.74
557.68	1416.12
558.03	1413.76
558.39	1412.38
558.74	1410.86
559.10	1408.95
559.45	1407.57
559.81	1406.69
560.16	1404.55
560.52	1402.67
560.87	1401.12
561.23	1397.98
561.58	1397.83
561.94	1395.10
562.29	1392.90
562.64	1392.19
563.00	1388.64
563.35	1386.62
563.71	1384.48
564.06	1382.86
564.42	1381.74
564.77	1380.60
565.12	1379.76
565.48	1380.52
565.83	1379.60
566.19	1378.50
566.54	1377.19
566.89	1376.00
567.25	1375.57
567.60	1376.05
567.96	1376.60
568.31	1376.10
568.66	1375.02
569.02	1370.79
569.37	1368.62
569.72	1366.67
570.08	1363.93
570.43	1362.24
570.78	1360.71
571.14	1358.50
571.49	1356.69
571.84	1354.69
572.20	1352.07
572.55	1350.05
572.90	1346.12
573.26	1343.76
573.61	1340.48
573.96	1338.55
574.31	1335.07
574.67	1331.79
575.02	1327.81
575.37	1322.60
575.72	1319.00
576.08	1315.00
576.43	1312.19
576.78	1308.60
577.13	1304.71
577.49	1300.79
577.84	1297.26
578.19	1293.36
578.54	1290.10
578.90	1286.76
579.25	1283.02
579.60	1279.29
579.95	1274.95
580.30	1271.14
580.66	1266.98
581.01	1263.88
581.36	1259.69
581.71	1256.74
582.06	1253.12
582.42	1249.40
582.77	1245.36
583.12	1240.95
583.47	1237.17
583.82	1233.00
584.17	1229.74
584.53	1226.76
584.88	1223.43
585.23	1220.02
585.58	1216.62
585.93	1212.26
586.28	1208.55
586.63	1205.05
586.98	1201.36
587.34	1198.29
587.69	1193.88
588.04	1189.71
588.39	1184.50
588.74	1179.95
589.09	1174.93
589.44	1169.19
589.79	1165.07
590.14	1160.36
590.49	1155.26
590.84	1149.98
591.19	1145.76
591.54	1141.55
591.89	1136.12
592.25	1132.83
592.60	1127.12
592.95	1122.33
593.30	1118.07
593.65	1112.93
594.00	1107.38
594.35	1108.57
594.70	1103.02
595.05	1098.74
595.40	1094.00
595.75	1090.38
596.10	1086.31
596.45	1082.64
596.80	1079.26
597.15	1074.12
597.50	1069.57
597.85	1066.83
598.19	1063.02
598.54	1058.69
598.89	1053.64
599.24	1049.69
599.59	1044.38
599.94	1041.17
600.29	1036.55
600.64	1032.60
600.99	1028.76
601.34	1025.60
601.69	1015.36
602.04	1011.57
602.39	1006.64
602.74	1003.02
603.08	998.57
603.43	994.52
603.78	989.81
604.13	985.07
604.48	980.57
604.83	976.29
605.18	971.95
605.53	968.48
605.87	963.90
606.22	960.07
606.57	955.83
606.92	950.83
607.27	945.93
607.62	941.62
607.96	937.31
608.31	932.62
608.66	928.17
609.01	924.26
609.36	919.90
609.70	916.29
610.05	911.76
610.40	908.17
610.75	903.62
611.10	899.29
611.44	894.79
611.79	890.88
612.14	886.60
612.49	880.62
612.83	875.45
613.18	870.76
613.53	866.21
613.88	861.52
614.22	857.05
614.57	852.50
614.92	847.69
615.27	842.60
615.61	837.74
615.96	832.95
616.31	828.14
616.65	824.60
617.00	819.88
617.35	814.48
617.70	809.31
618.04	804.93
618.39	800.02
618.74	796.48
619.08	791.81
619.43	787.69
619.78	783.88
620.12	780.26
620.47	776.71
620.82	772.55
621.16	768.90
621.51	766.29
621.85	762.57
622.20	759.12
622.55	755.26
622.89	751.83
623.24	748.02
623.59	743.74
623.93	739.33
624.28	735.62
624.62	734.62
624.97	732.76
625.32	729.02
625.66	726.43
626.01	722.17
626.35	718.90
626.70	715.33
627.04	712.55
627.39	708.95
627.73	706.21
628.08	703.12
628.43	699.00
628.77	694.52
629.12	690.83
629.46	687.76
629.81	684.55
630.15	680.76
630.50	677.19
630.84	674.38
631.19	670.36
631.53	667.21
631.88	661.33
632.22	655.71
632.57	652.67
632.91	648.71
633.26	645.36
633.60	641.81
633.95	638.00
634.29	634.02
634.64	630.33
634.98	625.98
635.32	623.17
635.67	620.24
636.01	617.14
636.36	613.74
636.70	610.40
637.05	607.55
637.39	604.74
637.73	601.81
638.08	599.10
638.42	596.29
638.77	593.43
639.11	590.81
639.45	588.05
639.80	584.86
640.14	581.60
640.49	578.48
640.83	575.29
641.17	573.29
641.52	570.52
641.86	567.69
642.20	565.60
642.55	561.81
642.89	558.62
643.23	555.71
643.58	553.48
643.92	550.12
644.26	546.93
644.61	544.21
644.95	541.40
645.29	537.62
645.64	535.48
645.98	532.05
646.32	529.50
646.66	526.43
647.01	523.52
647.35	520.98
647.69	518.71
648.04	516.52
648.38	513.55
648.72	510.71
649.06	507.74
649.41	504.17
649.75	501.14
650.09	498.93
650.43	496.07
650.78	492.79
651.12	489.88
651.46	487.38
651.80	484.74
652.14	481.98
652.49	479.83
652.83	476.60
653.17	474.29
653.51	471.62
653.85	469.43
654.20	467.31
654.54	464.64
654.88	461.95
655.22	460.12
655.56	457.67
655.90	455.24
656.25	453.33
656.59	451.64
656.93	449.98
657.27	448.36
657.61	446.02
657.95	444.43
658.29	442.81
658.64	440.74
658.98	437.88
659.32	435.50
659.66	433.48
660.00	431.64
660.34	429.79
660.68	427.76
661.02	425.95
661.36	423.50
661.70	421.71
662.05	419.69
662.39	417.81
662.73	416.45
663.07	415.48
663.41	413.76
663.75	411.31
664.09	409.71
664.43	407.00
664.77	405.40
665.11	403.21
665.45	401.45
665.79	400.26
666.13	399.12
666.47	397.50
666.81	395.79
667.15	393.74
667.49	392.07
667.83	391.33
668.17	389.57
668.51	388.00
668.85	386.81
669.19	386.26
669.53	384.14
669.87	382.14
670.21	380.00
670.55	378.43
670.89	378.36
671.23	376.45
671.57	375.31
671.91	374.07
672.25	372.93
672.58	372.36
672.92	370.10
673.26	368.45
673.60	367.24
673.94	365.90
674.28	364.88
674.62	363.76
674.96	361.55
675.30	360.45
675.64	359.55
675.97	357.95
676.31	355.71
676.65	354.48
676.99	353.90
677.33	352.31
677.67	350.67
678.01	348.33
678.34	347.29
678.68	346.40
679.02	345.05
679.36	343.31
679.70	341.07
680.04	340.10
680.37	338.76
680.71	337.71
681.05	336.62
681.39	335.43
681.73	334.12
682.06	333.02
682.40	331.62
682.74	330.81
683.08	330.36
683.42	328.95
683.75	327.93
684.09	326.19
684.43	325.14
684.77	323.86
685.10	322.74
685.44	321.60
685.78	320.31
686.12	319.12
686.45	318.14
686.79	317.29
687.13	316.52
687.46	315.48
687.80	314.69
688.14	313.79
688.48	312.62
688.81	311.62
689.15	311.17
689.49	309.98
689.82	308.76
690.16	307.12
690.50	306.19
690.83	304.93
691.17	303.60
691.51	302.69
691.84	302.50
692.18	301.69
692.52	300.74
692.85	299.90
693.19	299.69
693.52	299.10
693.86	298.12
694.20	296.93
694.53	296.48
694.87	295.31
695.21	294.10
695.54	293.43
695.88	291.93
696.21	290.43
696.55	290.14
696.88	289.48
697.22	288.48
697.56	288.57
697.89	287.86
698.23	287.88
698.56	287.21
698.90	286.52
699.23	285.64
699.57	285.38
699.90	284.43
700.24	283.19
700.58	282.40
700.91	281.76
701.25	282.62
701.58	282.55
701.92	282.38
702.25	282.00
702.59	281.21
702.92	281.17
703.26	280.79
703.59	279.98
703.93	280.90
704.26	280.40
704.60	279.62
704.93	279.14
705.26	278.10
705.60	277.90
705.93	276.62
706.27	276.60
706.60	276.24
706.94	276.52
707.27	276.05
707.61	275.43
707.94	275.12
708.27	273.21
708.61	271.88
708.94	271.05
709.28	270.45
709.61	269.69
709.94	269.14
710.28	268.62
710.61	267.88
710.95	265.43
711.28	266.43
711.61	265.38
711.95	265.17
712.28	264.45
712.61	263.60
712.95	264.40
713.28	264.55
713.61	263.52
713.95	262.45
714.28	261.74
714.61	261.14
714.95	260.43
715.28	259.43
715.61	258.95
715.95	258.67
716.28	258.05
716.61	258.05
716.95	257.57
717.28	257.02
717.61	256.69
717.94	256.19
718.28	254.10
718.61	253.81
718.94	252.76
719.27	252.36
719.61	252.24
719.94	251.21
720.27	249.93
720.60	249.45
720.94	249.14
721.27	248.95
721.60	249.12
721.93	248.74
722.27	249.62
722.60	249.64
722.93	248.55
723.26	248.45
723.59	247.64
723.93	247.29
724.26	247.17
724.59	246.93
724.92	246.86
725.25	247.31
725.59	247.07
725.92	247.33
726.25	247.00
726.58	246.60
726.91	246.12
727.24	246.02
727.57	245.74
727.91	244.93
728.24	244.60
728.57	243.76
728.90	243.81
729.23	242.52
729.56	243.07
729.89	243.24
730.22	242.64
730.55	242.40
730.89	242.40
731.22	241.86
731.55	241.33
731.88	240.98
732.21	240.17
732.54	239.69
732.87	239.26
733.20	239.17
733.53	238.93
733.86	238.79
734.19	238.10
734.52	238.14
734.85	239.62
735.18	239.33
735.51	240.10
735.84	239.83
736.17	240.19
736.50	238.71
736.83	240.98
737.16	240.93
737.49	241.05
737.82	240.36
738.15	240.60
738.48	240.36
738.81	240.10
739.14	239.76
739.47	239.48
739.80	239.05
740.13	239.02
740.46	238.62
740.79	237.93
741.12	237.67
741.45	237.07
741.78	235.45
742.11	235.95
742.44	234.98
742.77	235.00
743.10	234.45
743.43	234.33
743.75	231.67
744.08	233.98
744.41	233.52
744.74	233.33
745.07	232.67
745.40	232.98
745.73	233.98
746.06	233.83
746.39	234.00
746.71	233.81
747.04	233.31
747.37	233.12
747.70	233.60
748.03	233.81
748.36	233.69
748.68	233.48
749.01	232.52
749.34	232.19
749.67	232.07
750.00	232.31
750.33	233.62
750.65	234.00
750.98	231.33
751.31	231.07
751.64	231.05
751.97	232.14
752.29	231.79
752.62	230.50
752.95	230.36
753.28	229.79
753.60	229.74
753.93	230.33
754.26	230.19
754.59	229.55
754.91	228.93
755.24	228.79
755.57	228.69
755.90	228.40
756.22	228.31
756.55	227.86
756.88	227.43
757.20	225.98
757.53	224.98
757.86	224.95
758.19	225.14
758.51	224.83
758.84	223.83
759.17	223.60
759.49	223.40
759.82	224.21
760.15	224.38
760.47	223.95
760.80	223.07
761.13	223.40
761.45	223.19
761.78	223.40
762.11	223.45
762.43	223.19
762.76	223.29
763.08	223.40
763.41	223.52
763.74	223.55
764.06	223.55
764.39	223.86
764.71	223.52
765.04	223.17
765.37	223.19
765.69	222.79
766.02	222.71
766.34	222.60
766.67	221.81
767.00	222.00
767.32	223.14
767.65	224.33
767.97	223.76
768.30	223.71
768.62	223.67
768.95	223.29
769.27	223.10
769.60	223.33
769.92	222.76
770.25	222.19
770.57	221.79
770.90	221.67
771.22	221.24
771.55	221.43
771.87	221.50
772.20	221.62
772.52	223.19
772.85	225.40
773.17	225.55
773.50	225.43
773.82	225.36
774.15	224.29
774.47	222.83
774.80	222.86
775.12	222.88
775.45	222.29
775.77	222.36
776.09	222.57
776.42	222.52
776.74	223.38
777.07	223.10
777.39	223.07
777.72	222.76
778.04	222.86
778.36	222.45
778.69	222.33
779.01	222.10
779.33	220.36
779.66	218.02
779.98	217.88
780.31	217.74
780.63	218.29
780.95	218.76
781.28	218.67
781.60	218.48
781.92	218.29
782.25	218.38
782.57	218.45
782.89	218.12
783.22	217.79
783.54	217.21
783.86	217.57
784.19	217.14
784.51	217.93
784.83	217.57
785.16	217.74
785.48	217.86
785.80	217.90
786.12	218.14
786.45	218.14
786.77	218.10
787.09	217.90
787.42	217.38
787.74	217.21
788.06	217.43
