SpectraSuite Data File
++++++++++++++++++++++++++++++++++++
Date: Tue Apr 02 18:44:50 EDT 2013
User: group
Dark Spectrum Present: No
Reference Spectrum Present: No
Number of Sampled Component Spectra: 1
Spectrometers: USB2E7196
Integration Time (usec): 580000 (USB2E7196)
Spectra Averaged: 2 (USB2E7196)
Boxcar Smoothing: 10 (USB2E7196)
Correct for Electrical Dark: No (USB2E7196)
Strobe/Lamp Enabled: No (USB2E7196)
Correct for Detector Non-linearity: No (USB2E7196)
Correct for Stray Light: No (USB2E7196)
Number of Pixels in Processed Spectrum: 2048
>>>>>Begin Processed Spectral Data<<<<<
339.09	0.00
339.48	191.50
339.86	193.50
340.24	197.50
340.63	196.50
341.01	228.00
341.39	203.50
341.78	206.50
342.16	212.00
342.54	205.50
342.93	197.83
343.31	207.62
343.69	208.38
344.07	209.07
344.46	209.90
344.84	210.74
345.22	209.81
345.60	210.19
345.99	210.62
346.37	210.67
346.75	210.95
347.13	211.05
347.52	211.17
347.90	212.02
348.28	212.21
348.66	212.79
349.05	212.29
349.43	212.76
349.81	213.02
350.19	213.00
350.57	213.19
350.96	213.33
351.34	213.62
351.72	213.67
352.10	213.95
352.48	213.71
352.87	213.60
353.25	213.71
353.63	213.64
354.01	213.50
354.39	213.50
354.77	213.52
355.15	213.95
355.54	213.83
355.92	213.05
356.30	213.33
356.68	214.45
357.06	214.38
357.44	214.05
357.82	213.95
358.20	214.98
358.58	214.76
358.97	214.69
359.35	215.07
359.73	215.64
360.11	215.38
360.49	215.64
360.87	215.43
361.25	215.74
361.63	216.19
362.01	216.26
362.39	216.21
362.77	216.24
363.15	216.43
363.53	216.36
363.91	216.45
364.29	216.36
364.67	214.40
365.05	214.57
365.43	214.69
365.81	214.83
366.19	214.86
366.57	215.90
366.95	216.02
367.33	215.62
367.71	215.55
368.09	215.90
368.47	215.67
368.85	215.83
369.23	216.07
369.61	215.48
369.99	216.12
370.37	216.36
370.75	217.52
371.13	217.05
371.51	216.86
371.89	217.14
372.27	217.05
372.65	217.43
373.03	217.31
373.41	217.29
373.78	217.07
374.16	216.05
374.54	215.26
374.92	214.86
375.30	214.74
375.68	214.26
376.06	214.60
376.44	214.36
376.82	214.29
377.19	214.21
377.57	214.21
377.95	213.36
378.33	213.07
378.71	211.62
379.09	211.74
379.47	212.24
379.84	211.98
380.22	211.90
380.60	211.43
380.98	211.40
381.36	211.02
381.73	210.81
382.11	211.26
382.49	211.57
382.87	211.60
383.25	211.83
383.62	214.14
384.00	213.48
384.38	213.74
384.76	214.14
385.13	214.90
385.51	214.98
385.89	214.74
386.27	214.76
386.64	215.24
387.02	215.00
387.40	214.62
387.78	214.86
388.15	214.79
388.53	214.67
388.91	214.71
389.29	214.83
389.66	215.36
390.04	215.17
390.42	215.17
390.79	215.12
391.17	215.05
391.55	212.83
391.92	213.00
392.30	213.43
392.68	213.02
393.05	212.90
393.43	213.05
393.81	213.24
394.18	213.21
394.56	213.24
394.94	214.00
395.31	213.95
395.69	214.64
396.06	214.90
396.44	215.24
396.82	215.12
397.19	216.24
397.57	215.90
397.95	216.26
398.32	215.83
398.70	216.17
399.07	216.71
399.45	216.71
399.82	216.79
400.20	216.36
400.58	216.45
400.95	215.48
401.33	215.83
401.70	217.38
402.08	217.48
402.45	217.24
402.83	217.43
403.20	217.69
403.58	217.48
403.95	217.88
404.33	218.14
404.71	218.71
405.08	219.90
405.46	220.29
405.83	220.62
406.21	220.98
406.58	221.45
406.96	221.71
407.33	222.29
407.70	222.74
408.08	225.12
408.45	226.07
408.83	227.17
409.20	227.62
409.58	227.21
409.95	228.24
410.33	229.40
410.70	229.76
411.08	230.93
411.45	231.86
411.82	232.90
412.20	234.55
412.57	236.55
412.95	235.88
413.32	237.67
413.69	238.90
414.07	240.57
414.44	242.67
414.82	244.38
415.19	246.95
415.56	249.55
415.94	250.50
416.31	253.26
416.68	255.79
417.06	258.74
417.43	262.19
417.81	265.57
418.18	268.93
418.55	272.50
418.93	276.48
419.30	280.31
419.67	284.74
420.04	289.19
420.42	293.62
420.79	301.02
421.16	306.33
421.54	313.26
421.91	319.45
422.28	325.33
422.66	331.93
423.03	339.76
423.40	346.36
423.77	353.24
424.15	360.10
424.52	368.07
424.89	376.98
425.26	384.52
425.64	391.88
426.01	400.40
426.38	409.52
426.75	418.95
427.13	428.55
427.50	438.05
427.87	447.60
428.24	457.48
428.61	465.90
428.99	476.95
429.36	487.24
429.73	498.48
430.10	509.74
430.47	521.10
430.85	531.57
431.22	544.07
431.59	559.05
431.96	571.86
432.33	585.93
432.70	599.43
433.08	615.95
433.45	631.50
433.82	646.67
434.19	663.69
434.56	680.19
434.93	695.43
435.30	711.26
435.68	729.10
436.05	745.93
436.42	762.67
436.79	778.98
437.16	795.79
437.53	814.19
437.90	831.93
438.27	849.57
438.64	867.31
439.01	883.74
439.38	897.40
439.75	912.24
440.13	928.33
440.50	943.86
440.87	956.10
441.24	969.14
441.61	983.76
441.98	993.86
442.35	1006.12
442.72	1019.38
443.09	1032.93
443.46	1040.48
443.83	1046.64
444.20	1051.43
444.57	1057.00
444.94	1060.29
445.31	1063.45
445.68	1068.69
446.05	1070.38
446.42	1069.29
446.79	1068.81
447.16	1066.93
447.53	1065.76
447.90	1059.60
448.27	1053.38
448.64	1044.83
449.01	1038.90
449.37	1027.67
449.74	1016.67
450.11	1005.90
450.48	991.00
450.85	975.19
451.22	962.60
451.59	950.60
451.96	939.38
452.33	924.00
452.70	910.36
453.07	893.14
453.43	874.17
453.80	857.86
454.17	842.50
454.54	827.07
454.91	810.88
455.28	795.05
455.65	780.43
456.02	768.81
456.38	756.12
456.75	740.38
457.12	727.36
457.49	715.31
457.86	700.71
458.23	690.93
458.59	678.98
458.96	667.50
459.33	656.31
459.70	645.88
460.07	637.36
460.43	627.74
460.80	619.02
461.17	611.74
461.54	604.05
461.91	595.90
462.27	587.40
462.64	580.79
463.01	573.43
463.38	567.17
463.74	556.57
464.11	550.29
464.48	545.07
464.85	538.95
465.21	534.02
465.58	528.74
465.95	522.07
466.32	517.50
466.68	512.00
467.05	507.12
467.42	501.64
467.78	496.90
468.15	491.79
468.52	488.21
468.88	482.64
469.25	477.19
469.62	473.76
469.98	470.36
470.35	466.57
470.72	462.93
471.08	458.07
471.45	455.26
471.82	452.52
472.18	448.74
472.55	445.81
472.92	442.69
473.28	439.88
473.65	437.36
474.02	434.33
474.38	432.29
474.75	430.48
475.11	428.17
475.48	426.14
475.85	424.57
476.21	422.31
476.58	421.33
476.94	420.55
477.31	418.83
477.67	417.55
478.04	416.62
478.41	416.12
478.77	417.55
479.14	416.43
479.50	415.48
479.87	415.24
480.23	415.07
480.60	414.48
480.96	414.29
481.33	415.31
481.69	415.40
482.06	415.48
482.42	415.62
482.79	416.21
483.15	416.62
483.52	417.38
483.88	418.21
484.25	418.50
484.61	419.12
484.98	419.93
485.34	421.62
485.71	423.07
486.07	423.86
486.44	423.19
486.80	424.76
487.17	426.21
487.53	428.62
487.90	431.19
488.26	434.45
488.62	437.14
488.99	438.40
489.35	441.36
489.72	443.74
490.08	446.26
490.44	449.14
490.81	452.29
491.17	455.71
491.54	459.21
491.90	463.26
492.26	466.98
492.63	470.71
492.99	473.83
493.36	477.93
493.72	482.69
494.08	487.19
494.45	492.02
494.81	497.74
495.17	502.07
495.54	506.98
495.90	510.90
496.26	515.93
496.63	521.86
496.99	526.64
497.35	532.67
497.72	538.62
498.08	544.05
498.44	550.21
498.80	556.55
499.17	562.71
499.53	568.31
499.89	575.21
500.26	582.19
500.62	589.00
500.98	596.12
501.34	603.10
501.71	610.17
502.07	617.40
502.43	623.74
502.79	630.69
503.16	637.33
503.52	644.88
503.88	651.93
504.24	659.14
504.60	667.00
504.97	674.64
505.33	682.19
505.69	691.05
506.05	698.40
506.41	705.50
506.78	713.14
507.14	721.02
507.50	728.55
507.86	736.21
508.22	744.36
508.59	751.52
508.95	759.48
509.31	768.86
509.67	776.60
510.03	784.69
510.39	792.55
510.75	800.90
511.12	808.98
511.48	816.50
511.84	824.26
512.20	832.48
512.56	840.12
512.92	847.62
513.28	854.93
513.64	862.90
514.00	869.98
514.37	877.26
514.73	884.57
515.09	892.14
515.45	899.12
515.81	905.81
516.17	913.21
516.53	919.31
516.89	924.31
517.25	930.71
517.61	937.71
517.97	943.93
518.33	950.00
518.69	956.36
519.05	962.98
519.41	969.12
519.77	975.71
520.13	981.19
520.49	986.64
520.85	991.88
521.21	998.86
521.57	1005.00
521.93	1009.90
522.29	1015.14
522.65	1019.57
523.01	1024.90
523.37	1029.60
523.73	1034.05
524.09	1039.36
524.45	1044.02
524.81	1048.07
525.17	1052.79
525.53	1057.26
525.89	1062.07
526.25	1066.71
526.61	1070.90
526.97	1074.52
527.33	1077.81
527.68	1084.76
528.04	1089.88
528.40	1093.60
528.76	1096.33
529.12	1099.98
529.48	1105.67
529.84	1109.64
530.20	1115.10
530.56	1119.17
530.91	1123.95
531.27	1128.57
531.63	1133.48
531.99	1137.93
532.35	1142.55
532.71	1145.62
533.07	1150.10
533.42	1156.10
533.78	1159.86
534.14	1164.17
534.50	1168.71
534.86	1174.57
535.21	1175.90
535.57	1179.60
535.93	1183.76
536.29	1188.43
536.65	1193.36
537.00	1196.33
537.36	1200.12
537.72	1202.98
538.08	1207.33
538.44	1210.43
538.79	1214.31
539.15	1216.40
539.51	1220.48
539.87	1223.95
540.22	1227.64
540.58	1230.81
540.94	1232.00
541.29	1235.12
541.65	1237.19
542.01	1239.64
542.37	1240.57
542.72	1242.48
543.08	1245.10
543.44	1248.10
543.79	1249.60
544.15	1252.14
544.51	1255.26
544.87	1258.33
545.22	1261.45
545.58	1263.24
545.94	1265.93
546.29	1268.40
546.65	1270.79
547.01	1272.62
547.36	1275.21
547.72	1277.86
548.07	1280.33
548.43	1282.12
548.79	1284.00
549.14	1286.81
549.50	1290.19
549.86	1292.86
550.21	1295.90
550.57	1298.95
550.92	1301.71
551.28	1305.52
551.64	1308.50
551.99	1310.83
552.35	1313.57
552.70	1315.69
553.06	1318.81
553.41	1321.98
553.77	1325.29
554.13	1329.74
554.48	1334.45
554.84	1339.33
555.19	1342.93
555.55	1348.50
555.90	1352.62
556.26	1357.36
556.61	1360.74
556.97	1363.79
557.32	1367.29
557.68	1372.40
558.03	1375.26
558.39	1379.33
558.74	1382.60
559.10	1386.52
559.45	1390.60
559.81	1395.31
560.16	1399.31
560.52	1403.93
560.87	1408.93
561.23	1412.79
561.58	1418.26
561.94	1421.83
562.29	1424.98
562.64	1430.57
563.00	1434.38
563.35	1439.38
563.71	1444.50
564.06	1450.83
564.42	1456.17
564.77	1462.48
565.12	1467.52
565.48	1475.38
565.83	1481.40
566.19	1487.64
566.54	1492.45
566.89	1497.79
567.25	1503.02
567.60	1510.31
567.96	1518.74
568.31	1525.71
568.66	1532.29
569.02	1536.62
569.37	1542.64
569.72	1548.71
570.08	1552.71
570.43	1557.79
570.78	1563.93
571.14	1569.40
571.49	1574.31
571.84	1578.86
572.20	1583.40
572.55	1587.76
572.90	1591.55
573.26	1595.14
573.61	1599.02
573.96	1603.98
574.31	1609.10
574.67	1613.74
575.02	1617.62
575.37	1619.21
575.72	1622.10
576.08	1625.81
576.43	1629.81
576.78	1632.79
577.13	1636.29
577.49	1641.17
577.84	1645.17
578.19	1648.24
578.54	1652.10
578.90	1655.21
579.25	1659.55
579.60	1662.43
579.95	1666.17
580.30	1669.62
580.66	1674.64
581.01	1679.21
581.36	1682.12
581.71	1684.76
582.06	1688.74
582.42	1692.02
582.77	1695.14
583.12	1698.02
583.47	1701.83
583.82	1705.48
584.17	1708.79
584.53	1713.12
584.88	1716.02
585.23	1718.90
585.58	1722.29
585.93	1723.64
586.28	1726.88
586.63	1729.62
586.98	1732.29
587.34	1736.38
587.69	1738.71
588.04	1740.67
588.39	1742.05
588.74	1744.24
589.09	1746.60
589.44	1747.64
589.79	1749.48
590.14	1751.26
590.49	1752.60
590.84	1752.62
591.19	1753.98
591.54	1755.17
591.89	1755.38
592.25	1758.45
592.60	1759.76
592.95	1761.52
593.30	1764.31
593.65	1765.38
594.00	1766.76
594.35	1774.88
594.70	1774.52
595.05	1774.93
595.40	1775.90
595.75	1776.55
596.10	1778.19
596.45	1779.57
596.80	1780.76
597.15	1781.45
597.50	1781.21
597.85	1782.88
598.19	1783.29
598.54	1783.93
598.89	1784.48
599.24	1785.88
599.59	1784.12
599.94	1784.26
600.29	1784.38
600.64	1783.74
600.99	1784.74
601.34	1785.36
601.69	1778.74
602.04	1778.60
602.39	1778.81
602.74	1777.62
603.08	1777.02
603.43	1777.48
603.78	1776.86
604.13	1776.69
604.48	1776.14
604.83	1777.38
605.18	1776.64
605.53	1777.79
605.87	1776.71
606.22	1775.50
606.57	1773.36
606.92	1771.74
607.27	1770.07
607.62	1768.71
607.96	1768.19
608.31	1766.14
608.66	1764.40
609.01	1763.48
609.36	1762.45
609.70	1760.50
610.05	1758.81
610.40	1757.88
610.75	1755.00
611.10	1753.38
611.44	1750.21
611.79	1747.76
612.14	1744.79
612.49	1741.12
612.83	1737.33
613.18	1733.88
613.53	1730.81
613.88	1728.36
614.22	1725.48
614.57	1722.26
614.92	1718.52
615.27	1714.62
615.61	1710.69
615.96	1706.64
616.31	1702.45
616.65	1699.40
617.00	1696.60
617.35	1694.29
617.70	1691.26
618.04	1687.60
618.39	1683.33
618.74	1680.26
619.08	1677.14
619.43	1673.93
619.78	1671.50
620.12	1668.64
620.47	1665.95
620.82	1662.52
621.16	1657.95
621.51	1655.74
621.85	1651.98
622.20	1648.21
622.55	1644.19
622.89	1641.55
623.24	1639.14
623.59	1635.95
623.93	1631.69
624.28	1627.40
624.62	1625.10
624.97	1621.98
625.32	1618.64
625.66	1615.48
626.01	1611.48
626.35	1607.52
626.70	1603.02
627.04	1598.69
627.39	1593.95
627.73	1590.57
628.08	1588.10
628.43	1584.74
628.77	1579.74
629.12	1577.07
629.46	1574.00
629.81	1570.26
630.15	1565.74
630.50	1561.26
630.84	1556.79
631.19	1551.88
631.53	1547.36
631.88	1540.55
632.22	1533.90
632.57	1529.55
632.91	1524.36
633.26	1519.76
633.60	1514.19
633.95	1509.21
634.29	1503.93
634.64	1499.67
634.98	1493.60
635.32	1489.50
635.67	1485.52
636.01	1481.19
636.36	1475.38
636.70	1470.48
637.05	1466.05
637.39	1461.52
637.73	1457.00
638.08	1453.55
638.42	1449.31
638.77	1444.95
639.11	1440.50
639.45	1436.26
639.80	1430.52
640.14	1425.33
640.49	1420.45
640.83	1415.43
641.17	1411.29
641.52	1406.74
641.86	1401.31
642.20	1398.48
642.55	1392.17
642.89	1385.93
643.23	1380.62
643.58	1376.48
643.92	1370.76
644.26	1365.07
644.61	1360.17
644.95	1353.95
645.29	1346.95
645.64	1342.07
645.98	1336.62
646.32	1331.36
646.66	1325.62
647.01	1319.81
647.35	1314.88
647.69	1308.36
648.04	1302.93
648.38	1296.81
648.72	1291.90
649.06	1286.52
649.41	1278.71
649.75	1272.45
650.09	1267.05
650.43	1260.48
650.78	1253.60
651.12	1246.98
651.46	1240.40
651.80	1233.67
652.14	1227.88
652.49	1222.69
652.83	1215.31
653.17	1207.90
653.51	1200.98
653.85	1194.88
654.20	1188.50
654.54	1181.43
654.88	1175.69
655.22	1170.55
655.56	1163.67
655.90	1156.40
656.25	1149.60
656.59	1144.07
656.93	1138.00
657.27	1132.62
657.61	1126.45
657.95	1120.40
658.29	1114.31
658.64	1108.90
658.98	1102.50
659.32	1095.24
659.66	1087.74
660.00	1081.74
660.34	1076.21
660.68	1070.40
661.02	1064.26
661.36	1058.19
661.70	1052.52
662.05	1046.55
662.39	1040.29
662.73	1035.17
663.07	1030.40
663.41	1024.60
663.75	1018.45
664.09	1012.64
664.43	1005.52
664.77	1000.26
665.11	993.62
665.45	987.64
665.79	981.02
666.13	975.21
666.47	970.14
666.81	964.38
667.15	958.90
667.49	953.88
667.83	948.60
668.17	942.74
668.51	937.31
668.85	931.74
669.19	926.52
669.53	920.00
669.87	914.07
670.21	907.55
670.55	901.62
670.89	896.55
671.23	891.50
671.57	886.19
671.91	880.31
672.25	875.05
672.58	870.24
672.92	865.00
673.26	859.55
673.60	854.19
673.94	849.31
674.28	843.83
674.62	838.71
674.96	833.21
675.30	828.50
675.64	823.29
675.97	818.12
676.31	812.52
676.65	807.07
676.99	803.21
677.33	798.36
677.67	793.69
678.01	787.88
678.34	782.64
678.68	778.55
679.02	773.05
679.36	767.43
679.70	762.17
680.04	757.26
680.37	752.26
680.71	747.26
681.05	743.14
681.39	738.79
681.73	733.86
682.06	729.19
682.40	724.29
682.74	719.86
683.08	715.83
683.42	710.74
683.75	706.69
684.09	700.64
684.43	695.52
684.77	690.90
685.10	686.29
685.44	681.57
685.78	676.12
686.12	672.02
686.45	668.31
686.79	663.55
687.13	659.00
687.46	654.43
687.80	650.50
688.14	645.83
688.48	641.62
688.81	637.10
689.15	632.60
689.49	627.69
689.82	623.29
690.16	618.26
690.50	614.36
690.83	609.79
691.17	605.19
691.51	600.86
691.84	596.86
692.18	592.64
692.52	588.19
692.85	584.64
693.19	581.38
693.52	577.60
693.86	573.74
694.20	569.62
694.53	565.62
694.87	561.21
695.21	556.67
695.54	552.45
695.88	547.55
696.21	543.05
696.55	539.40
696.88	535.40
697.22	531.64
697.56	528.14
697.89	524.64
698.23	521.48
698.56	517.81
698.90	514.36
699.23	510.98
699.57	507.69
699.90	503.86
700.24	499.60
700.58	496.07
700.91	492.98
701.25	491.55
701.58	489.26
701.92	486.64
702.25	483.83
702.59	480.05
702.92	477.57
703.26	474.95
703.59	471.93
703.93	470.52
704.26	467.64
704.60	464.88
704.93	462.02
705.26	458.98
705.60	457.17
705.93	454.12
706.27	451.74
706.60	449.29
706.94	447.48
707.27	444.79
707.61	442.21
707.94	439.10
708.27	434.88
708.61	431.38
708.94	428.36
709.28	425.88
709.61	423.67
709.94	421.31
710.28	418.52
710.61	416.07
710.95	411.83
711.28	410.93
711.61	408.64
711.95	406.74
712.28	403.86
712.61	400.57
712.95	399.19
713.28	397.60
713.61	395.31
713.95	392.10
714.28	389.81
714.61	387.64
714.95	385.21
715.28	382.95
715.61	380.26
715.95	378.40
716.28	376.21
716.61	374.67
716.95	372.38
717.28	370.45
717.61	368.36
717.94	366.74
718.28	363.31
718.61	361.07
718.94	358.55
719.27	357.40
719.61	355.62
719.94	352.79
720.27	349.86
720.60	347.43
720.94	345.69
721.27	344.24
721.60	343.00
721.93	341.76
722.27	340.79
722.60	340.12
722.93	338.07
723.26	336.45
723.59	334.64
723.93	333.67
724.26	332.43
724.59	331.19
724.92	329.67
725.25	328.83
725.59	327.52
725.92	326.74
726.25	325.33
726.58	324.31
726.91	322.95
727.24	321.86
727.57	320.74
727.91	319.05
728.24	317.88
728.57	315.95
728.90	314.83
729.23	312.86
729.56	312.38
729.89	311.57
730.22	310.36
730.55	308.95
730.89	307.64
731.22	306.33
731.55	305.21
731.88	304.40
732.21	303.10
732.54	301.67
732.87	300.14
733.20	299.33
733.53	298.14
733.86	297.48
734.19	296.12
734.52	295.57
734.85	296.43
735.18	295.05
735.51	294.90
735.84	294.07
736.17	293.71
736.50	291.79
736.83	292.95
737.16	291.95
737.49	291.29
737.82	290.33
738.15	289.98
738.48	289.10
738.81	288.05
739.14	286.88
739.47	286.40
739.80	285.74
740.13	284.86
740.46	283.48
740.79	282.43
741.12	281.93
741.45	280.88
741.78	278.88
742.11	278.86
742.44	277.76
742.77	277.17
743.10	276.07
743.43	275.31
743.75	272.52
744.08	274.67
744.41	273.71
744.74	272.76
745.07	271.43
745.40	270.69
745.73	271.05
746.06	270.12
746.39	269.60
746.71	268.88
747.04	267.64
747.37	267.31
747.70	266.98
748.03	266.43
748.36	265.98
748.68	265.05
749.01	263.74
749.34	262.88
749.67	262.07
750.00	262.10
750.33	263.02
750.65	262.76
750.98	259.55
751.31	258.95
751.64	258.64
751.97	259.31
752.29	258.88
752.62	257.33
752.95	256.90
753.28	256.19
753.60	255.19
753.93	255.38
754.26	255.05
754.59	254.19
754.91	253.21
755.24	252.50
755.57	252.14
755.90	251.50
756.22	251.05
756.55	250.45
756.88	249.33
757.20	247.52
757.53	246.31
757.86	245.90
758.19	245.98
758.51	245.69
758.84	244.02
759.17	243.40
759.49	242.90
759.82	243.90
760.15	243.74
760.47	243.76
760.80	242.88
761.13	242.83
761.45	242.12
761.78	241.81
762.11	241.43
762.43	241.05
762.76	240.79
763.08	240.52
763.41	240.45
763.74	240.24
764.06	239.74
764.39	239.62
764.71	239.10
765.04	238.21
765.37	237.57
765.69	237.55
766.02	237.33
766.34	237.17
766.67	235.48
767.00	235.48
767.32	236.07
767.65	236.93
767.97	236.26
768.30	236.31
768.62	236.19
768.95	236.05
769.27	235.57
769.60	235.71
769.92	235.29
770.25	234.40
770.57	233.79
770.90	233.52
771.22	233.02
771.55	233.02
771.87	232.95
772.20	232.48
772.52	233.88
772.85	235.88
773.17	235.79
773.50	235.74
773.82	235.26
774.15	234.00
774.47	232.67
774.80	232.24
775.12	232.02
775.45	231.69
775.77	231.24
776.09	231.29
776.42	231.00
776.74	231.43
777.07	231.12
777.39	231.17
777.72	230.95
778.04	231.00
778.36	230.64
778.69	230.60
779.01	230.71
779.33	228.74
779.66	226.07
779.98	225.48
780.31	225.52
780.63	225.98
780.95	226.10
781.28	225.98
781.60	225.88
781.92	225.74
782.25	225.60
782.57	225.43
782.89	225.36
783.22	225.12
783.54	224.43
783.86	224.74
784.19	224.33
784.51	224.76
784.83	224.29
785.16	224.21
