SpectraSuite Data File
++++++++++++++++++++++++++++++++++++
Date: Tue Apr 02 18:44:40 EDT 2013
User: group
Dark Spectrum Present: No
Reference Spectrum Present: No
Number of Sampled Component Spectra: 1
Spectrometers: USB2E7196
Integration Time (usec): 580000 (USB2E7196)
Spectra Averaged: 2 (USB2E7196)
Boxcar Smoothing: 10 (USB2E7196)
Correct for Electrical Dark: No (USB2E7196)
Strobe/Lamp Enabled: No (USB2E7196)
Correct for Detector Non-linearity: No (USB2E7196)
Correct for Stray Light: No (USB2E7196)
Number of Pixels in Processed Spectrum: 2048
>>>>>Begin Processed Spectral Data<<<<<
339.09	0.00
339.48	196.00
339.86	194.00
340.24	197.00
340.63	198.50
341.01	236.50
341.39	202.50
341.78	208.50
342.16	210.50
342.54	204.50
342.93	198.33
343.31	208.21
343.69	208.52
344.07	209.24
344.46	210.05
344.84	210.67
345.22	209.50
345.60	210.05
345.99	210.07
346.37	210.19
346.75	210.43
347.13	210.81
347.52	210.90
347.90	211.74
348.28	212.05
348.66	212.43
349.05	212.07
349.43	212.57
349.81	212.62
350.19	212.50
350.57	212.48
350.96	212.29
351.34	212.50
351.72	212.90
352.10	212.95
352.48	212.74
352.87	212.79
353.25	212.60
353.63	212.40
354.01	212.29
354.39	212.33
354.77	212.31
355.15	212.74
355.54	212.52
355.92	211.83
356.30	212.21
356.68	213.43
357.06	213.36
357.44	212.83
357.82	212.74
358.20	213.60
358.58	213.40
358.97	213.50
359.35	213.86
359.73	214.00
360.11	213.76
360.49	213.74
360.87	213.50
361.25	214.00
361.63	214.64
362.01	214.79
362.39	214.74
362.77	214.76
363.15	214.43
363.53	214.57
363.91	214.93
364.29	214.52
364.67	212.55
365.05	212.74
365.43	213.02
365.81	213.33
366.19	213.45
366.57	214.38
366.95	214.45
367.33	213.98
367.71	214.29
368.09	214.79
368.47	214.86
368.85	214.76
369.23	214.90
369.61	214.07
369.99	214.79
370.37	215.07
370.75	216.31
371.13	216.05
371.51	215.71
371.89	215.71
372.27	215.93
372.65	216.36
373.03	216.14
373.41	215.90
373.78	215.90
374.16	215.02
374.54	214.26
374.92	214.02
375.30	214.10
375.68	213.40
376.06	213.67
376.44	213.52
376.82	213.76
377.19	213.64
377.57	213.71
377.95	212.98
378.33	212.57
378.71	211.17
379.09	211.69
379.47	212.10
379.84	212.05
380.22	211.79
380.60	211.31
380.98	211.45
381.36	211.43
381.73	210.88
382.11	211.33
382.49	211.43
382.87	211.33
383.25	211.33
383.62	213.90
384.00	213.36
384.38	213.52
384.76	213.95
385.13	214.86
385.51	214.93
385.89	214.81
386.27	214.95
386.64	215.21
387.02	214.83
387.40	214.71
387.78	214.79
388.15	214.98
388.53	215.07
388.91	214.98
389.29	214.98
389.66	215.48
390.04	215.07
390.42	215.52
390.79	215.67
391.17	215.67
391.55	213.45
391.92	213.57
392.30	213.86
392.68	213.67
393.05	213.60
393.43	213.79
393.81	214.12
394.18	213.74
394.56	213.95
394.94	214.45
395.31	214.17
395.69	214.62
396.06	214.90
396.44	215.05
396.82	215.14
397.19	216.38
397.57	216.36
397.95	217.05
398.32	216.60
398.70	216.90
399.07	217.43
399.45	217.55
399.82	217.62
400.20	217.38
400.58	217.19
400.95	216.17
401.33	216.50
401.70	217.83
402.08	218.17
402.45	218.19
402.83	218.57
403.20	218.90
403.58	218.88
403.95	219.33
404.33	219.71
404.71	219.90
405.08	220.93
405.46	221.10
405.83	221.29
406.21	221.40
406.58	221.86
406.96	222.02
407.33	222.55
407.70	223.40
408.08	225.38
408.45	226.36
408.83	227.24
409.20	227.50
409.58	226.86
409.95	227.95
410.33	228.79
410.70	229.19
411.08	230.33
411.45	231.24
411.82	231.71
412.20	233.43
412.57	235.71
412.95	235.24
413.32	236.86
413.69	237.93
414.07	239.93
414.44	241.62
414.82	243.60
415.19	245.90
415.56	247.88
415.94	249.36
416.31	252.10
416.68	254.95
417.06	258.29
417.43	261.93
417.81	265.57
418.18	269.50
418.55	273.31
418.93	277.19
419.30	281.33
419.67	286.05
420.04	290.31
420.42	294.45
420.79	301.81
421.16	307.52
421.54	314.76
421.91	320.69
422.28	326.69
422.66	333.07
423.03	340.64
423.40	347.45
423.77	354.26
424.15	360.93
424.52	368.69
424.89	377.29
425.26	385.07
425.64	392.60
426.01	400.64
426.38	409.26
426.75	418.86
427.13	428.00
427.50	437.60
427.87	447.43
428.24	457.62
428.61	465.57
428.99	476.81
429.36	487.29
429.73	498.67
430.10	510.88
430.47	522.95
430.85	533.95
431.22	546.93
431.59	561.79
431.96	575.12
432.33	588.98
432.70	602.43
433.08	617.98
433.45	633.19
433.82	648.79
434.19	665.64
434.56	682.40
434.93	698.31
435.30	714.05
435.68	731.98
436.05	748.81
436.42	766.07
436.79	781.52
437.16	798.69
437.53	817.17
437.90	834.21
438.27	852.14
438.64	869.64
439.01	886.33
439.38	899.90
439.75	914.81
440.13	931.43
440.50	946.79
440.87	960.36
441.24	973.76
441.61	988.24
441.98	999.38
442.35	1010.98
442.72	1023.76
443.09	1037.02
443.46	1044.19
443.83	1049.93
444.20	1054.71
444.57	1060.67
444.94	1063.62
445.31	1066.12
445.68	1071.14
446.05	1072.45
446.42	1071.45
446.79	1069.62
447.16	1068.40
447.53	1067.52
447.90	1061.60
448.27	1055.95
448.64	1047.17
449.01	1040.60
449.37	1029.14
449.74	1018.14
450.11	1007.40
450.48	992.55
450.85	976.38
451.22	963.52
451.59	951.67
451.96	940.10
452.33	925.07
452.70	910.62
453.07	893.71
453.43	874.74
453.80	857.90
454.17	842.07
454.54	827.31
454.91	810.64
455.28	794.29
455.65	778.88
456.02	767.00
456.38	754.05
456.75	739.17
457.12	725.90
457.49	713.26
457.86	699.05
458.23	689.26
458.59	678.29
458.96	666.88
459.33	655.64
459.70	645.33
460.07	636.86
460.43	627.71
460.80	619.02
461.17	611.98
461.54	603.60
461.91	595.45
462.27	587.38
462.64	580.21
463.01	572.57
463.38	566.57
463.74	555.76
464.11	549.02
464.48	542.79
464.85	536.74
465.21	532.10
465.58	527.10
465.95	520.33
466.32	515.31
466.68	510.07
467.05	505.40
467.42	499.93
467.78	494.26
468.15	488.90
468.52	485.29
468.88	479.57
469.25	475.07
469.62	472.05
469.98	467.74
470.35	464.50
470.72	460.86
471.08	455.88
471.45	453.45
471.82	451.00
472.18	447.55
472.55	445.14
472.92	441.38
473.28	438.21
473.65	435.88
474.02	433.31
474.38	431.17
474.75	429.48
475.11	427.36
475.48	425.86
475.85	424.45
476.21	422.83
476.58	421.79
476.94	420.64
477.31	419.21
477.67	418.05
478.04	416.98
478.41	416.64
478.77	418.26
479.14	417.19
479.50	416.40
479.87	416.14
480.23	415.60
480.60	415.31
480.96	415.29
481.33	415.88
481.69	415.93
482.06	415.93
482.42	415.95
482.79	416.17
483.15	416.48
483.52	417.48
483.88	418.12
484.25	418.43
484.61	419.48
484.98	420.10
485.34	421.90
485.71	423.29
486.07	424.24
486.44	423.76
486.80	425.21
487.17	426.52
487.53	428.83
487.90	431.00
488.26	434.57
488.62	437.24
488.99	439.05
489.35	441.50
489.72	444.19
490.08	446.88
490.44	449.71
490.81	453.24
491.17	455.95
491.54	459.64
491.90	463.36
492.26	466.60
492.63	470.52
492.99	473.98
493.36	478.02
493.72	482.38
494.08	487.07
494.45	492.05
494.81	497.33
495.17	502.05
495.54	507.10
495.90	511.43
496.26	516.48
496.63	522.07
496.99	527.38
497.35	532.76
497.72	538.21
498.08	544.29
498.44	550.17
498.80	556.81
499.17	562.45
499.53	568.81
499.89	575.74
500.26	582.05
500.62	588.76
500.98	595.98
501.34	603.36
501.71	610.69
502.07	617.17
502.43	623.79
502.79	630.71
503.16	637.79
503.52	644.60
503.88	650.93
504.24	658.57
504.60	666.33
504.97	674.69
505.33	682.71
505.69	690.88
506.05	698.52
506.41	705.67
506.78	713.71
507.14	721.07
507.50	728.17
507.86	737.02
508.22	745.07
508.59	752.50
508.95	760.14
509.31	769.19
509.67	777.14
510.03	785.19
510.39	793.24
510.75	801.52
511.12	809.26
511.48	817.40
511.84	824.43
512.20	831.81
512.56	839.07
512.92	846.64
513.28	854.10
513.64	861.31
514.00	868.90
514.37	876.10
514.73	883.86
515.09	892.02
515.45	898.52
515.81	905.36
516.17	912.43
516.53	918.90
516.89	923.88
517.25	930.45
517.61	937.50
517.97	943.81
518.33	949.07
518.69	955.52
519.05	962.64
519.41	969.38
519.77	977.24
520.13	982.69
520.49	988.60
520.85	993.95
521.21	1000.55
521.57	1006.81
521.93	1011.50
522.29	1016.93
522.65	1021.71
523.01	1026.60
523.37	1031.67
523.73	1036.57
524.09	1041.74
524.45	1046.14
524.81	1051.10
525.17	1055.83
525.53	1060.76
525.89	1066.14
526.25	1071.12
526.61	1074.76
526.97	1078.57
527.33	1081.71
527.68	1087.81
528.04	1092.26
528.40	1096.90
528.76	1100.29
529.12	1104.48
529.48	1109.69
529.84	1114.10
530.20	1118.50
530.56	1123.05
530.91	1127.17
531.27	1131.71
531.63	1135.81
531.99	1140.83
532.35	1144.88
532.71	1148.55
533.07	1152.48
533.42	1158.71
533.78	1162.74
534.14	1167.33
534.50	1171.36
534.86	1175.86
535.21	1178.55
535.57	1182.14
535.93	1185.45
536.29	1190.93
536.65	1194.45
537.00	1198.05
537.36	1201.17
537.72	1204.19
538.08	1207.52
538.44	1210.79
538.79	1214.31
539.15	1217.10
539.51	1219.81
539.87	1223.19
540.22	1226.69
540.58	1229.60
540.94	1231.05
541.29	1233.95
541.65	1235.50
542.01	1238.67
542.37	1240.45
542.72	1242.17
543.08	1245.19
543.44	1248.24
543.79	1248.38
544.15	1251.21
544.51	1254.14
544.87	1256.90
545.22	1260.12
545.58	1263.21
545.94	1265.95
546.29	1268.21
546.65	1271.12
547.01	1273.40
547.36	1276.36
547.72	1278.00
548.07	1280.74
548.43	1282.90
548.79	1285.24
549.14	1288.29
549.50	1291.55
549.86	1294.12
550.21	1297.76
550.57	1300.14
550.92	1302.48
551.28	1306.33
551.64	1309.67
551.99	1312.43
552.35	1314.93
552.70	1318.00
553.06	1321.50
553.41	1324.76
553.77	1329.31
554.13	1333.55
554.48	1338.19
554.84	1342.12
555.19	1346.17
555.55	1350.83
555.90	1354.40
556.26	1357.86
556.61	1362.33
556.97	1364.74
557.32	1368.33
557.68	1371.79
558.03	1375.38
558.39	1379.24
558.74	1383.81
559.10	1387.21
559.45	1391.14
559.81	1396.26
560.16	1400.83
560.52	1404.40
560.87	1408.40
561.23	1412.12
561.58	1417.00
561.94	1420.07
562.29	1424.33
562.64	1429.45
563.00	1433.36
563.35	1437.69
563.71	1443.50
564.06	1447.98
564.42	1453.79
564.77	1459.83
565.12	1465.98
565.48	1473.24
565.83	1480.05
566.19	1485.14
566.54	1490.21
566.89	1495.98
567.25	1501.95
567.60	1508.07
567.96	1516.69
568.31	1524.00
568.66	1530.33
569.02	1535.07
569.37	1540.98
569.72	1546.60
570.08	1551.40
570.43	1556.36
570.78	1563.40
571.14	1568.12
571.49	1573.79
571.84	1579.74
572.20	1584.57
572.55	1590.33
572.90	1593.57
573.26	1597.76
573.61	1602.93
573.96	1608.19
574.31	1612.50
574.67	1616.40
575.02	1619.76
575.37	1620.67
575.72	1622.88
576.08	1625.88
576.43	1629.10
576.78	1633.10
577.13	1636.38
577.49	1640.21
577.84	1644.93
578.19	1647.57
578.54	1651.64
578.90	1655.05
579.25	1658.05
579.60	1661.07
579.95	1662.74
580.30	1667.21
580.66	1670.71
581.01	1673.83
581.36	1676.69
581.71	1679.86
582.06	1684.64
582.42	1689.17
582.77	1693.31
583.12	1697.98
583.47	1701.21
583.82	1705.00
584.17	1709.10
584.53	1713.52
584.88	1717.12
585.23	1718.98
585.58	1722.12
585.93	1724.48
586.28	1728.26
586.63	1731.43
586.98	1735.76
587.34	1739.67
587.69	1741.36
588.04	1743.88
588.39	1746.69
588.74	1748.05
589.09	1750.69
589.44	1750.19
589.79	1751.79
590.14	1752.98
590.49	1753.52
590.84	1754.50
591.19	1755.98
591.54	1757.07
591.89	1757.76
592.25	1760.69
592.60	1762.36
592.95	1764.14
593.30	1765.74
593.65	1766.64
594.00	1766.86
594.35	1772.88
594.70	1773.64
595.05	1774.95
595.40	1775.88
595.75	1775.76
596.10	1778.07
596.45	1779.60
596.80	1781.52
597.15	1782.31
597.50	1782.98
597.85	1785.00
598.19	1785.45
598.54	1785.14
598.89	1784.93
599.24	1785.67
599.59	1784.79
599.94	1785.21
600.29	1785.55
600.64	1785.98
600.99	1786.38
601.34	1787.57
601.69	1781.43
602.04	1780.07
602.39	1779.05
602.74	1778.71
603.08	1778.38
603.43	1778.95
603.78	1777.64
604.13	1776.93
604.48	1775.57
604.83	1775.88
605.18	1775.40
605.53	1776.19
605.87	1775.81
606.22	1775.83
606.57	1773.67
606.92	1771.86
607.27	1771.07
607.62	1769.88
607.96	1769.00
608.31	1767.40
608.66	1765.93
609.01	1764.67
609.36	1764.67
609.70	1763.38
610.05	1761.12
610.40	1759.71
610.75	1756.50
611.10	1754.62
611.44	1752.50
611.79	1749.52
612.14	1746.24
612.49	1742.33
612.83	1739.00
613.18	1736.33
613.53	1733.12
613.88	1730.86
614.22	1728.02
614.57	1724.60
614.92	1720.64
615.27	1716.31
615.61	1712.79
615.96	1709.02
616.31	1705.40
616.65	1701.90
617.00	1699.43
617.35	1697.07
617.70	1694.67
618.04	1691.14
618.39	1687.64
618.74	1684.26
619.08	1680.64
619.43	1677.76
619.78	1674.71
620.12	1671.21
620.47	1668.55
620.82	1664.64
621.16	1659.86
621.51	1657.26
621.85	1652.45
622.20	1649.26
622.55	1646.26
622.89	1642.10
623.24	1638.74
623.59	1634.62
623.93	1631.14
624.28	1626.83
624.62	1624.45
624.97	1620.29
625.32	1616.50
625.66	1613.21
626.01	1609.21
626.35	1606.43
626.70	1602.48
627.04	1599.90
627.39	1595.93
627.73	1592.79
628.08	1588.98
628.43	1585.57
628.77	1579.83
629.12	1577.88
629.46	1573.71
629.81	1569.17
630.15	1564.33
630.50	1559.71
630.84	1554.90
631.19	1548.76
631.53	1543.79
631.88	1536.00
632.22	1529.88
632.57	1526.12
632.91	1519.69
633.26	1515.50
633.60	1509.90
633.95	1503.86
634.29	1497.12
634.64	1492.62
634.98	1487.05
635.32	1483.52
635.67	1479.64
636.01	1476.05
636.36	1469.81
636.70	1465.19
637.05	1460.45
637.39	1456.50
637.73	1451.81
638.08	1448.76
638.42	1445.71
638.77	1441.95
639.11	1437.79
639.45	1433.38
639.80	1427.21
640.14	1422.76
640.49	1417.36
640.83	1411.86
641.17	1408.36
641.52	1404.45
641.86	1399.12
642.20	1395.05
642.55	1388.62
642.89	1382.29
643.23	1376.62
643.58	1372.74
643.92	1366.71
644.26	1361.26
644.61	1356.57
644.95	1351.02
645.29	1344.69
645.64	1339.57
645.98	1333.26
646.32	1328.81
646.66	1322.29
647.01	1316.33
647.35	1311.48
647.69	1305.76
648.04	1301.38
648.38	1294.98
648.72	1288.26
649.06	1282.60
649.41	1275.79
649.75	1269.40
650.09	1263.36
650.43	1257.90
650.78	1251.05
651.12	1244.48
651.46	1237.69
651.80	1231.05
652.14	1224.26
652.49	1218.07
652.83	1211.14
653.17	1204.76
653.51	1197.45
653.85	1191.90
654.20	1186.45
654.54	1179.45
654.88	1172.57
655.22	1166.67
655.56	1160.38
655.90	1154.02
656.25	1147.33
656.59	1140.69
656.93	1134.79
657.27	1129.74
657.61	1122.69
657.95	1116.69
658.29	1111.24
658.64	1106.05
658.98	1099.83
659.32	1093.60
659.66	1087.05
660.00	1080.64
660.34	1074.33
660.68	1067.76
661.02	1061.48
661.36	1054.36
661.70	1048.69
662.05	1042.86
662.39	1036.43
662.73	1031.31
663.07	1027.07
663.41	1020.45
663.75	1014.05
664.09	1008.26
664.43	1001.74
664.77	996.33
665.11	989.74
665.45	983.40
665.79	978.14
666.13	972.05
666.47	966.52
666.81	960.76
667.15	954.90
667.49	950.10
667.83	946.05
668.17	940.93
668.51	936.24
668.85	931.10
669.19	926.26
669.53	920.07
669.87	913.90
670.21	906.79
670.55	901.33
670.89	896.86
671.23	891.43
671.57	886.12
671.91	879.95
672.25	875.17
672.58	870.62
672.92	864.24
673.26	858.74
673.60	853.05
673.94	848.62
674.28	843.60
674.62	838.67
674.96	832.83
675.30	828.05
675.64	822.64
675.97	816.98
676.31	811.71
676.65	806.81
676.99	802.12
677.33	797.43
677.67	793.02
678.01	786.69
678.34	781.74
678.68	777.00
679.02	772.33
679.36	766.88
679.70	761.62
680.04	757.00
680.37	752.40
680.71	747.67
681.05	742.31
681.39	737.05
681.73	731.95
682.06	726.95
682.40	721.98
682.74	717.60
683.08	713.45
683.42	708.00
683.75	703.19
684.09	697.74
684.43	692.64
684.77	687.26
685.10	683.60
685.44	678.83
685.78	674.07
686.12	670.05
686.45	665.67
686.79	661.00
687.13	657.00
687.46	652.12
687.80	648.24
688.14	643.29
688.48	639.29
688.81	634.50
689.15	630.88
689.49	626.29
689.82	621.88
690.16	616.43
690.50	612.26
690.83	608.19
691.17	603.86
691.51	600.00
691.84	596.64
692.18	591.83
692.52	587.88
692.85	583.90
693.19	580.14
693.52	576.14
693.86	571.64
694.20	567.14
694.53	563.50
694.87	559.05
695.21	555.76
695.54	551.71
695.88	547.38
696.21	542.76
696.55	538.90
696.88	535.00
697.22	531.76
697.56	528.50
697.89	524.88
698.23	521.74
698.56	517.74
698.90	514.10
699.23	510.83
699.57	507.19
699.90	503.62
700.24	499.67
700.58	496.14
700.91	493.29
701.25	491.69
701.58	489.21
701.92	486.81
702.25	483.21
702.59	479.81
702.92	477.19
703.26	474.26
703.59	471.26
703.93	469.83
704.26	466.86
704.60	464.00
704.93	461.00
705.26	457.69
705.60	455.40
705.93	452.14
706.27	449.81
706.60	447.69
706.94	445.45
707.27	442.57
707.61	440.02
707.94	437.14
708.27	432.60
708.61	428.90
708.94	425.95
709.28	423.95
709.61	421.31
709.94	418.76
710.28	416.31
710.61	413.90
710.95	409.79
711.28	408.74
711.61	406.05
711.95	404.19
712.28	401.86
712.61	399.07
712.95	398.07
713.28	396.29
713.61	393.64
713.95	391.19
714.28	389.07
714.61	386.48
714.95	384.36
715.28	382.40
715.61	380.55
715.95	378.50
716.28	375.93
716.61	374.57
716.95	372.26
717.28	370.12
717.61	368.21
717.94	366.38
718.28	362.98
718.61	361.14
718.94	358.62
719.27	356.83
719.61	355.26
719.94	352.60
720.27	349.62
720.60	347.43
720.94	345.43
721.27	344.29
721.60	343.43
721.93	341.52
722.27	340.40
722.60	338.86
722.93	337.10
723.26	335.86
723.59	333.83
723.93	333.07
724.26	331.81
724.59	330.10
724.92	328.86
725.25	328.07
725.59	326.67
725.92	325.79
726.25	324.60
726.58	323.52
726.91	322.50
727.24	321.83
727.57	320.93
727.91	319.19
728.24	317.69
728.57	316.10
728.90	315.21
729.23	313.43
729.56	313.29
729.89	312.26
730.22	311.12
730.55	310.24
730.89	308.86
731.22	307.71
731.55	306.79
731.88	305.83
732.21	304.45
732.54	303.10
732.87	301.74
733.20	300.69
733.53	299.50
733.86	298.60
734.19	297.14
734.52	296.36
734.85	297.19
735.18	296.07
735.51	295.79
735.84	295.07
736.17	294.67
736.50	292.69
736.83	293.98
737.16	292.90
737.49	291.90
737.82	290.74
738.15	290.10
738.48	288.88
738.81	287.67
739.14	286.52
739.47	285.79
739.80	285.14
740.13	284.40
740.46	283.43
740.79	282.33
741.12	281.93
741.45	280.88
741.78	278.98
742.11	278.69
742.44	277.64
742.77	277.12
743.10	275.93
743.43	275.12
743.75	272.17
744.08	274.17
744.41	273.12
744.74	272.38
745.07	271.05
745.40	271.07
745.73	271.26
746.06	270.86
746.39	270.52
746.71	269.81
747.04	268.69
747.37	267.88
747.70	267.38
748.03	266.40
748.36	266.26
748.68	265.74
749.01	264.48
749.34	263.45
749.67	262.60
750.00	262.62
750.33	263.57
750.65	263.52
750.98	260.33
751.31	260.02
751.64	259.60
751.97	260.48
752.29	259.79
752.62	258.45
752.95	257.79
753.28	257.00
753.60	256.38
753.93	256.69
754.26	256.48
754.59	255.64
754.91	255.14
755.24	254.00
755.57	253.33
755.90	253.07
756.22	252.69
756.55	251.98
756.88	250.69
757.20	249.12
757.53	247.86
757.86	247.62
758.19	247.40
758.51	246.88
758.84	245.19
759.17	244.69
759.49	244.24
759.82	244.81
760.15	244.67
760.47	244.14
760.80	243.10
761.13	242.64
761.45	242.05
761.78	241.69
762.11	241.60
762.43	241.05
762.76	240.43
763.08	240.14
763.41	240.48
763.74	240.26
764.06	239.81
764.39	239.88
764.71	239.48
765.04	238.79
765.37	238.36
765.69	238.19
766.02	237.86
766.34	237.43
766.67	236.24
767.00	236.26
767.32	237.07
767.65	238.00
767.97	237.81
768.30	237.76
768.62	237.60
768.95	237.00
769.27	236.69
769.60	236.74
769.92	236.12
770.25	235.00
770.57	234.69
770.90	234.21
771.22	233.67
771.55	233.31
771.87	233.26
772.20	232.98
772.52	234.17
772.85	236.36
773.17	236.29
773.50	235.95
773.82	235.48
774.15	234.24
774.47	232.88
774.80	232.50
775.12	232.14
775.45	231.81
775.77	231.90
776.09	232.05
776.42	231.83
776.74	232.45
777.07	232.21
777.39	232.05
777.72	231.88
778.04	231.90
778.36	231.62
778.69	231.52
779.01	231.57
779.33	229.79
779.66	227.26
779.98	226.81
780.31	226.69
780.63	227.29
780.95	227.52
781.28	227.29
781.60	227.02
781.92	226.88
782.25	226.74
782.57	226.45
782.89	225.90
783.22	225.76
783.54	225.10
783.86	225.36
784.19	225.24
784.51	225.79
784.83	225.43
785.16	225.31
