SpectraSuite Data File
++++++++++++++++++++++++++++++++++++
Date: Tue Apr 02 18:46:57 EDT 2013
User: group
Dark Spectrum Present: No
Reference Spectrum Present: No
Number of Sampled Component Spectra: 1
Spectrometers: USB2E7196
Integration Time (usec): 580000 (USB2E7196)
Spectra Averaged: 2 (USB2E7196)
Boxcar Smoothing: 10 (USB2E7196)
Correct for Electrical Dark: No (USB2E7196)
Strobe/Lamp Enabled: No (USB2E7196)
Correct for Detector Non-linearity: No (USB2E7196)
Correct for Stray Light: No (USB2E7196)
Number of Pixels in Processed Spectrum: 2048
>>>>>Begin Processed Spectral Data<<<<<
339.09	0.00
339.48	192.00
339.86	195.00
340.24	196.50
340.63	195.50
341.01	237.00
341.39	199.00
341.78	205.00
342.16	211.00
342.54	207.00
342.93	198.24
343.31	208.00
343.69	208.60
344.07	209.31
344.46	210.05
344.84	210.79
345.22	209.33
345.60	209.98
345.99	210.40
346.37	210.29
346.75	210.29
347.13	210.24
347.52	210.05
347.90	210.74
348.28	210.64
348.66	211.19
349.05	210.88
349.43	211.26
349.81	211.45
350.19	211.67
350.57	211.86
350.96	212.21
351.34	212.40
351.72	212.62
352.10	212.48
352.48	212.36
352.87	212.26
353.25	212.40
353.63	212.21
354.01	212.02
354.39	212.14
354.77	212.19
355.15	213.02
355.54	212.86
355.92	212.05
356.30	212.26
356.68	213.31
357.06	213.38
357.44	212.62
357.82	212.52
358.20	213.14
358.58	212.98
358.97	212.83
359.35	213.31
359.73	213.64
360.11	213.83
360.49	213.90
360.87	213.98
361.25	213.98
361.63	214.79
362.01	214.86
362.39	214.90
362.77	215.07
363.15	214.52
363.53	214.43
363.91	214.81
364.29	214.71
364.67	212.71
365.05	212.60
365.43	213.00
365.81	213.21
366.19	213.40
366.57	214.24
366.95	214.21
367.33	213.79
367.71	213.69
368.09	213.81
368.47	213.90
368.85	213.88
369.23	214.40
369.61	213.50
369.99	214.38
370.37	214.43
370.75	215.21
371.13	215.02
371.51	214.81
371.89	214.81
372.27	214.86
372.65	215.12
373.03	215.14
373.41	215.07
373.78	214.93
374.16	213.95
374.54	213.36
374.92	213.12
375.30	212.98
375.68	212.57
376.06	212.81
376.44	212.71
376.82	212.79
377.19	212.76
377.57	212.79
377.95	211.90
378.33	211.98
378.71	210.93
379.09	211.12
379.47	211.57
379.84	211.45
380.22	211.43
380.60	211.12
380.98	211.31
381.36	211.38
381.73	211.07
382.11	211.36
382.49	211.52
382.87	211.55
383.25	211.83
383.62	214.14
384.00	213.52
384.38	213.33
384.76	213.98
385.13	214.71
385.51	214.74
385.89	214.60
386.27	214.52
386.64	214.95
387.02	214.88
387.40	214.64
387.78	214.86
388.15	214.90
388.53	214.81
388.91	214.62
389.29	214.38
389.66	214.81
390.04	214.67
390.42	214.90
390.79	214.93
391.17	214.71
391.55	212.69
391.92	212.93
392.30	213.24
392.68	212.43
393.05	212.29
393.43	212.07
393.81	212.17
394.18	211.93
394.56	211.93
394.94	212.21
395.31	212.05
395.69	212.38
396.06	212.52
396.44	212.60
396.82	212.52
397.19	213.88
397.57	213.69
397.95	213.98
398.32	213.36
398.70	213.43
399.07	214.02
399.45	213.83
399.82	213.67
400.20	213.64
400.58	213.64
400.95	212.76
401.33	213.62
401.70	215.14
402.08	215.33
402.45	215.52
402.83	216.43
403.20	216.83
403.58	216.93
403.95	217.60
404.33	218.05
404.71	218.33
405.08	219.33
405.46	219.52
405.83	219.86
406.21	220.24
406.58	220.90
406.96	221.19
407.33	221.93
407.70	222.81
408.08	224.64
408.45	225.38
408.83	226.48
409.20	226.71
409.58	226.17
409.95	227.40
410.33	228.26
410.70	228.21
411.08	229.33
411.45	230.29
411.82	230.86
412.20	232.57
412.57	234.83
412.95	234.52
413.32	236.40
413.69	237.71
414.07	239.52
414.44	240.98
414.82	242.76
415.19	245.07
415.56	247.26
415.94	248.81
416.31	252.31
416.68	254.86
417.06	258.33
417.43	262.17
417.81	265.52
418.18	269.29
418.55	273.12
418.93	277.12
419.30	281.17
419.67	285.83
420.04	290.33
420.42	294.71
420.79	301.62
421.16	307.29
421.54	314.00
421.91	320.19
422.28	326.43
422.66	333.12
423.03	340.88
423.40	347.67
423.77	354.83
424.15	361.69
424.52	369.50
424.89	377.74
425.26	384.67
425.64	392.71
426.01	401.00
426.38	409.98
426.75	419.43
427.13	428.79
427.50	438.26
427.87	448.02
428.24	458.02
428.61	466.48
428.99	477.67
429.36	488.24
429.73	499.55
430.10	511.45
430.47	523.38
430.85	534.21
431.22	546.74
431.59	560.88
431.96	573.55
432.33	587.48
432.70	601.31
433.08	617.88
433.45	632.60
433.82	647.36
434.19	664.00
434.56	680.62
434.93	696.33
435.30	711.76
435.68	729.79
436.05	746.76
436.42	763.12
436.79	778.90
437.16	795.76
437.53	813.57
437.90	830.40
438.27	847.69
438.64	865.98
439.01	883.38
439.38	897.55
439.75	912.17
440.13	928.55
440.50	943.90
440.87	956.48
441.24	970.02
441.61	984.86
441.98	995.81
442.35	1007.86
442.72	1020.86
443.09	1034.57
443.46	1041.76
443.83	1047.29
444.20	1052.62
444.57	1058.33
444.94	1061.48
445.31	1064.48
445.68	1070.40
446.05	1072.07
446.42	1070.50
446.79	1068.64
447.16	1066.55
447.53	1065.55
447.90	1059.45
448.27	1053.40
448.64	1045.07
449.01	1039.17
449.37	1027.74
449.74	1016.95
450.11	1005.52
450.48	990.57
450.85	974.57
451.22	961.48
451.59	949.64
451.96	937.86
452.33	922.17
452.70	908.55
453.07	891.40
453.43	872.62
453.80	856.36
454.17	840.50
454.54	825.19
454.91	809.71
455.28	793.45
455.65	778.48
456.02	766.62
456.38	753.50
456.75	737.79
457.12	725.12
457.49	711.90
457.86	698.07
458.23	688.26
458.59	676.64
458.96	665.29
459.33	654.29
459.70	643.98
460.07	635.93
460.43	626.10
460.80	617.98
461.17	610.38
461.54	601.79
461.91	593.93
462.27	585.88
462.64	578.67
463.01	571.38
463.38	565.19
463.74	555.02
464.11	548.64
464.48	542.62
464.85	535.95
465.21	531.67
465.58	526.64
465.95	520.21
466.32	515.83
466.68	510.43
467.05	505.83
467.42	501.10
467.78	496.05
468.15	491.33
468.52	487.98
468.88	482.52
469.25	478.12
469.62	474.83
469.98	471.05
470.35	467.24
470.72	463.76
471.08	459.38
471.45	456.50
471.82	454.24
472.18	450.79
472.55	448.93
472.92	445.48
473.28	442.05
473.65	438.98
474.02	436.05
474.38	434.36
474.75	432.17
475.11	429.74
475.48	427.98
475.85	426.57
476.21	423.86
476.58	422.26
476.94	420.95
477.31	419.24
477.67	418.00
478.04	417.02
478.41	416.05
478.77	417.33
479.14	416.26
479.50	415.07
479.87	414.79
480.23	413.86
480.60	413.26
480.96	413.19
481.33	414.12
481.69	414.19
482.06	413.95
482.42	414.24
482.79	414.62
483.15	414.86
483.52	415.50
483.88	416.24
484.25	417.00
484.61	417.93
484.98	418.74
485.34	420.76
485.71	422.19
486.07	423.88
486.44	423.48
486.80	424.98
487.17	426.43
487.53	428.67
487.90	431.07
488.26	434.40
488.62	437.38
488.99	439.02
489.35	441.48
489.72	444.33
490.08	446.95
490.44	449.67
490.81	452.98
491.17	455.64
491.54	459.33
491.90	463.02
492.26	466.64
492.63	470.48
492.99	473.26
493.36	477.36
493.72	482.26
494.08	486.67
494.45	491.50
494.81	496.74
495.17	501.36
495.54	506.71
495.90	511.14
496.26	515.67
496.63	521.57
496.99	527.17
497.35	532.55
497.72	539.02
498.08	544.90
498.44	550.83
498.80	557.71
499.17	564.40
499.53	570.45
499.89	577.24
500.26	584.05
500.62	591.19
500.98	598.60
501.34	605.05
501.71	612.38
502.07	619.26
502.43	626.24
502.79	633.40
503.16	639.98
503.52	647.36
503.88	654.67
504.24	662.21
504.60	669.79
504.97	677.48
505.33	684.60
505.69	693.29
506.05	700.67
506.41	707.62
506.78	715.00
507.14	722.69
507.50	730.48
507.86	738.57
508.22	746.24
508.59	753.69
508.95	761.64
509.31	770.19
509.67	777.81
510.03	785.36
510.39	793.10
510.75	801.00
511.12	809.26
511.48	817.33
511.84	824.60
512.20	832.21
512.56	840.19
512.92	847.76
513.28	854.69
513.64	862.26
514.00	870.17
514.37	877.00
514.73	884.76
515.09	891.93
515.45	898.50
515.81	906.17
516.17	912.31
516.53	917.98
516.89	923.57
517.25	930.33
517.61	937.29
517.97	943.45
518.33	950.00
518.69	956.07
519.05	962.71
519.41	969.05
519.77	976.40
520.13	982.43
520.49	987.74
520.85	993.88
521.21	1000.55
521.57	1006.88
521.93	1012.69
522.29	1018.10
522.65	1023.12
523.01	1028.57
523.37	1033.07
523.73	1038.90
524.09	1044.71
524.45	1049.88
524.81	1054.14
525.17	1058.64
525.53	1063.67
525.89	1068.24
526.25	1072.36
526.61	1076.07
526.97	1080.52
527.33	1084.50
527.68	1090.38
528.04	1095.12
528.40	1098.95
528.76	1102.31
529.12	1105.93
529.48	1110.90
529.84	1115.07
530.20	1119.98
530.56	1124.36
530.91	1129.00
531.27	1133.07
531.63	1137.12
531.99	1141.29
532.35	1146.12
532.71	1150.17
533.07	1154.81
533.42	1161.48
533.78	1165.81
534.14	1170.02
534.50	1174.33
534.86	1178.69
535.21	1181.05
535.57	1185.29
535.93	1189.00
536.29	1194.19
536.65	1198.52
537.00	1201.07
537.36	1204.64
537.72	1207.57
538.08	1211.14
538.44	1213.74
538.79	1217.69
539.15	1221.26
539.51	1224.50
539.87	1227.81
540.22	1231.67
540.58	1234.33
540.94	1235.10
541.29	1237.79
541.65	1240.05
542.01	1243.05
542.37	1244.88
542.72	1246.64
543.08	1249.07
543.44	1252.00
543.79	1252.74
544.15	1255.57
544.51	1259.24
544.87	1261.40
545.22	1264.40
545.58	1266.98
545.94	1269.33
546.29	1271.88
546.65	1273.69
547.01	1275.83
547.36	1277.95
547.72	1279.36
548.07	1281.83
548.43	1283.79
548.79	1286.07
549.14	1289.00
549.50	1291.29
549.86	1293.07
550.21	1296.48
550.57	1299.88
550.92	1302.10
551.28	1306.10
551.64	1308.50
551.99	1311.36
552.35	1314.69
552.70	1317.02
553.06	1320.60
553.41	1324.76
553.77	1328.67
554.13	1332.71
554.48	1337.45
554.84	1342.07
555.19	1346.31
555.55	1351.14
555.90	1354.95
556.26	1359.62
556.61	1362.69
556.97	1365.40
557.32	1369.31
557.68	1373.02
558.03	1376.24
558.39	1380.12
558.74	1383.55
559.10	1387.45
559.45	1391.55
559.81	1395.36
560.16	1399.31
560.52	1402.90
560.87	1406.79
561.23	1409.48
561.58	1414.62
561.94	1418.14
562.29	1420.90
562.64	1425.19
563.00	1428.38
563.35	1432.93
563.71	1437.67
564.06	1443.45
564.42	1449.43
564.77	1455.36
565.12	1461.52
565.48	1468.69
565.83	1474.90
566.19	1480.74
566.54	1486.24
566.89	1491.69
567.25	1498.00
567.60	1505.19
567.96	1512.90
568.31	1519.36
568.66	1525.45
569.02	1529.05
569.37	1534.05
569.72	1540.21
570.08	1546.50
570.43	1551.55
570.78	1557.26
571.14	1562.64
571.49	1567.83
571.84	1573.21
572.20	1577.48
572.55	1581.95
572.90	1584.67
573.26	1588.21
573.61	1592.31
573.96	1596.74
574.31	1600.36
574.67	1604.52
575.02	1607.14
575.37	1608.74
575.72	1611.62
576.08	1615.38
576.43	1620.31
576.78	1623.93
577.13	1627.24
577.49	1630.57
577.84	1635.00
578.19	1638.43
578.54	1642.14
578.90	1646.19
579.25	1649.40
579.60	1653.33
579.95	1656.02
580.30	1659.79
580.66	1664.69
581.01	1668.12
581.36	1670.52
581.71	1674.50
582.06	1679.14
582.42	1683.71
582.77	1687.21
583.12	1691.50
583.47	1695.50
583.82	1698.60
584.17	1702.31
584.53	1706.57
584.88	1710.10
585.23	1714.02
585.58	1717.74
585.93	1720.17
586.28	1722.76
586.63	1725.67
586.98	1728.81
587.34	1732.60
587.69	1735.43
588.04	1737.86
588.39	1741.19
588.74	1743.48
589.09	1746.29
589.44	1746.81
589.79	1748.86
590.14	1751.33
590.49	1752.71
590.84	1753.05
591.19	1755.81
591.54	1757.81
591.89	1758.79
592.25	1761.64
592.60	1761.95
592.95	1763.40
593.30	1765.48
593.65	1766.79
594.00	1767.50
594.35	1773.88
594.70	1774.14
595.05	1775.36
595.40	1775.95
595.75	1777.07
596.10	1779.19
596.45	1780.48
596.80	1782.33
597.15	1783.86
597.50	1784.05
597.85	1786.17
598.19	1787.93
598.54	1788.14
598.89	1788.86
599.24	1790.71
599.59	1789.52
599.94	1790.31
600.29	1790.07
600.64	1789.26
600.99	1790.05
601.34	1790.83
601.69	1785.62
602.04	1785.88
602.39	1784.98
602.74	1786.07
603.08	1784.62
603.43	1785.14
603.78	1784.24
604.13	1783.12
604.48	1782.07
604.83	1782.86
605.18	1782.48
605.53	1782.55
605.87	1781.88
606.22	1781.38
606.57	1779.83
606.92	1779.07
607.27	1778.79
607.62	1778.31
607.96	1778.48
608.31	1777.62
608.66	1776.64
609.01	1775.60
609.36	1775.10
609.70	1774.69
610.05	1771.86
610.40	1771.02
610.75	1768.33
611.10	1766.67
611.44	1765.00
611.79	1762.90
612.14	1760.95
612.49	1757.02
612.83	1754.00
613.18	1751.52
613.53	1748.57
613.88	1744.62
614.22	1741.55
614.57	1737.62
614.92	1735.10
615.27	1731.43
615.61	1726.74
615.96	1723.36
616.31	1719.60
616.65	1716.31
617.00	1713.83
617.35	1711.55
617.70	1708.50
618.04	1704.95
618.39	1700.98
618.74	1697.40
619.08	1693.71
619.43	1690.43
619.78	1687.57
620.12	1684.40
620.47	1680.95
620.82	1676.76
621.16	1672.88
621.51	1670.55
621.85	1666.86
622.20	1662.55
622.55	1658.86
622.89	1656.69
623.24	1654.69
623.59	1651.86
623.93	1648.17
624.28	1643.60
624.62	1641.83
624.97	1638.90
625.32	1635.40
625.66	1631.62
626.01	1628.10
626.35	1623.93
626.70	1618.98
627.04	1616.48
627.39	1612.81
627.73	1610.02
628.08	1607.19
628.43	1604.48
628.77	1600.10
629.12	1596.64
629.46	1593.79
629.81	1589.86
630.15	1585.00
630.50	1578.81
630.84	1572.90
631.19	1568.79
631.53	1564.33
631.88	1556.79
632.22	1550.74
632.57	1546.98
632.91	1542.02
633.26	1537.52
633.60	1533.10
633.95	1528.17
634.29	1521.64
634.64	1516.43
634.98	1510.81
635.32	1506.98
635.67	1504.60
636.01	1500.55
636.36	1495.62
636.70	1490.60
637.05	1486.07
637.39	1482.17
637.73	1477.90
638.08	1474.93
638.42	1469.69
638.77	1464.98
639.11	1460.12
639.45	1455.93
639.80	1450.31
640.14	1446.12
640.49	1441.24
640.83	1436.14
641.17	1431.98
641.52	1426.33
641.86	1421.40
642.20	1417.50
642.55	1410.98
642.89	1403.43
643.23	1397.38
643.58	1393.52
643.92	1387.40
644.26	1382.40
644.61	1377.10
644.95	1371.57
645.29	1365.38
645.64	1359.62
645.98	1354.07
646.32	1349.76
646.66	1343.71
647.01	1337.86
647.35	1332.50
647.69	1326.24
648.04	1321.64
648.38	1315.67
648.72	1310.95
649.06	1305.14
649.41	1297.95
649.75	1292.36
650.09	1287.17
650.43	1280.31
650.78	1272.64
651.12	1266.29
651.46	1259.24
651.80	1253.02
652.14	1247.07
652.49	1241.93
652.83	1236.43
653.17	1230.48
653.51	1223.95
653.85	1218.76
654.20	1212.90
654.54	1206.62
654.88	1200.55
655.22	1194.64
655.56	1188.45
655.90	1182.60
656.25	1176.79
656.59	1170.86
656.93	1164.40
657.27	1158.86
657.61	1152.43
657.95	1147.69
658.29	1142.00
658.64	1137.17
658.98	1130.19
659.32	1123.43
659.66	1116.26
660.00	1110.55
660.34	1104.60
660.68	1098.14
661.02	1091.45
661.36	1085.79
661.70	1079.76
662.05	1074.43
662.39	1067.71
662.73	1062.38
663.07	1057.95
663.41	1052.19
663.75	1046.31
664.09	1041.48
664.43	1034.69
664.77	1029.62
665.11	1022.93
665.45	1016.55
665.79	1010.40
666.13	1005.38
666.47	1000.45
666.81	995.62
667.15	989.14
667.49	983.81
667.83	979.17
668.17	973.29
668.51	967.67
668.85	962.38
669.19	957.55
669.53	951.71
669.87	945.64
670.21	938.74
670.55	932.62
670.89	928.00
671.23	923.00
671.57	918.19
671.91	913.12
672.25	908.21
672.58	904.19
672.92	898.88
673.26	893.21
673.60	888.29
673.94	882.64
674.28	877.88
674.62	873.43
674.96	868.10
675.30	863.71
675.64	858.93
675.97	853.52
676.31	848.00
676.65	842.93
676.99	839.21
677.33	833.88
677.67	829.64
678.01	824.05
678.34	818.43
678.68	813.88
679.02	808.60
679.36	803.55
679.70	798.29
680.04	793.12
680.37	788.57
680.71	783.17
681.05	778.67
681.39	774.07
681.73	768.10
682.06	762.95
682.40	758.10
682.74	753.45
683.08	749.93
683.42	744.26
683.75	740.19
684.09	734.67
684.43	730.43
684.77	725.26
685.10	720.62
685.44	715.50
685.78	710.12
686.12	705.86
686.45	701.14
686.79	696.50
687.13	692.36
687.46	687.93
687.80	684.12
688.14	679.31
688.48	674.74
688.81	670.67
689.15	666.38
689.49	661.50
689.82	656.69
690.16	650.48
690.50	646.17
690.83	640.79
691.17	636.10
691.51	631.33
691.84	627.64
692.18	623.02
692.52	619.02
692.85	614.79
693.19	611.55
693.52	607.43
693.86	602.76
694.20	598.14
694.53	593.90
694.87	589.71
695.21	585.45
695.54	581.10
695.88	576.67
696.21	572.02
696.55	567.81
696.88	563.71
697.22	560.43
697.56	556.74
697.89	552.95
698.23	549.33
698.56	545.00
698.90	540.88
699.23	537.21
699.57	533.07
699.90	529.50
700.24	524.76
700.58	520.74
700.91	517.69
701.25	515.83
701.58	512.74
701.92	509.45
702.25	506.86
702.59	503.24
702.92	500.00
703.26	496.98
703.59	494.17
703.93	492.81
704.26	490.07
704.60	487.17
704.93	484.50
705.26	480.93
705.60	478.90
705.93	475.45
706.27	472.86
706.60	470.62
706.94	468.60
707.27	465.76
707.61	463.21
707.94	460.14
708.27	455.74
708.61	452.48
708.94	449.43
709.28	446.38
709.61	444.12
709.94	441.40
710.28	438.93
710.61	436.40
710.95	431.60
711.28	430.02
711.61	427.45
711.95	425.17
712.28	422.71
712.61	419.95
712.95	418.93
713.28	417.29
713.61	414.10
713.95	410.83
714.28	408.50
714.61	406.14
714.95	403.93
715.28	401.60
715.61	399.19
715.95	396.55
716.28	394.02
716.61	391.86
716.95	389.31
717.28	386.69
717.61	384.33
717.94	382.57
718.28	378.86
718.61	376.62
718.94	374.21
719.27	372.38
719.61	370.38
719.94	367.38
720.27	364.33
720.60	362.29
720.94	360.76
721.27	359.12
721.60	357.93
721.93	356.17
722.27	355.00
722.60	353.81
722.93	352.24
723.26	350.76
723.59	348.69
723.93	347.52
724.26	346.52
724.59	345.02
724.92	343.50
725.25	342.69
725.59	341.29
725.92	340.00
726.25	338.62
726.58	337.29
726.91	336.12
727.24	334.76
727.57	333.71
727.91	331.83
728.24	330.57
728.57	328.62
728.90	327.31
729.23	325.10
729.56	324.38
729.89	323.12
730.22	321.57
730.55	320.17
730.89	318.98
731.22	317.57
731.55	315.83
731.88	314.76
732.21	313.19
732.54	311.88
732.87	310.64
733.20	309.50
733.53	308.52
733.86	307.55
734.19	306.38
734.52	305.60
734.85	305.74
735.18	304.43
735.51	304.10
735.84	303.55
736.17	303.24
736.50	301.21
736.83	302.69
737.16	301.79
737.49	301.12
737.82	299.67
738.15	298.71
738.48	298.36
738.81	297.52
739.14	296.31
739.47	295.21
739.80	294.26
740.13	293.48
740.46	292.33
740.79	290.93
741.12	289.74
741.45	288.48
741.78	286.74
742.11	286.40
742.44	284.93
742.77	284.10
743.10	282.98
743.43	282.40
743.75	279.26
744.08	281.31
744.41	280.43
744.74	279.90
745.07	278.81
745.40	278.12
745.73	277.90
746.06	277.33
746.39	277.00
746.71	276.40
747.04	275.24
747.37	274.24
747.70	273.79
748.03	273.31
748.36	273.07
748.68	272.45
749.01	271.00
749.34	270.17
749.67	269.31
750.00	269.07
750.33	269.88
750.65	269.71
750.98	266.33
751.31	265.76
751.64	265.12
751.97	265.93
752.29	265.26
752.62	263.64
752.95	263.00
753.28	262.10
753.60	261.17
753.93	261.38
754.26	260.98
754.59	260.02
754.91	259.10
755.24	258.36
755.57	257.62
755.90	256.95
756.22	256.55
756.55	255.76
756.88	254.67
757.20	252.67
757.53	251.52
757.86	251.05
758.19	250.69
758.51	250.29
758.84	248.36
759.17	247.71
759.49	247.76
759.82	248.29
760.15	247.79
760.47	247.38
760.80	245.98
761.13	246.12
761.45	245.64
761.78	245.69
762.11	245.45
762.43	245.05
762.76	244.93
763.08	244.90
763.41	244.81
763.74	244.79
764.06	244.33
764.39	244.07
764.71	243.67
765.04	242.71
765.37	242.07
765.69	241.88
766.02	241.29
766.34	240.45
766.67	239.40
767.00	239.69
767.32	240.52
767.65	241.86
767.97	241.24
768.30	241.10
768.62	240.52
768.95	239.69
769.27	239.12
769.60	238.98
769.92	238.05
770.25	237.29
770.57	236.57
770.90	236.52
771.22	236.05
771.55	235.90
771.87	236.24
772.20	235.95
772.52	237.52
772.85	239.79
773.17	239.90
773.50	239.50
773.82	239.02
774.15	237.86
774.47	236.26
774.80	235.79
775.12	235.52
775.45	235.52
775.77	235.48
776.09	235.76
776.42	235.38
776.74	235.93
777.07	235.71
777.39	235.48
777.72	234.86
778.04	234.81
778.36	234.21
778.69	234.10
779.01	234.07
779.33	232.02
779.66	229.71
779.98	229.33
780.31	229.07
780.63	229.67
780.95	229.88
781.28	229.88
781.60	229.29
781.92	229.19
782.25	228.95
782.57	228.71
782.89	228.10
783.22	228.10
783.54	227.50
783.86	227.45
784.19	227.48
784.51	227.95
784.83	227.71
