SpectraSuite Data File
++++++++++++++++++++++++++++++++++++
Date: Tue Apr 02 18:40:11 EDT 2013
User: group
Dark Spectrum Present: No
Reference Spectrum Present: No
Number of Sampled Component Spectra: 1
Spectrometers: USB2E7196
Integration Time (usec): 580000 (USB2E7196)
Spectra Averaged: 2 (USB2E7196)
Boxcar Smoothing: 10 (USB2E7196)
Correct for Electrical Dark: No (USB2E7196)
Strobe/Lamp Enabled: No (USB2E7196)
Correct for Detector Non-linearity: No (USB2E7196)
Correct for Stray Light: No (USB2E7196)
Number of Pixels in Processed Spectrum: 2048
>>>>>Begin Processed Spectral Data<<<<<
339.09	0.00
339.48	195.50
339.86	195.00
340.24	194.50
340.63	200.00
341.01	235.00
341.39	204.00
341.78	204.00
342.16	209.00
342.54	205.50
342.93	198.40
343.31	208.07
343.69	208.74
344.07	209.19
344.46	209.95
344.84	210.55
345.22	209.31
345.60	209.52
345.99	209.93
346.37	210.17
346.75	210.40
347.13	210.48
347.52	210.60
347.90	211.31
348.28	211.43
348.66	211.90
349.05	211.02
349.43	211.40
349.81	211.45
350.19	211.48
350.57	211.86
350.96	211.76
351.34	212.31
351.72	212.24
352.10	212.43
352.48	212.45
352.87	212.57
353.25	212.69
353.63	212.95
354.01	213.00
354.39	213.00
354.77	212.95
355.15	213.52
355.54	213.52
355.92	212.86
356.30	213.17
356.68	214.43
357.06	214.76
357.44	214.31
357.82	214.29
358.20	215.14
358.58	215.02
358.97	215.31
359.35	215.64
359.73	216.26
360.11	216.31
360.49	216.40
360.87	216.19
361.25	216.36
361.63	217.02
362.01	217.05
362.39	216.83
362.77	216.98
363.15	216.83
363.53	216.76
363.91	216.93
364.29	216.64
364.67	214.79
365.05	214.76
365.43	215.31
365.81	215.71
366.19	215.90
366.57	216.76
366.95	216.55
367.33	216.00
367.71	215.74
368.09	216.02
368.47	215.81
368.85	215.71
369.23	216.17
369.61	215.31
369.99	215.98
370.37	216.29
370.75	217.57
371.13	217.24
371.51	216.93
371.89	217.21
372.27	217.29
372.65	217.40
373.03	217.36
373.41	217.00
373.78	216.86
374.16	215.71
374.54	215.00
374.92	214.93
375.30	215.17
375.68	214.81
376.06	214.98
376.44	215.14
376.82	215.36
377.19	215.12
377.57	215.05
377.95	214.48
378.33	214.19
378.71	212.50
379.09	212.98
379.47	213.33
379.84	213.05
380.22	212.81
380.60	212.48
380.98	212.45
381.36	212.48
381.73	212.26
382.11	212.88
382.49	213.00
382.87	212.69
383.25	212.43
383.62	214.95
384.00	214.40
384.38	214.29
384.76	214.69
385.13	215.45
385.51	215.50
385.89	215.07
386.27	215.31
386.64	215.67
387.02	215.14
387.40	215.10
387.78	215.26
388.15	215.48
388.53	215.24
388.91	215.33
389.29	215.26
389.66	215.52
390.04	214.83
390.42	215.24
390.79	215.45
391.17	215.52
391.55	213.05
391.92	213.36
392.30	213.71
392.68	213.26
393.05	213.29
393.43	213.21
393.81	213.43
394.18	213.19
394.56	213.24
394.94	213.71
395.31	213.52
395.69	214.38
396.06	214.55
396.44	214.90
396.82	214.67
397.19	215.90
397.57	215.76
397.95	216.40
398.32	215.69
398.70	215.88
399.07	216.12
399.45	216.21
399.82	216.05
400.20	215.90
400.58	215.86
400.95	214.90
401.33	215.67
401.70	217.24
402.08	217.33
402.45	217.55
402.83	218.07
403.20	218.24
403.58	217.90
403.95	218.40
404.33	219.05
404.71	219.33
405.08	220.24
405.46	220.40
405.83	220.69
406.21	220.95
406.58	221.76
406.96	222.19
407.33	222.98
407.70	223.93
408.08	225.93
408.45	227.02
408.83	228.00
409.20	228.19
409.58	227.74
409.95	228.93
410.33	229.98
410.70	230.26
411.08	231.33
411.45	232.36
411.82	233.14
412.20	234.62
412.57	237.31
412.95	237.21
413.32	239.21
413.69	240.64
414.07	242.55
414.44	244.00
414.82	246.29
415.19	248.67
415.56	250.88
415.94	252.57
416.31	255.40
416.68	258.52
417.06	262.07
417.43	265.69
417.81	269.69
418.18	273.31
418.55	277.52
418.93	282.00
419.30	286.45
419.67	291.31
420.04	296.05
420.42	300.36
420.79	308.05
421.16	314.07
421.54	321.43
421.91	328.14
422.28	335.05
422.66	342.36
423.03	350.60
423.40	357.86
423.77	365.14
424.15	372.62
424.52	380.62
424.89	389.93
425.26	398.29
425.64	406.33
426.01	415.48
426.38	424.81
426.75	434.88
427.13	445.02
427.50	455.17
427.87	465.98
428.24	476.76
428.61	486.02
428.99	497.38
429.36	508.48
429.73	520.88
430.10	533.14
430.47	545.17
430.85	556.81
431.22	570.17
431.59	586.43
431.96	600.10
432.33	615.50
432.70	630.12
433.08	647.74
433.45	664.29
433.82	681.10
434.19	699.79
434.56	717.69
434.93	734.69
435.30	752.07
435.68	770.74
436.05	789.45
436.42	806.98
436.79	824.45
437.16	843.26
437.53	862.90
437.90	882.17
438.27	901.88
438.64	922.02
439.01	941.02
439.38	955.64
439.75	972.05
440.13	990.48
440.50	1007.62
440.87	1020.62
441.24	1035.02
441.61	1050.71
441.98	1062.05
442.35	1075.50
442.72	1088.95
443.09	1103.50
443.46	1111.67
443.83	1117.48
444.20	1123.19
444.57	1129.60
444.94	1133.10
445.31	1136.60
445.68	1142.86
446.05	1143.90
446.42	1142.45
446.79	1141.31
447.16	1139.02
447.53	1137.48
447.90	1129.86
448.27	1122.48
448.64	1113.60
449.01	1106.31
449.37	1093.95
449.74	1082.17
450.11	1069.88
450.48	1053.67
450.85	1036.57
451.22	1022.79
451.59	1009.76
451.96	997.48
452.33	981.07
452.70	965.36
453.07	946.64
453.43	925.62
453.80	907.31
454.17	889.50
454.54	872.52
454.91	855.05
455.28	838.05
455.65	822.33
456.02	809.79
456.38	796.45
456.75	779.74
457.12	765.33
457.49	751.36
457.86	735.93
458.23	725.93
458.59	713.40
458.96	701.07
459.33	689.31
459.70	677.71
460.07	668.67
460.43	658.48
460.80	649.02
461.17	640.81
461.54	632.24
461.91	623.43
462.27	614.45
462.64	607.21
463.01	599.17
463.38	592.07
463.74	581.00
464.11	573.64
464.48	567.55
464.85	560.50
465.21	555.55
465.58	550.17
465.95	542.36
466.32	536.95
466.68	531.33
467.05	526.12
467.42	520.69
467.78	514.40
468.15	509.38
468.52	505.21
468.88	499.17
469.25	494.38
469.62	490.90
469.98	486.93
470.35	483.02
470.72	479.00
471.08	473.98
471.45	470.57
471.82	467.40
472.18	463.62
472.55	461.88
472.92	458.26
473.28	454.81
473.65	452.57
474.02	449.57
474.38	447.21
474.75	445.05
475.11	442.55
475.48	441.12
475.85	439.31
476.21	437.31
476.58	435.86
476.94	434.50
477.31	432.90
477.67	431.40
478.04	430.45
478.41	429.62
478.77	431.14
479.14	430.12
479.50	430.05
479.87	429.76
480.23	429.05
480.60	428.74
480.96	428.67
481.33	429.10
481.69	429.00
482.06	428.81
482.42	429.19
482.79	429.24
483.15	429.67
483.52	430.57
483.88	431.31
484.25	431.95
484.61	433.07
484.98	434.07
485.34	436.00
485.71	437.62
486.07	439.05
486.44	438.55
486.80	440.45
487.17	441.57
487.53	444.69
487.90	447.12
488.26	450.21
488.62	453.14
488.99	455.71
489.35	458.29
489.72	461.38
490.08	464.02
490.44	467.48
490.81	470.90
491.17	474.21
491.54	478.17
491.90	482.29
492.26	486.14
492.63	490.50
492.99	493.81
493.36	498.29
493.72	503.36
494.08	508.19
494.45	512.93
494.81	518.19
495.17	522.50
495.54	527.95
495.90	533.12
496.26	538.62
496.63	544.17
496.99	550.62
497.35	556.69
497.72	563.76
498.08	570.14
498.44	576.45
498.80	583.24
499.17	590.21
499.53	596.95
499.89	604.79
500.26	611.79
500.62	618.83
500.98	626.57
501.34	633.90
501.71	642.00
502.07	649.95
502.43	657.17
502.79	664.93
503.16	672.38
503.52	680.02
503.88	687.33
504.24	695.24
504.60	703.40
504.97	712.17
505.33	720.38
505.69	729.36
506.05	738.52
506.41	747.29
506.78	754.93
507.14	763.33
507.50	771.12
507.86	780.02
508.22	789.48
508.59	797.52
508.95	806.81
509.31	815.93
509.67	824.95
510.03	833.83
510.39	842.76
510.75	851.50
511.12	859.69
511.48	868.55
511.84	876.95
512.20	885.14
512.56	893.40
512.92	901.43
513.28	910.10
513.64	918.38
514.00	927.10
514.37	936.10
514.73	944.07
515.09	952.62
515.45	960.48
515.81	967.69
516.17	975.17
516.53	981.52
516.89	988.24
517.25	994.93
517.61	1003.33
517.97	1010.19
518.33	1017.24
518.69	1025.71
519.05	1033.38
519.41	1040.43
519.77	1049.24
520.13	1056.36
520.49	1062.45
520.85	1068.71
521.21	1076.00
521.57	1082.26
521.93	1088.48
522.29	1095.55
522.65	1101.21
523.01	1108.07
523.37	1114.81
523.73	1121.64
524.09	1128.40
524.45	1134.62
524.81	1141.00
525.17	1146.74
525.53	1153.38
525.89	1159.14
526.25	1164.95
526.61	1170.64
526.97	1176.52
527.33	1181.10
527.68	1187.76
528.04	1194.21
528.40	1199.12
528.76	1203.12
529.12	1208.52
529.48	1214.60
529.84	1219.38
530.20	1225.17
530.56	1230.05
530.91	1235.95
531.27	1241.43
531.63	1246.79
531.99	1251.86
532.35	1256.93
532.71	1261.69
533.07	1266.67
533.42	1275.10
533.78	1280.12
534.14	1285.29
534.50	1290.60
534.86	1296.00
535.21	1299.43
535.57	1304.31
535.93	1309.07
536.29	1315.48
536.65	1320.19
537.00	1324.43
537.36	1329.29
537.72	1333.40
538.08	1337.57
538.44	1341.21
538.79	1345.31
539.15	1349.00
539.51	1353.69
539.87	1358.45
540.22	1362.93
540.58	1367.69
540.94	1369.07
541.29	1372.57
541.65	1375.50
542.01	1379.57
542.37	1383.40
542.72	1386.64
543.08	1390.31
543.44	1394.86
543.79	1396.86
544.15	1400.83
544.51	1404.83
544.87	1409.33
545.22	1413.93
545.58	1418.07
545.94	1421.57
546.29	1425.33
546.65	1429.76
547.01	1432.71
547.36	1436.14
547.72	1439.90
548.07	1443.05
548.43	1446.17
548.79	1449.19
549.14	1452.86
549.50	1456.55
549.86	1459.26
550.21	1463.98
550.57	1468.40
550.92	1471.24
551.28	1475.76
551.64	1479.55
551.99	1482.76
552.35	1485.71
552.70	1489.88
553.06	1494.74
553.41	1498.81
553.77	1503.71
554.13	1508.95
554.48	1514.57
554.84	1519.95
555.19	1523.81
555.55	1529.71
555.90	1535.33
556.26	1540.14
556.61	1544.31
556.97	1547.88
557.32	1552.81
557.68	1556.74
558.03	1560.07
558.39	1564.50
558.74	1569.10
559.10	1574.07
559.45	1579.29
559.81	1584.38
560.16	1587.69
560.52	1591.48
560.87	1596.95
561.23	1600.60
561.58	1604.95
561.94	1608.43
562.29	1612.40
562.64	1618.71
563.00	1621.67
563.35	1625.69
563.71	1630.52
564.06	1635.88
564.42	1641.93
564.77	1647.10
565.12	1653.38
565.48	1659.83
565.83	1666.60
566.19	1672.02
566.54	1676.48
566.89	1681.64
567.25	1687.74
567.60	1694.86
567.96	1702.00
568.31	1707.40
568.66	1713.57
569.02	1717.62
569.37	1722.12
569.72	1726.57
570.08	1730.21
570.43	1734.60
570.78	1738.90
571.14	1744.00
571.49	1748.31
571.84	1752.40
572.20	1755.81
572.55	1759.90
572.90	1762.43
573.26	1764.50
573.61	1767.21
573.96	1770.60
574.31	1773.26
574.67	1774.93
575.02	1776.60
575.37	1776.40
575.72	1778.17
576.08	1779.90
576.43	1782.90
576.78	1785.88
577.13	1787.98
577.49	1790.02
577.84	1792.76
578.19	1794.81
578.54	1797.00
578.90	1799.60
579.25	1801.71
579.60	1803.40
579.95	1803.52
580.30	1806.40
580.66	1808.33
581.01	1810.40
581.36	1811.55
581.71	1813.02
582.06	1815.52
582.42	1818.19
582.77	1819.81
583.12	1821.50
583.47	1822.24
583.82	1822.55
584.17	1823.86
584.53	1825.21
584.88	1825.95
585.23	1826.14
585.58	1828.24
585.93	1827.74
586.28	1827.83
586.63	1827.79
586.98	1829.12
587.34	1830.81
587.69	1830.83
588.04	1831.81
588.39	1831.76
588.74	1830.95
589.09	1831.10
589.44	1828.98
589.79	1827.81
590.14	1827.55
590.49	1826.36
590.84	1825.98
591.19	1825.10
591.54	1823.86
591.89	1823.31
592.25	1823.90
592.60	1822.38
592.95	1820.05
593.30	1819.83
593.65	1818.90
594.00	1816.81
594.35	1820.98
594.70	1818.21
595.05	1816.36
595.40	1814.05
595.75	1812.57
596.10	1811.95
596.45	1810.21
596.80	1809.79
597.15	1808.62
597.50	1807.33
597.85	1806.21
598.19	1804.86
598.54	1804.14
598.89	1801.95
599.24	1800.00
599.59	1797.05
599.94	1795.79
600.29	1793.62
600.64	1791.50
600.99	1789.10
601.34	1788.29
601.69	1780.40
602.04	1778.05
602.39	1775.48
602.74	1773.71
603.08	1769.67
603.43	1768.33
603.78	1766.57
604.13	1764.48
604.48	1760.83
604.83	1758.29
605.18	1755.50
605.53	1752.45
605.87	1749.40
606.22	1747.19
606.57	1744.33
606.92	1740.90
607.27	1738.19
607.62	1736.10
607.96	1732.79
608.31	1730.05
608.66	1726.29
609.01	1721.71
609.36	1718.45
609.70	1714.76
610.05	1711.52
610.40	1709.95
610.75	1704.95
611.10	1701.05
611.44	1696.29
611.79	1691.83
612.14	1687.62
612.49	1682.79
612.83	1677.88
613.18	1672.50
613.53	1667.48
613.88	1661.57
614.22	1655.88
614.57	1650.02
614.92	1644.12
615.27	1639.31
615.61	1634.05
615.96	1628.21
616.31	1623.60
616.65	1620.26
617.00	1615.40
617.35	1609.69
617.70	1604.05
618.04	1598.29
618.39	1591.21
618.74	1585.40
619.08	1578.86
619.43	1573.14
619.78	1567.76
620.12	1562.67
620.47	1557.60
620.82	1550.64
621.16	1545.57
621.51	1541.31
621.85	1535.74
622.20	1530.07
622.55	1523.76
622.89	1517.36
623.24	1512.50
623.59	1506.50
623.93	1499.52
624.28	1494.74
624.62	1491.50
624.97	1487.64
625.32	1482.71
625.66	1477.86
626.01	1472.19
626.35	1468.36
626.70	1462.79
627.04	1457.36
627.39	1451.36
627.73	1446.31
628.08	1443.05
628.43	1437.48
628.77	1432.12
629.12	1426.64
629.46	1421.38
629.81	1416.40
630.15	1411.79
630.50	1405.12
630.84	1399.26
631.19	1392.57
631.53	1386.29
631.88	1378.21
632.22	1369.90
632.57	1364.62
632.91	1358.86
633.26	1353.98
633.60	1347.57
633.95	1341.60
634.29	1334.95
634.64	1329.31
634.98	1322.33
635.32	1316.38
635.67	1310.60
636.01	1304.17
636.36	1297.79
636.70	1292.24
637.05	1285.64
637.39	1279.86
637.73	1274.81
638.08	1270.62
638.42	1265.60
638.77	1259.55
639.11	1252.93
639.45	1247.45
639.80	1241.00
640.14	1234.69
640.49	1227.93
640.83	1222.26
641.17	1216.48
641.52	1211.00
641.86	1204.62
642.20	1199.98
642.55	1192.10
642.89	1185.55
643.23	1178.69
643.58	1173.86
643.92	1166.62
644.26	1160.43
644.61	1153.90
644.95	1146.38
645.29	1138.17
645.64	1131.64
645.98	1124.38
646.32	1118.62
646.66	1111.40
647.01	1104.17
647.35	1098.57
647.69	1092.67
648.04	1086.33
648.38	1079.98
648.72	1073.45
649.06	1067.26
649.41	1059.40
649.75	1053.69
650.09	1047.48
650.43	1040.45
650.78	1033.29
651.12	1027.10
651.46	1020.62
651.80	1013.93
652.14	1008.43
652.49	1002.86
652.83	996.64
653.17	990.50
653.51	983.24
653.85	977.31
654.20	970.57
654.54	963.10
654.88	955.88
655.22	949.98
655.56	942.60
655.90	936.14
656.25	929.21
656.59	923.26
656.93	917.43
657.27	912.14
657.61	906.21
657.95	900.74
658.29	894.36
658.64	889.00
658.98	882.62
659.32	876.12
659.66	869.83
660.00	863.60
660.34	857.93
660.68	852.48
661.02	846.19
661.36	841.05
661.70	835.60
662.05	830.31
662.39	824.57
662.73	820.57
663.07	816.43
663.41	811.31
663.75	805.67
664.09	800.00
664.43	793.38
664.77	787.69
665.11	782.00
665.45	777.17
665.79	771.00
666.13	765.48
666.47	760.24
666.81	755.14
667.15	749.57
667.49	744.60
667.83	740.10
668.17	735.17
668.51	729.55
668.85	724.62
669.19	720.79
669.53	714.88
669.87	708.60
670.21	702.45
670.55	697.12
670.89	693.31
671.23	687.81
671.57	683.36
671.91	679.76
672.25	674.52
672.58	670.10
672.92	665.36
673.26	661.21
673.60	656.60
673.94	652.17
674.28	648.55
674.62	644.07
674.96	638.98
675.30	634.79
675.64	631.24
675.97	626.95
676.31	621.60
676.65	617.24
676.99	614.29
677.33	610.45
677.67	606.74
678.01	601.57
678.34	598.19
678.68	594.29
679.02	589.33
679.36	585.62
679.70	581.02
680.04	577.40
680.37	573.17
680.71	569.40
681.05	565.19
681.39	560.76
681.73	556.71
682.06	552.74
682.40	548.90
682.74	545.07
683.08	541.90
683.42	537.79
683.75	533.98
684.09	529.62
684.43	525.38
684.77	521.48
685.10	518.19
685.44	514.36
685.78	510.38
686.12	507.10
686.45	503.29
686.79	499.60
687.13	496.17
687.46	492.71
687.80	489.88
688.14	486.81
688.48	483.93
688.81	480.74
689.15	478.14
689.49	474.83
689.82	471.55
690.16	467.50
690.50	464.62
690.83	461.60
691.17	458.02
691.51	455.14
691.84	452.52
692.18	449.02
692.52	446.12
692.85	443.50
693.19	441.43
693.52	438.43
693.86	435.64
694.20	432.83
694.53	430.12
694.87	426.95
695.21	423.86
695.54	421.07
695.88	417.74
696.21	414.17
696.55	411.67
696.88	409.12
697.22	406.62
697.56	404.26
697.89	401.74
698.23	399.62
698.56	397.10
698.90	394.86
699.23	392.38
699.57	390.10
699.90	387.43
700.24	384.43
700.58	382.67
700.91	380.83
701.25	380.05
701.58	378.40
701.92	376.79
702.25	374.86
702.59	372.76
702.92	371.38
703.26	369.90
703.59	367.79
703.93	367.26
704.26	365.64
704.60	363.93
704.93	362.21
705.26	360.33
705.60	359.10
705.93	356.88
706.27	356.07
706.60	354.76
706.94	354.12
707.27	352.36
707.61	350.48
707.94	348.90
708.27	345.86
708.61	343.69
708.94	341.88
709.28	340.38
709.61	338.62
709.94	336.76
710.28	335.02
710.61	333.64
710.95	330.40
711.28	330.29
711.61	328.55
711.95	327.52
712.28	325.93
712.61	324.17
712.95	323.83
713.28	323.14
713.61	321.24
713.95	319.33
714.28	318.19
714.61	316.81
714.95	315.33
715.28	313.88
715.61	312.71
715.95	311.71
716.28	310.31
716.61	309.26
716.95	308.05
717.28	306.90
717.61	305.83
717.94	304.81
718.28	301.81
718.61	300.71
718.94	299.14
719.27	298.02
719.61	296.98
719.94	295.19
720.27	292.88
720.60	291.81
720.94	290.69
721.27	290.10
721.60	289.45
721.93	288.14
722.27	287.86
722.60	287.17
722.93	285.50
723.26	284.83
723.59	283.71
723.93	283.19
724.26	282.48
724.59	281.48
724.92	280.62
725.25	280.60
725.59	279.88
725.92	279.24
726.25	278.62
726.58	277.83
726.91	277.12
727.24	276.62
727.57	275.98
727.91	275.12
728.24	274.33
728.57	273.31
728.90	273.10
729.23	271.81
729.56	272.05
729.89	271.95
730.22	271.26
730.55	270.45
730.89	269.67
731.22	269.05
731.55	268.52
731.88	268.29
732.21	267.31
732.54	266.38
732.87	266.19
733.20	265.55
733.53	265.10
733.86	264.50
734.19	263.79
734.52	263.45
734.85	264.19
735.18	263.26
735.51	263.29
735.84	262.79
736.17	262.90
736.50	261.40
736.83	263.12
737.16	262.36
737.49	261.93
737.82	261.19
738.15	261.07
738.48	260.50
738.81	259.43
739.14	258.57
739.47	258.05
739.80	257.12
740.13	256.81
740.46	255.67
740.79	254.98
741.12	254.55
741.45	253.83
741.78	252.19
742.11	252.36
742.44	251.57
742.77	251.45
743.10	250.50
743.43	249.81
743.75	247.14
744.08	249.52
744.41	249.14
744.74	248.71
745.07	247.71
745.40	247.50
745.73	248.17
746.06	248.17
746.39	248.29
746.71	247.62
747.04	246.98
747.37	247.12
747.70	247.19
748.03	246.88
748.36	246.83
748.68	246.38
749.01	245.12
749.34	244.79
749.67	244.24
750.00	244.33
750.33	245.86
750.65	245.64
750.98	242.81
751.31	242.45
751.64	242.17
751.97	243.14
752.29	242.69
752.62	241.40
752.95	241.05
753.28	240.64
753.60	240.57
753.93	240.93
754.26	240.52
754.59	239.45
754.91	238.90
755.24	238.50
755.57	238.33
755.90	238.33
756.22	237.95
756.55	237.64
756.88	236.67
757.20	234.98
757.53	234.29
757.86	234.24
758.19	234.07
758.51	234.10
758.84	232.45
759.17	231.95
759.49	231.95
759.82	232.48
760.15	232.02
760.47	231.83
760.80	230.83
761.13	231.00
761.45	231.10
761.78	230.95
762.11	230.74
762.43	230.57
762.76	230.26
763.08	230.43
763.41	230.21
763.74	230.43
764.06	230.24
764.39	230.19
764.71	229.74
765.04	229.43
765.37	229.05
765.69	229.19
766.02	229.21
766.34	228.76
766.67	228.02
767.00	228.33
767.32	229.12
767.65	230.33
767.97	229.83
768.30	229.60
768.62	229.40
768.95	229.14
769.27	228.67
769.60	228.76
769.92	228.17
770.25	227.45
770.57	226.90
770.90	226.67
771.22	225.95
771.55	226.00
771.87	226.05
772.20	225.64
772.52	227.12
772.85	229.48
773.17	229.43
773.50	229.31
773.82	228.86
774.15	227.79
774.47	226.29
774.80	226.26
775.12	226.10
775.45	226.05
775.77	226.05
776.09	226.21
776.42	225.83
776.74	226.33
777.07	226.40
777.39	226.31
777.72	225.81
778.04	226.26
778.36	225.81
778.69	225.67
779.01	225.76
779.33	223.88
779.66	221.36
779.98	221.21
780.31	221.07
780.63	221.88
780.95	222.17
781.28	222.40
781.60	221.69
781.92	221.81
782.25	221.60
782.57	221.36
782.89	221.00
783.22	221.00
783.54	220.50
783.86	220.33
784.19	220.07
784.51	220.57
784.83	220.12
785.16	219.98
785.48	219.81
