SpectraSuite Data File
++++++++++++++++++++++++++++++++++++
Date: Tue Apr 02 18:43:24 EDT 2013
User: group
Dark Spectrum Present: No
Reference Spectrum Present: No
Number of Sampled Component Spectra: 1
Spectrometers: USB2E7196
Integration Time (usec): 580000 (USB2E7196)
Spectra Averaged: 2 (USB2E7196)
Boxcar Smoothing: 10 (USB2E7196)
Correct for Electrical Dark: No (USB2E7196)
Strobe/Lamp Enabled: No (USB2E7196)
Correct for Detector Non-linearity: No (USB2E7196)
Correct for Stray Light: No (USB2E7196)
Number of Pixels in Processed Spectrum: 2048
>>>>>Begin Processed Spectral Data<<<<<
339.09	0.00
339.48	194.00
339.86	197.50
340.24	193.00
340.63	197.00
341.01	234.00
341.39	201.50
341.78	203.50
342.16	211.50
342.54	202.50
342.93	197.17
343.31	206.86
343.69	207.26
344.07	207.50
344.46	208.45
344.84	208.79
345.22	207.40
345.60	207.76
345.99	208.12
346.37	207.98
346.75	208.12
347.13	208.33
347.52	208.52
347.90	209.02
348.28	209.17
348.66	209.38
349.05	208.79
349.43	208.81
349.81	209.05
350.19	209.02
350.57	208.83
350.96	209.24
351.34	209.74
351.72	210.02
352.10	210.26
352.48	210.07
352.87	210.12
353.25	210.38
353.63	210.24
354.01	210.02
354.39	210.14
354.77	210.26
355.15	211.00
355.54	210.98
355.92	210.48
356.30	210.33
356.68	211.81
357.06	212.02
357.44	212.02
357.82	212.10
358.20	213.19
358.58	213.40
358.97	213.45
359.35	213.71
359.73	214.19
360.11	214.24
360.49	214.36
360.87	214.86
361.25	215.05
361.63	216.00
362.01	216.21
362.39	216.24
362.77	216.48
363.15	216.38
363.53	216.52
363.91	216.62
364.29	216.79
364.67	215.10
365.05	215.24
365.43	215.52
365.81	215.95
366.19	216.14
366.57	216.88
366.95	216.69
367.33	216.31
367.71	216.17
368.09	216.81
368.47	216.83
368.85	216.71
369.23	217.17
369.61	216.33
369.99	217.17
370.37	217.38
370.75	218.55
371.13	218.10
371.51	217.86
371.89	218.29
372.27	218.40
372.65	218.74
373.03	218.88
373.41	218.71
373.78	218.67
374.16	217.62
374.54	217.10
374.92	217.19
375.30	217.43
375.68	217.29
376.06	217.29
376.44	217.38
376.82	217.50
377.19	217.26
377.57	217.36
377.95	216.67
378.33	216.64
378.71	215.24
379.09	215.43
379.47	215.57
379.84	215.38
380.22	214.88
380.60	214.29
380.98	214.26
381.36	214.05
381.73	213.67
382.11	214.19
382.49	214.12
382.87	213.98
383.25	213.86
383.62	215.88
384.00	215.40
384.38	215.36
384.76	215.81
385.13	216.62
385.51	216.64
385.89	216.29
386.27	216.43
386.64	217.00
387.02	216.86
387.40	216.67
387.78	216.52
388.15	216.79
388.53	216.81
388.91	216.71
389.29	216.50
389.66	216.86
390.04	216.38
390.42	216.81
390.79	216.83
391.17	216.76
391.55	214.93
391.92	215.14
392.30	215.55
392.68	215.10
393.05	214.81
393.43	214.74
393.81	215.00
394.18	214.52
394.56	214.21
394.94	214.88
395.31	214.76
395.69	215.48
396.06	215.95
396.44	216.29
396.82	216.07
397.19	217.43
397.57	217.21
397.95	217.71
398.32	217.14
398.70	217.40
399.07	217.93
399.45	217.81
399.82	217.57
400.20	217.02
400.58	216.90
400.95	216.17
401.33	216.81
401.70	218.36
402.08	218.52
402.45	218.71
402.83	219.19
403.20	219.38
403.58	219.07
403.95	219.43
404.33	219.98
404.71	220.38
405.08	221.57
405.46	221.76
405.83	221.76
406.21	222.19
406.58	222.52
406.96	222.36
407.33	223.07
407.70	223.67
408.08	225.95
408.45	226.81
408.83	227.83
409.20	228.21
409.58	227.81
409.95	228.95
410.33	229.76
410.70	229.98
411.08	231.21
411.45	232.38
411.82	233.14
412.20	234.24
412.57	236.55
412.95	236.10
413.32	237.90
413.69	239.43
414.07	241.00
414.44	242.83
414.82	245.21
415.19	247.52
415.56	249.95
415.94	251.05
416.31	253.76
416.68	256.60
417.06	259.88
417.43	263.21
417.81	266.40
418.18	270.40
418.55	274.02
418.93	278.17
419.30	282.45
419.67	286.81
420.04	291.43
420.42	295.86
420.79	302.83
421.16	308.48
421.54	315.24
421.91	321.60
422.28	327.74
422.66	334.24
423.03	342.19
423.40	349.12
423.77	356.43
424.15	363.36
424.52	370.81
424.89	379.33
425.26	387.31
425.64	395.29
426.01	403.31
426.38	412.05
426.75	421.26
427.13	430.33
427.50	440.10
427.87	449.90
428.24	459.74
428.61	468.24
428.99	478.93
429.36	489.50
429.73	500.93
430.10	512.24
430.47	523.38
430.85	533.50
431.22	546.10
431.59	561.29
431.96	574.02
432.33	588.62
432.70	602.36
433.08	618.45
433.45	633.38
433.82	648.83
434.19	665.36
434.56	682.07
434.93	697.90
435.30	713.86
435.68	731.17
436.05	748.81
436.42	765.74
436.79	782.12
437.16	799.93
437.53	817.33
437.90	835.24
438.27	853.71
438.64	872.19
439.01	889.24
439.38	902.19
439.75	917.17
440.13	933.57
440.50	949.05
440.87	961.76
441.24	974.67
441.61	989.14
441.98	1000.55
442.35	1012.43
442.72	1025.40
443.09	1038.98
443.46	1046.71
443.83	1051.57
444.20	1056.52
444.57	1062.07
444.94	1065.14
445.31	1068.48
445.68	1075.07
446.05	1076.29
446.42	1075.24
446.79	1074.45
447.16	1072.93
447.53	1072.26
447.90	1065.95
448.27	1059.48
448.64	1050.60
449.01	1045.19
449.37	1034.33
449.74	1024.26
450.11	1013.76
450.48	998.74
450.85	982.67
451.22	970.45
451.59	958.26
451.96	947.05
452.33	931.90
452.70	917.43
453.07	901.10
453.43	880.67
453.80	864.40
454.17	848.33
454.54	832.52
454.91	816.26
455.28	799.95
455.65	785.14
456.02	773.60
456.38	761.14
456.75	745.62
457.12	731.71
457.49	718.17
457.86	703.52
458.23	693.83
458.59	682.05
458.96	669.64
459.33	659.33
459.70	648.67
460.07	640.02
460.43	630.50
460.80	621.43
461.17	614.14
461.54	605.86
461.91	597.93
462.27	589.48
462.64	582.50
463.01	574.88
463.38	568.31
463.74	557.74
464.11	551.07
464.48	545.55
464.85	539.40
465.21	535.29
465.58	530.14
465.95	523.67
466.32	518.90
466.68	513.93
467.05	508.45
467.42	503.12
467.78	498.12
468.15	493.00
468.52	489.50
468.88	483.79
469.25	479.21
469.62	475.93
469.98	471.90
470.35	468.45
470.72	464.83
471.08	460.00
471.45	457.12
471.82	454.19
472.18	450.45
472.55	448.26
472.92	444.33
473.28	441.29
473.65	438.19
474.02	435.29
474.38	433.60
474.75	431.81
475.11	429.43
475.48	427.62
475.85	425.81
476.21	423.52
476.58	422.02
476.94	420.83
477.31	419.19
477.67	418.19
478.04	417.21
478.41	416.69
478.77	418.38
479.14	417.07
479.50	416.64
479.87	415.64
480.23	415.10
480.60	414.36
480.96	414.33
481.33	415.40
481.69	415.29
482.06	414.81
482.42	415.19
482.79	415.88
483.15	416.38
483.52	417.40
483.88	417.88
484.25	418.57
484.61	419.17
484.98	419.98
485.34	421.69
485.71	423.10
486.07	424.19
486.44	423.55
486.80	425.26
487.17	426.52
487.53	429.36
487.90	431.62
488.26	434.86
488.62	437.86
488.99	439.38
489.35	442.26
489.72	445.07
490.08	447.83
490.44	450.31
490.81	453.50
491.17	456.60
491.54	460.38
491.90	464.57
492.26	467.90
492.63	471.60
492.99	474.45
493.36	478.79
493.72	483.31
494.08	487.69
494.45	492.67
494.81	497.71
495.17	501.95
495.54	507.14
495.90	511.57
496.26	516.10
496.63	522.00
496.99	527.05
497.35	532.69
497.72	538.81
498.08	544.98
498.44	551.17
498.80	557.19
499.17	563.31
499.53	568.98
499.89	575.76
500.26	582.24
500.62	589.19
500.98	596.10
501.34	603.17
501.71	610.79
502.07	617.26
502.43	624.31
502.79	631.33
503.16	638.43
503.52	645.43
503.88	652.95
504.24	660.07
504.60	667.98
504.97	675.88
505.33	683.26
505.69	691.86
506.05	699.43
506.41	707.26
506.78	714.81
507.14	722.36
507.50	729.93
507.86	737.64
508.22	745.69
508.59	752.55
508.95	760.02
509.31	768.38
509.67	776.76
510.03	784.83
510.39	792.98
510.75	800.79
511.12	808.88
511.48	816.57
511.84	823.93
512.20	831.64
512.56	839.43
512.92	847.50
513.28	854.17
513.64	861.60
514.00	869.12
514.37	876.81
514.73	884.83
515.09	892.45
515.45	899.69
515.81	906.98
516.17	914.64
516.53	920.64
516.89	926.76
517.25	933.38
517.61	939.69
517.97	945.62
518.33	951.86
518.69	958.36
519.05	964.57
519.41	971.14
519.77	978.26
520.13	983.71
520.49	988.69
520.85	994.69
521.21	1001.45
521.57	1006.50
521.93	1010.98
522.29	1016.52
522.65	1021.24
523.01	1027.76
523.37	1033.12
523.73	1037.95
524.09	1044.31
524.45	1049.26
524.81	1054.10
525.17	1059.29
525.53	1064.83
525.89	1069.55
526.25	1074.24
526.61	1078.14
526.97	1082.00
527.33	1085.69
527.68	1092.45
528.04	1096.86
528.40	1101.00
528.76	1104.19
529.12	1109.40
529.48	1115.12
529.84	1119.33
530.20	1124.57
530.56	1127.71
530.91	1131.31
531.27	1135.45
531.63	1140.00
531.99	1143.93
532.35	1147.90
532.71	1151.64
533.07	1155.90
533.42	1162.45
533.78	1166.76
534.14	1172.40
534.50	1176.74
534.86	1181.64
535.21	1183.17
535.57	1187.52
535.93	1191.50
536.29	1196.83
536.65	1200.76
537.00	1203.45
537.36	1207.12
537.72	1210.10
538.08	1213.86
538.44	1217.95
538.79	1221.93
539.15	1224.21
539.51	1227.48
539.87	1231.43
540.22	1235.10
540.58	1238.45
540.94	1239.33
541.29	1242.19
541.65	1243.93
542.01	1246.76
542.37	1248.76
542.72	1251.64
543.08	1254.12
543.44	1257.12
543.79	1257.93
544.15	1260.88
544.51	1264.40
544.87	1266.69
545.22	1270.02
545.58	1272.67
545.94	1274.57
546.29	1276.45
546.65	1279.64
547.01	1282.60
547.36	1285.05
547.72	1287.60
548.07	1289.93
548.43	1292.33
548.79	1294.05
549.14	1296.86
549.50	1300.33
549.86	1302.71
550.21	1305.67
550.57	1308.69
550.92	1309.98
551.28	1314.12
551.64	1316.74
551.99	1319.79
552.35	1322.76
552.70	1325.95
553.06	1329.12
553.41	1332.45
553.77	1337.57
554.13	1340.57
554.48	1344.60
554.84	1349.38
555.19	1352.26
555.55	1357.69
555.90	1361.21
556.26	1366.40
556.61	1370.62
556.97	1373.00
557.32	1376.95
557.68	1380.10
558.03	1384.17
558.39	1388.93
558.74	1392.31
559.10	1396.12
559.45	1400.29
559.81	1404.40
560.16	1407.57
560.52	1412.00
560.87	1416.88
561.23	1420.14
561.58	1426.31
561.94	1429.26
562.29	1432.21
562.64	1437.74
563.00	1441.00
563.35	1446.55
563.71	1451.14
564.06	1455.90
564.42	1462.36
564.77	1468.14
565.12	1474.64
565.48	1481.05
565.83	1486.79
566.19	1492.81
566.54	1498.38
566.89	1503.12
567.25	1509.17
567.60	1516.40
567.96	1523.83
568.31	1530.88
568.66	1537.98
569.02	1542.24
569.37	1548.26
569.72	1553.14
570.08	1557.98
570.43	1563.29
570.78	1568.36
571.14	1574.19
571.49	1579.69
571.84	1584.74
572.20	1589.14
572.55	1593.90
572.90	1597.86
573.26	1603.10
573.61	1606.38
573.96	1610.33
574.31	1614.83
574.67	1619.24
575.02	1622.71
575.37	1624.71
575.72	1626.83
576.08	1630.10
576.43	1634.12
576.78	1638.12
577.13	1642.62
577.49	1646.50
577.84	1650.21
578.19	1653.52
578.54	1656.64
578.90	1660.71
579.25	1663.29
579.60	1665.86
579.95	1668.69
580.30	1672.45
580.66	1675.88
581.01	1679.93
581.36	1683.98
581.71	1688.33
582.06	1692.55
582.42	1695.74
582.77	1698.19
583.12	1702.31
583.47	1704.79
583.82	1707.50
584.17	1710.55
584.53	1714.50
584.88	1718.17
585.23	1722.48
585.58	1725.05
585.93	1727.67
586.28	1729.10
586.63	1733.19
586.98	1736.38
587.34	1740.67
587.69	1742.50
588.04	1744.64
588.39	1746.86
588.74	1748.12
589.09	1749.38
589.44	1749.93
589.79	1752.17
590.14	1755.29
590.49	1756.71
590.84	1757.93
591.19	1759.86
591.54	1761.36
591.89	1761.31
592.25	1763.64
592.60	1763.40
592.95	1765.43
593.30	1767.52
593.65	1768.93
594.00	1768.62
594.35	1775.48
594.70	1774.90
595.05	1776.29
595.40	1777.43
595.75	1777.81
596.10	1780.02
596.45	1781.55
596.80	1782.86
597.15	1783.14
597.50	1783.76
597.85	1785.02
598.19	1785.14
598.54	1785.10
598.89	1786.02
599.24	1787.36
599.59	1786.93
599.94	1786.71
600.29	1786.52
600.64	1785.71
600.99	1786.12
601.34	1787.24
601.69	1782.17
602.04	1781.17
602.39	1780.81
602.74	1781.07
603.08	1781.57
603.43	1781.48
603.78	1781.10
604.13	1780.55
604.48	1780.74
604.83	1779.88
605.18	1779.62
605.53	1779.74
605.87	1779.74
606.22	1778.62
606.57	1777.57
606.92	1775.71
607.27	1775.05
607.62	1774.71
607.96	1773.67
608.31	1773.07
608.66	1772.40
609.01	1770.00
609.36	1770.07
609.70	1768.02
610.05	1765.21
610.40	1763.29
610.75	1760.86
611.10	1758.74
611.44	1756.26
611.79	1752.71
612.14	1750.83
612.49	1747.21
612.83	1744.48
613.18	1741.76
613.53	1738.79
613.88	1734.98
614.22	1731.69
614.57	1727.86
614.92	1723.07
615.27	1720.07
615.61	1714.93
615.96	1709.67
616.31	1707.36
616.65	1705.05
617.00	1702.52
617.35	1699.93
617.70	1696.38
618.04	1692.12
618.39	1687.60
618.74	1684.19
619.08	1680.29
619.43	1676.50
619.78	1672.86
620.12	1669.79
620.47	1665.52
620.82	1661.12
621.16	1656.95
621.51	1654.12
621.85	1650.24
622.20	1646.38
622.55	1641.57
622.89	1638.71
623.24	1635.76
623.59	1631.10
623.93	1625.76
624.28	1621.40
624.62	1618.43
624.97	1615.55
625.32	1611.33
625.66	1607.62
626.01	1603.86
626.35	1601.95
626.70	1597.71
627.04	1594.52
627.39	1590.14
627.73	1586.62
628.08	1583.31
628.43	1579.86
628.77	1575.62
629.12	1572.62
629.46	1570.26
629.81	1566.69
630.15	1561.86
630.50	1557.10
630.84	1552.31
631.19	1547.26
631.53	1542.21
631.88	1534.95
632.22	1528.60
632.57	1524.50
632.91	1519.48
633.26	1514.67
633.60	1507.98
633.95	1502.76
634.29	1496.43
634.64	1490.98
634.98	1485.05
635.32	1480.14
635.67	1476.31
636.01	1471.40
636.36	1466.00
636.70	1461.57
637.05	1456.71
637.39	1451.90
637.73	1448.33
638.08	1444.48
638.42	1439.90
638.77	1435.57
639.11	1431.17
639.45	1425.93
639.80	1420.38
640.14	1414.95
640.49	1409.05
640.83	1403.83
641.17	1399.02
641.52	1393.88
641.86	1389.19
642.20	1385.05
642.55	1378.79
642.89	1372.83
643.23	1366.98
643.58	1362.43
643.92	1355.05
644.26	1349.05
644.61	1343.79
644.95	1336.98
645.29	1329.93
645.64	1324.76
645.98	1318.40
646.32	1313.24
646.66	1307.45
647.01	1300.62
647.35	1294.79
647.69	1288.98
648.04	1283.43
648.38	1276.62
648.72	1270.74
649.06	1263.93
649.41	1257.26
649.75	1251.40
650.09	1244.50
650.43	1237.60
650.78	1230.50
651.12	1224.24
651.46	1217.29
651.80	1210.64
652.14	1203.90
652.49	1198.00
652.83	1190.86
653.17	1184.10
653.51	1176.67
653.85	1170.29
654.20	1164.48
654.54	1157.93
654.88	1151.07
655.22	1144.95
655.56	1138.64
655.90	1131.76
656.25	1125.31
656.59	1118.57
656.93	1113.05
657.27	1107.62
657.61	1100.81
657.95	1094.81
658.29	1088.26
658.64	1082.93
658.98	1076.17
659.32	1069.50
659.66	1063.24
660.00	1057.40
660.34	1051.36
660.68	1045.17
661.02	1038.69
661.36	1032.69
661.70	1026.71
662.05	1020.76
662.39	1014.71
662.73	1009.17
663.07	1004.00
663.41	998.17
663.75	992.40
664.09	986.14
664.43	979.43
664.77	973.55
665.11	966.52
665.45	960.67
665.79	954.26
666.13	948.64
666.47	943.19
666.81	937.71
667.15	931.14
667.49	925.74
667.83	921.00
668.17	915.48
668.51	909.52
668.85	904.19
669.19	899.26
669.53	892.90
669.87	887.02
670.21	880.71
670.55	874.12
670.89	869.67
671.23	863.79
671.57	858.26
671.91	853.05
672.25	847.88
672.58	843.12
672.92	837.36
673.26	831.81
673.60	826.57
673.94	820.67
674.28	815.83
674.62	810.10
674.96	804.05
675.30	798.98
675.64	793.88
675.97	788.45
676.31	783.14
676.65	777.62
676.99	773.45
677.33	768.69
677.67	764.64
678.01	758.40
678.34	753.48
678.68	748.86
679.02	743.60
679.36	738.50
679.70	733.38
680.04	728.71
680.37	724.12
680.71	718.86
681.05	715.05
681.39	710.10
681.73	705.12
682.06	700.69
682.40	696.33
682.74	692.07
683.08	688.29
683.42	683.10
683.75	679.19
684.09	673.83
684.43	669.10
684.77	664.02
685.10	659.67
685.44	654.71
685.78	650.40
686.12	646.36
686.45	641.45
686.79	636.62
687.13	633.14
687.46	629.05
687.80	625.62
688.14	620.71
688.48	616.86
688.81	613.07
689.15	609.79
689.49	605.38
689.82	601.36
690.16	596.19
690.50	592.48
690.83	587.98
691.17	583.40
691.51	578.88
691.84	575.33
692.18	571.10
692.52	567.55
692.85	563.57
693.19	560.71
693.52	557.62
693.86	553.93
694.20	549.36
694.53	545.69
694.87	541.55
695.21	537.71
695.54	533.86
695.88	529.64
696.21	524.95
696.55	521.10
696.88	517.33
697.22	514.00
697.56	510.69
697.89	507.33
698.23	504.40
698.56	501.38
698.90	498.00
699.23	494.33
699.57	490.95
699.90	487.48
700.24	483.33
700.58	480.29
700.91	477.33
701.25	475.93
701.58	473.31
701.92	470.45
702.25	467.50
702.59	463.81
702.92	461.17
703.26	458.00
703.59	455.05
703.93	453.67
704.26	451.05
704.60	448.00
704.93	445.12
705.26	442.14
705.60	439.67
705.93	436.74
706.27	434.55
706.60	432.50
706.94	430.76
707.27	427.98
707.61	425.36
707.94	422.67
708.27	418.38
708.61	415.24
708.94	412.88
709.28	410.36
709.61	408.24
709.94	405.90
710.28	403.71
710.61	401.48
710.95	397.50
711.28	396.62
711.61	394.17
711.95	392.43
712.28	390.14
712.61	387.71
712.95	386.64
713.28	385.69
713.61	382.90
713.95	380.17
714.28	378.40
714.61	375.69
714.95	373.81
715.28	371.86
715.61	369.55
715.95	367.57
716.28	365.45
716.61	363.64
716.95	361.50
717.28	359.69
717.61	357.76
717.94	355.60
718.28	352.29
718.61	350.40
718.94	348.38
719.27	346.60
719.61	345.02
719.94	342.79
720.27	339.86
720.60	338.02
720.94	336.05
721.27	334.60
721.60	334.02
721.93	332.38
722.27	331.71
722.60	330.60
722.93	328.90
723.26	327.62
723.59	325.86
723.93	325.10
724.26	323.88
724.59	322.93
724.92	322.05
725.25	321.21
725.59	319.95
725.92	318.90
726.25	317.86
726.58	316.74
726.91	315.43
727.24	314.57
727.57	313.74
727.91	312.50
728.24	311.14
728.57	309.43
728.90	308.48
729.23	306.52
729.56	305.93
729.89	304.88
730.22	303.67
730.55	302.71
730.89	301.40
731.22	300.17
731.55	298.60
731.88	297.45
732.21	296.19
732.54	295.19
732.87	294.26
733.20	293.05
733.53	292.31
733.86	291.57
734.19	290.24
734.52	289.57
734.85	290.00
735.18	289.02
735.51	288.76
735.84	287.62
736.17	287.19
736.50	285.67
736.83	287.10
737.16	286.31
737.49	285.60
737.82	284.69
738.15	284.19
738.48	283.69
738.81	282.90
739.14	282.07
739.47	281.45
739.80	280.57
740.13	280.19
740.46	278.95
740.79	277.74
741.12	277.21
741.45	276.05
741.78	274.29
742.11	274.14
742.44	272.86
742.77	272.79
743.10	271.86
743.43	271.10
743.75	268.24
744.08	270.43
744.41	269.79
744.74	268.95
745.07	267.98
745.40	267.69
745.73	268.00
746.06	267.33
746.39	266.90
746.71	265.93
747.04	264.93
747.37	264.45
747.70	263.93
748.03	263.43
748.36	263.07
748.68	262.52
749.01	261.17
749.34	260.83
749.67	259.83
750.00	259.40
750.33	260.24
750.65	259.86
750.98	256.57
751.31	256.00
751.64	255.67
751.97	256.67
752.29	255.86
752.62	254.33
752.95	253.81
753.28	253.14
753.60	253.00
753.93	253.10
754.26	252.71
754.59	251.98
754.91	251.21
755.24	250.79
755.57	250.71
755.90	250.48
756.22	249.83
756.55	249.19
756.88	248.62
757.20	246.98
757.53	245.83
757.86	245.31
758.19	245.05
758.51	244.50
758.84	242.57
759.17	242.14
759.49	241.86
759.82	242.43
760.15	242.24
760.47	241.69
760.80	240.93
761.13	241.00
761.45	240.55
761.78	240.26
762.11	239.64
762.43	238.69
762.76	238.38
763.08	238.36
763.41	238.55
763.74	238.29
764.06	237.90
764.39	237.88
764.71	237.86
765.04	237.55
765.37	237.05
765.69	236.86
766.02	236.48
766.34	235.98
766.67	234.90
767.00	234.90
767.32	235.71
767.65	236.38
767.97	235.64
768.30	235.83
768.62	235.90
768.95	235.62
769.27	235.45
769.60	235.48
769.92	234.76
770.25	233.95
770.57	233.21
770.90	233.10
771.22	232.79
771.55	232.50
771.87	232.38
772.20	232.52
772.52	233.81
772.85	236.07
773.17	236.02
773.50	235.57
773.82	234.95
774.15	233.67
774.47	232.24
774.80	231.98
775.12	231.45
775.45	230.86
775.77	230.83
776.09	230.74
776.42	230.55
776.74	231.02
777.07	230.90
777.39	230.74
777.72	230.33
778.04	230.14
778.36	229.86
778.69	229.76
779.01	229.40
779.33	227.69
779.66	225.19
779.98	224.93
780.31	224.95
780.63	225.62
780.95	225.86
781.28	225.81
781.60	225.74
781.92	225.79
782.25	225.81
782.57	225.57
782.89	225.10
783.22	224.81
783.54	224.33
783.86	224.38
784.19	224.29
784.51	224.83
784.83	224.71
785.16	224.33
