SpectraSuite Data File
++++++++++++++++++++++++++++++++++++
Date: Tue Apr 02 18:46:12 EDT 2013
User: group
Dark Spectrum Present: No
Reference Spectrum Present: No
Number of Sampled Component Spectra: 1
Spectrometers: USB2E7196
Integration Time (usec): 580000 (USB2E7196)
Spectra Averaged: 2 (USB2E7196)
Boxcar Smoothing: 10 (USB2E7196)
Correct for Electrical Dark: No (USB2E7196)
Strobe/Lamp Enabled: No (USB2E7196)
Correct for Detector Non-linearity: No (USB2E7196)
Correct for Stray Light: No (USB2E7196)
Number of Pixels in Processed Spectrum: 2048
>>>>>Begin Processed Spectral Data<<<<<
339.09	0.00
339.48	194.00
339.86	191.00
340.24	196.00
340.63	197.00
341.01	232.00
341.39	202.00
341.78	206.50
342.16	208.00
342.54	205.00
342.93	197.12
343.31	206.93
343.69	207.40
344.07	208.33
344.46	209.14
344.84	209.95
345.22	208.76
345.60	209.05
345.99	209.19
346.37	209.17
346.75	209.10
347.13	208.90
347.52	208.98
347.90	209.57
348.28	209.40
348.66	210.19
349.05	209.52
349.43	209.43
349.81	209.50
350.19	209.76
350.57	210.12
350.96	210.40
351.34	210.86
351.72	211.00
352.10	210.83
352.48	210.52
352.87	210.14
353.25	210.21
353.63	210.21
354.01	210.12
354.39	210.29
354.77	210.50
355.15	211.07
355.54	211.02
355.92	210.40
356.30	210.60
356.68	211.48
357.06	211.69
357.44	211.62
357.82	211.57
358.20	212.31
358.58	212.21
358.97	212.40
359.35	212.57
359.73	212.90
360.11	213.07
360.49	213.19
360.87	213.50
361.25	213.90
361.63	214.67
362.01	215.14
362.39	215.17
362.77	215.52
363.15	215.38
363.53	215.55
363.91	215.93
364.29	216.19
364.67	214.50
365.05	214.38
365.43	214.81
365.81	215.26
366.19	215.55
366.57	216.57
366.95	216.40
367.33	215.90
367.71	216.17
368.09	216.50
368.47	216.81
368.85	216.69
369.23	217.21
369.61	216.52
369.99	216.74
370.37	217.00
370.75	218.07
371.13	217.95
371.51	217.69
371.89	217.83
372.27	217.90
372.65	218.36
373.03	218.50
373.41	218.19
373.78	217.98
374.16	216.83
374.54	216.10
374.92	216.10
375.30	216.38
375.68	215.93
376.06	216.10
376.44	215.81
376.82	216.10
377.19	215.69
377.57	215.62
377.95	215.17
378.33	215.05
378.71	213.57
379.09	213.86
379.47	214.31
379.84	214.07
380.22	213.88
380.60	213.57
380.98	213.57
381.36	213.50
381.73	213.33
382.11	213.86
382.49	213.86
382.87	213.55
383.25	213.50
383.62	215.95
384.00	215.26
384.38	215.43
384.76	215.60
385.13	216.48
385.51	216.50
385.89	216.31
386.27	216.43
386.64	216.98
387.02	216.81
387.40	216.52
387.78	216.60
388.15	216.55
388.53	216.24
388.91	216.24
389.29	216.07
389.66	216.38
390.04	215.90
390.42	216.36
390.79	216.57
391.17	216.48
391.55	214.29
391.92	214.36
392.30	214.60
392.68	214.36
393.05	214.14
393.43	214.26
393.81	214.29
394.18	214.05
394.56	213.90
394.94	214.05
395.31	213.74
395.69	214.29
396.06	214.60
396.44	214.95
396.82	214.79
397.19	215.71
397.57	215.52
397.95	216.00
398.32	215.31
398.70	215.40
399.07	215.90
399.45	215.60
399.82	215.88
400.20	215.62
400.58	215.48
400.95	214.74
401.33	215.21
401.70	216.88
402.08	216.88
402.45	216.88
402.83	217.31
403.20	217.76
403.58	217.64
403.95	218.07
404.33	218.36
404.71	218.60
405.08	219.88
405.46	220.07
405.83	220.33
406.21	220.69
406.58	221.26
406.96	221.29
407.33	222.05
407.70	222.60
408.08	224.76
408.45	225.50
408.83	226.48
409.20	226.83
409.58	226.24
409.95	227.33
410.33	228.38
410.70	228.83
411.08	229.90
411.45	231.07
411.82	231.83
412.20	233.50
412.57	236.12
412.95	235.67
413.32	237.45
413.69	238.79
414.07	240.57
414.44	242.31
414.82	244.45
415.19	246.71
415.56	248.95
415.94	250.24
416.31	253.10
416.68	255.67
417.06	258.88
417.43	262.38
417.81	265.86
418.18	269.38
418.55	273.21
418.93	277.31
419.30	281.26
419.67	285.83
420.04	290.14
420.42	294.31
420.79	301.52
421.16	307.05
421.54	313.88
421.91	319.95
422.28	325.88
422.66	332.31
423.03	340.19
423.40	347.05
423.77	354.12
424.15	361.40
424.52	368.98
424.89	377.50
425.26	384.98
425.64	392.38
426.01	400.62
426.38	409.36
426.75	418.52
427.13	427.86
427.50	437.26
427.87	447.21
428.24	456.79
428.61	465.40
428.99	476.69
429.36	487.31
429.73	498.36
430.10	509.93
430.47	521.57
430.85	531.69
431.22	544.38
431.59	558.81
431.96	571.29
432.33	585.02
432.70	598.45
433.08	614.55
433.45	629.71
433.82	644.26
434.19	661.02
434.56	677.71
434.93	693.14
435.30	709.14
435.68	726.60
436.05	743.71
436.42	760.26
436.79	776.07
437.16	792.64
437.53	810.79
437.90	828.38
438.27	846.29
438.64	864.55
439.01	881.07
439.38	894.48
439.75	909.17
440.13	925.86
440.50	941.93
440.87	955.50
441.24	968.69
441.61	983.43
441.98	993.81
442.35	1006.52
442.72	1019.69
443.09	1033.45
443.46	1041.02
443.83	1046.19
444.20	1051.17
444.57	1056.74
444.94	1060.55
445.31	1063.98
445.68	1069.57
446.05	1070.71
446.42	1069.50
446.79	1068.88
447.16	1067.45
447.53	1066.52
447.90	1060.40
448.27	1053.64
448.64	1044.07
449.01	1038.57
449.37	1027.71
449.74	1017.88
450.11	1005.98
450.48	991.31
450.85	974.67
451.22	961.55
451.59	949.69
451.96	937.98
452.33	922.74
452.70	908.57
453.07	891.17
453.43	872.10
453.80	856.00
454.17	840.17
454.54	824.74
454.91	808.83
455.28	792.36
455.65	777.79
456.02	766.12
456.38	753.90
456.75	738.17
457.12	725.10
457.49	711.98
457.86	697.62
458.23	687.93
458.59	676.43
458.96	664.83
459.33	654.24
459.70	643.69
460.07	635.29
460.43	625.67
460.80	617.48
461.17	609.98
461.54	601.64
461.91	593.69
462.27	585.14
462.64	577.98
463.01	570.62
463.38	564.33
463.74	553.98
464.11	547.10
464.48	541.57
464.85	535.40
465.21	530.90
465.58	525.86
465.95	518.71
466.32	514.10
466.68	508.93
467.05	504.33
467.42	499.57
467.78	494.31
468.15	489.36
468.52	485.71
468.88	480.21
469.25	475.45
469.62	472.43
469.98	468.67
470.35	465.14
470.72	462.31
471.08	457.14
471.45	454.62
471.82	452.26
472.18	448.64
472.55	446.02
472.92	442.40
473.28	439.69
473.65	436.88
474.02	433.95
474.38	432.24
474.75	430.12
475.11	427.43
475.48	425.79
475.85	424.07
476.21	422.17
476.58	420.98
476.94	420.12
477.31	418.43
477.67	416.98
478.04	415.93
478.41	414.88
478.77	416.74
479.14	415.31
479.50	414.67
479.87	414.26
480.23	414.24
480.60	413.95
480.96	413.90
481.33	415.02
481.69	414.74
482.06	414.57
482.42	415.00
482.79	415.57
483.15	416.10
483.52	417.12
483.88	417.02
484.25	417.52
484.61	418.19
484.98	419.00
485.34	421.14
485.71	422.52
486.07	423.93
486.44	423.26
486.80	424.74
487.17	426.17
487.53	428.79
487.90	430.69
488.26	433.45
488.62	436.38
488.99	438.21
489.35	441.43
489.72	444.38
490.08	447.07
490.44	449.71
490.81	452.90
491.17	455.86
491.54	459.62
491.90	463.36
492.26	466.43
492.63	470.50
492.99	473.88
493.36	477.93
493.72	482.43
494.08	487.10
494.45	491.90
494.81	496.81
495.17	500.90
495.54	506.62
495.90	511.14
496.26	516.19
496.63	521.76
496.99	527.02
497.35	532.33
497.72	538.40
498.08	544.69
498.44	551.00
498.80	557.48
499.17	563.88
499.53	569.76
499.89	577.33
500.26	584.26
500.62	590.60
500.98	597.90
501.34	604.71
501.71	611.90
502.07	619.05
502.43	625.60
502.79	632.69
503.16	639.52
503.52	646.93
503.88	653.50
504.24	660.81
504.60	668.57
504.97	676.69
505.33	683.64
505.69	692.19
506.05	699.48
506.41	706.88
506.78	714.40
507.14	722.21
507.50	730.02
507.86	737.69
508.22	745.95
508.59	753.14
508.95	761.05
509.31	769.86
509.67	777.76
510.03	786.10
510.39	793.81
510.75	801.31
511.12	808.95
511.48	817.02
511.84	824.38
512.20	831.98
512.56	839.48
512.92	847.93
513.28	855.14
513.64	862.43
514.00	870.05
514.37	878.29
514.73	885.71
515.09	892.60
515.45	899.12
515.81	906.19
516.17	912.88
516.53	919.24
516.89	924.76
517.25	930.76
517.61	937.88
517.97	943.71
518.33	949.50
518.69	955.86
519.05	962.05
519.41	968.40
519.77	975.33
520.13	981.52
520.49	986.62
520.85	992.24
521.21	999.33
521.57	1005.45
521.93	1009.24
522.29	1015.07
522.65	1019.57
523.01	1025.60
523.37	1030.90
523.73	1036.17
524.09	1041.76
524.45	1046.83
524.81	1052.19
525.17	1056.86
525.53	1061.98
525.89	1067.57
526.25	1071.88
526.61	1075.55
526.97	1080.29
527.33	1083.81
527.68	1090.21
528.04	1095.43
528.40	1099.17
528.76	1102.88
529.12	1106.33
529.48	1111.95
529.84	1115.52
530.20	1121.02
530.56	1124.95
530.91	1128.50
531.27	1133.17
531.63	1137.17
531.99	1140.64
532.35	1144.40
532.71	1147.10
533.07	1151.86
533.42	1158.21
533.78	1162.86
534.14	1168.29
534.50	1171.86
534.86	1176.83
535.21	1178.52
535.57	1182.12
535.93	1185.76
536.29	1190.02
536.65	1194.38
537.00	1197.02
537.36	1200.93
537.72	1203.64
538.08	1206.88
538.44	1210.79
538.79	1213.83
539.15	1216.55
539.51	1221.07
539.87	1224.52
540.22	1227.64
540.58	1230.79
540.94	1231.81
541.29	1235.29
541.65	1237.05
542.01	1241.00
542.37	1243.10
542.72	1244.26
543.08	1246.50
543.44	1250.12
543.79	1250.76
544.15	1253.45
544.51	1257.71
544.87	1260.67
545.22	1263.86
545.58	1267.14
545.94	1269.24
546.29	1272.31
546.65	1275.02
547.01	1276.31
547.36	1278.95
547.72	1282.00
548.07	1284.07
548.43	1285.90
548.79	1287.50
549.14	1290.02
549.50	1292.40
549.86	1294.12
550.21	1297.95
550.57	1300.98
550.92	1302.98
551.28	1307.38
551.64	1309.95
551.99	1311.86
552.35	1314.40
552.70	1316.45
553.06	1319.33
553.41	1322.00
553.77	1325.83
554.13	1328.74
554.48	1332.81
554.84	1337.50
555.19	1341.48
555.55	1346.52
555.90	1350.81
556.26	1354.60
556.61	1358.69
556.97	1361.14
557.32	1365.24
557.68	1368.95
558.03	1372.38
558.39	1376.74
558.74	1379.76
559.10	1383.64
559.45	1387.86
559.81	1392.31
560.16	1396.67
560.52	1400.38
560.87	1406.21
561.23	1408.90
561.58	1414.79
561.94	1418.38
562.29	1421.93
562.64	1426.40
563.00	1429.88
563.35	1434.36
563.71	1438.90
564.06	1444.17
564.42	1449.93
564.77	1455.79
565.12	1460.83
565.48	1468.45
565.83	1473.88
566.19	1479.55
566.54	1485.43
566.89	1491.29
567.25	1497.26
567.60	1504.60
567.96	1512.33
568.31	1517.81
568.66	1524.48
569.02	1529.40
569.37	1535.57
569.72	1541.67
570.08	1546.64
570.43	1551.57
570.78	1557.05
571.14	1563.07
571.49	1567.86
571.84	1573.55
572.20	1577.95
572.55	1584.05
572.90	1586.48
573.26	1590.33
573.61	1594.57
573.96	1599.05
574.31	1602.81
574.67	1606.14
575.02	1608.86
575.37	1610.45
575.72	1614.02
576.08	1617.81
576.43	1621.17
576.78	1624.55
577.13	1626.71
577.49	1630.60
577.84	1634.83
578.19	1638.83
578.54	1642.81
578.90	1647.36
579.25	1650.60
579.60	1654.14
579.95	1656.10
580.30	1659.83
580.66	1663.95
581.01	1668.07
581.36	1671.26
581.71	1674.81
582.06	1679.45
582.42	1683.26
582.77	1686.64
583.12	1689.40
583.47	1692.69
583.82	1696.36
584.17	1700.29
584.53	1704.95
584.88	1708.21
585.23	1712.40
585.58	1715.33
585.93	1717.31
586.28	1720.31
586.63	1722.74
586.98	1726.88
587.34	1731.33
587.69	1734.21
588.04	1737.86
588.39	1739.31
588.74	1741.21
589.09	1743.79
589.44	1744.60
589.79	1747.62
590.14	1750.38
590.49	1753.31
590.84	1755.14
591.19	1756.83
591.54	1758.67
591.89	1759.67
592.25	1763.26
592.60	1763.48
592.95	1764.83
593.30	1767.02
593.65	1767.69
594.00	1767.98
594.35	1773.71
594.70	1774.24
595.05	1775.62
595.40	1775.52
595.75	1777.71
596.10	1779.38
596.45	1780.45
596.80	1782.00
597.15	1782.38
597.50	1782.79
597.85	1784.14
598.19	1784.86
598.54	1785.43
598.89	1785.26
599.24	1786.98
599.59	1786.21
599.94	1787.02
600.29	1786.55
600.64	1786.45
600.99	1787.17
601.34	1788.88
601.69	1783.90
602.04	1784.07
602.39	1783.31
602.74	1783.74
603.08	1783.45
603.43	1783.52
603.78	1782.71
604.13	1781.81
604.48	1781.10
604.83	1781.33
605.18	1779.67
605.53	1779.19
605.87	1778.36
606.22	1778.55
606.57	1776.07
606.92	1774.33
607.27	1773.62
607.62	1773.57
607.96	1772.81
608.31	1772.07
608.66	1771.00
609.01	1769.52
609.36	1767.76
609.70	1765.79
610.05	1764.02
610.40	1762.29
610.75	1759.38
611.10	1758.93
611.44	1756.93
611.79	1754.83
612.14	1752.57
612.49	1750.24
612.83	1747.90
613.18	1745.74
613.53	1742.93
613.88	1740.33
614.22	1737.81
614.57	1733.81
614.92	1730.12
615.27	1727.05
615.61	1722.26
615.96	1718.33
616.31	1715.26
616.65	1714.00
617.00	1712.31
617.35	1709.17
617.70	1705.69
618.04	1702.12
618.39	1698.29
618.74	1695.24
619.08	1691.40
619.43	1687.86
619.78	1684.33
620.12	1680.76
620.47	1677.57
620.82	1673.43
621.16	1669.05
621.51	1666.64
621.85	1662.76
622.20	1659.17
622.55	1654.67
622.89	1651.67
623.24	1648.74
623.59	1644.50
623.93	1638.88
624.28	1634.81
624.62	1632.79
624.97	1630.67
625.32	1627.17
625.66	1622.90
626.01	1619.02
626.35	1615.62
626.70	1611.55
627.04	1608.60
627.39	1604.31
627.73	1600.93
628.08	1598.21
628.43	1595.67
628.77	1590.50
629.12	1587.33
629.46	1584.45
629.81	1581.45
630.15	1577.17
630.50	1572.19
630.84	1566.86
631.19	1561.95
631.53	1557.64
631.88	1550.88
632.22	1543.69
632.57	1540.07
632.91	1535.67
633.26	1531.29
633.60	1526.14
633.95	1521.05
634.29	1515.10
634.64	1510.67
634.98	1505.26
635.32	1500.67
635.67	1497.02
636.01	1492.50
636.36	1487.76
636.70	1483.05
637.05	1478.26
637.39	1473.93
637.73	1470.21
638.08	1467.02
638.42	1463.98
638.77	1459.40
639.11	1454.57
639.45	1449.74
639.80	1444.86
640.14	1439.60
640.49	1434.02
640.83	1429.07
641.17	1424.76
641.52	1420.40
641.86	1415.76
642.20	1411.14
642.55	1404.93
642.89	1398.81
643.23	1392.79
643.58	1387.26
643.92	1379.83
644.26	1374.31
644.61	1369.17
644.95	1362.83
645.29	1356.95
645.64	1351.50
645.98	1345.36
646.32	1341.00
646.66	1335.31
647.01	1328.57
647.35	1323.17
647.69	1317.79
648.04	1313.07
648.38	1307.14
648.72	1301.17
649.06	1295.26
649.41	1288.98
649.75	1282.95
650.09	1277.24
650.43	1272.40
650.78	1266.29
651.12	1261.64
651.46	1255.62
651.80	1249.00
652.14	1242.95
652.49	1237.57
652.83	1230.76
653.17	1224.88
653.51	1217.83
653.85	1213.40
654.20	1207.38
654.54	1199.71
654.88	1193.52
655.22	1187.64
655.56	1181.31
655.90	1175.40
656.25	1169.00
656.59	1163.33
656.93	1157.29
657.27	1151.83
657.61	1145.43
657.95	1140.00
658.29	1133.52
658.64	1127.48
658.98	1121.19
659.32	1114.57
659.66	1107.76
660.00	1101.40
660.34	1094.76
660.68	1088.88
661.02	1081.76
661.36	1075.98
661.70	1071.21
662.05	1065.57
662.39	1058.55
662.73	1053.45
663.07	1047.95
663.41	1042.02
663.75	1035.71
664.09	1030.36
664.43	1023.12
664.77	1017.24
665.11	1011.26
665.45	1005.50
665.79	999.50
666.13	994.60
666.47	989.17
666.81	983.12
667.15	977.40
667.49	972.69
667.83	968.02
668.17	963.26
668.51	958.07
668.85	953.00
669.19	947.90
669.53	942.43
669.87	936.71
670.21	930.95
670.55	925.29
670.89	921.00
671.23	915.24
671.57	910.00
671.91	905.12
672.25	900.48
672.58	895.98
672.92	890.64
673.26	884.60
673.60	879.14
673.94	874.74
674.28	870.10
674.62	864.83
674.96	858.43
675.30	853.43
675.64	847.95
675.97	842.52
676.31	837.43
676.65	832.02
676.99	828.21
677.33	822.55
677.67	818.31
678.01	812.48
678.34	807.69
678.68	803.48
679.02	797.93
679.36	792.02
679.70	786.69
680.04	781.52
680.37	776.74
680.71	772.31
681.05	767.29
681.39	762.17
681.73	757.40
682.06	753.31
682.40	748.50
682.74	744.07
683.08	740.10
683.42	734.57
683.75	730.00
684.09	723.60
684.43	719.14
684.77	713.76
685.10	708.90
685.44	704.52
685.78	699.40
686.12	694.74
686.45	690.07
686.79	685.05
687.13	681.05
687.46	676.38
687.80	672.29
688.14	667.57
688.48	663.33
688.81	658.74
689.15	655.00
689.49	649.98
689.82	645.19
690.16	639.64
690.50	635.40
690.83	631.02
691.17	626.38
691.51	622.02
691.84	617.98
692.18	613.76
692.52	609.10
692.85	605.62
693.19	602.45
693.52	598.48
693.86	593.81
694.20	589.36
694.53	585.64
694.87	581.21
695.21	577.57
695.54	573.02
695.88	568.29
696.21	562.95
696.55	559.24
696.88	555.52
697.22	551.45
697.56	548.12
697.89	544.71
698.23	541.31
698.56	537.31
698.90	533.69
699.23	529.62
699.57	526.19
699.90	521.98
700.24	517.45
700.58	513.74
700.91	511.00
701.25	509.07
701.58	506.31
701.92	503.45
702.25	499.79
702.59	496.14
702.92	493.00
703.26	489.88
703.59	486.83
703.93	485.48
704.26	483.00
704.60	480.19
704.93	476.67
705.26	473.60
705.60	471.29
705.93	468.19
706.27	465.79
706.60	462.93
706.94	460.83
707.27	457.95
707.61	455.52
707.94	452.76
708.27	448.71
708.61	445.14
708.94	442.14
709.28	439.69
709.61	437.21
709.94	434.69
710.28	431.83
710.61	428.90
710.95	424.45
711.28	423.40
711.61	420.57
711.95	419.05
712.28	416.55
712.61	413.83
712.95	412.31
713.28	410.71
713.61	408.12
713.95	405.05
714.28	403.00
714.61	400.48
714.95	398.07
715.28	395.36
715.61	393.19
715.95	391.10
716.28	388.57
716.61	386.67
716.95	384.57
717.28	382.79
717.61	380.69
717.94	378.67
718.28	374.67
718.61	372.90
718.94	370.14
719.27	367.83
719.61	366.05
719.94	363.33
720.27	360.33
720.60	358.19
720.94	356.38
721.27	354.55
721.60	352.83
721.93	351.12
722.27	350.05
722.60	348.50
722.93	346.64
723.26	345.21
723.59	343.21
723.93	341.69
724.26	340.45
724.59	338.69
724.92	337.64
725.25	337.05
725.59	335.12
725.92	333.88
726.25	332.67
726.58	331.26
726.91	330.00
727.24	329.05
727.57	327.88
727.91	326.10
728.24	324.86
728.57	323.67
728.90	322.48
729.23	320.69
729.56	320.26
729.89	318.86
730.22	317.64
730.55	316.81
730.89	315.45
731.22	313.76
731.55	312.67
731.88	311.36
732.21	309.74
732.54	308.86
732.87	307.74
733.20	306.76
733.53	306.02
733.86	305.19
734.19	303.62
734.52	303.12
734.85	303.71
735.18	302.31
735.51	301.93
735.84	301.38
736.17	301.12
736.50	299.10
736.83	300.40
737.16	299.40
737.49	298.45
737.82	298.00
738.15	297.45
738.48	296.81
738.81	295.83
739.14	294.93
739.47	293.71
739.80	293.05
740.13	292.36
740.46	290.74
740.79	289.05
741.12	288.48
741.45	287.17
741.78	285.02
742.11	284.64
742.44	283.24
742.77	282.60
743.10	281.26
743.43	280.60
743.75	277.95
744.08	279.55
744.41	278.64
744.74	277.62
745.07	276.57
745.40	276.05
745.73	276.10
746.06	275.36
746.39	274.69
746.71	273.40
747.04	272.26
747.37	271.64
747.70	271.79
748.03	270.88
748.36	270.24
748.68	269.83
749.01	268.76
749.34	268.19
749.67	267.40
750.00	267.40
750.33	268.48
750.65	268.05
750.98	265.17
751.31	264.52
751.64	263.71
751.97	264.21
752.29	263.19
752.62	261.64
752.95	260.93
753.28	260.36
753.60	259.71
753.93	259.79
754.26	259.55
754.59	258.29
754.91	257.95
755.24	257.60
755.57	257.05
755.90	256.57
756.22	255.93
756.55	254.90
756.88	253.88
757.20	251.93
757.53	250.57
757.86	249.79
758.19	249.67
758.51	249.60
758.84	247.95
759.17	247.36
759.49	246.81
759.82	247.21
760.15	246.79
760.47	246.31
760.80	245.38
761.13	245.07
761.45	244.57
761.78	243.88
762.11	242.90
762.43	242.17
762.76	241.76
763.08	241.45
763.41	241.31
763.74	241.12
764.06	240.67
764.39	240.50
764.71	240.10
765.04	239.31
765.37	238.67
765.69	238.38
766.02	238.05
766.34	237.74
766.67	236.69
767.00	236.79
767.32	237.76
767.65	238.69
767.97	238.07
768.30	237.83
768.62	237.69
768.95	237.55
769.27	237.33
769.60	237.31
769.92	236.93
770.25	236.33
770.57	235.52
770.90	235.00
771.22	234.64
771.55	234.69
771.87	234.60
772.20	234.26
772.52	235.74
772.85	238.07
773.17	237.98
773.50	237.88
773.82	237.19
774.15	235.83
774.47	234.33
774.80	233.95
775.12	233.64
775.45	233.43
775.77	233.24
776.09	233.17
776.42	232.74
776.74	233.07
777.07	232.81
777.39	232.74
777.72	232.43
778.04	232.67
778.36	232.00
778.69	231.79
779.01	231.93
779.33	230.14
779.66	227.74
779.98	227.45
780.31	227.29
780.63	228.07
780.95	228.48
781.28	228.45
781.60	228.33
781.92	228.45
782.25	228.31
782.57	228.21
782.89	227.86
783.22	227.71
783.54	227.00
783.86	227.24
784.19	226.93
784.51	227.64
784.83	227.21
