SpectraSuite Data File
++++++++++++++++++++++++++++++++++++
Date: Tue Apr 02 18:43:15 EDT 2013
User: group
Dark Spectrum Present: No
Reference Spectrum Present: No
Number of Sampled Component Spectra: 1
Spectrometers: USB2E7196
Integration Time (usec): 580000 (USB2E7196)
Spectra Averaged: 2 (USB2E7196)
Boxcar Smoothing: 10 (USB2E7196)
Correct for Electrical Dark: No (USB2E7196)
Strobe/Lamp Enabled: No (USB2E7196)
Correct for Detector Non-linearity: No (USB2E7196)
Correct for Stray Light: No (USB2E7196)
Number of Pixels in Processed Spectrum: 2048
>>>>>Begin Processed Spectral Data<<<<<
339.09	0.00
339.48	195.00
339.86	193.00
340.24	193.50
340.63	199.50
341.01	233.00
341.39	204.00
341.78	207.50
342.16	210.50
342.54	206.50
342.93	198.02
343.31	207.83
343.69	208.52
344.07	209.05
344.46	209.83
344.84	210.33
345.22	209.00
345.60	209.31
345.99	209.52
346.37	209.43
346.75	209.64
347.13	209.76
347.52	209.88
347.90	210.43
348.28	210.45
348.66	210.98
349.05	210.29
349.43	210.52
349.81	210.50
350.19	210.48
350.57	210.62
350.96	210.57
351.34	210.86
351.72	210.93
352.10	211.10
352.48	211.12
352.87	211.24
353.25	211.40
353.63	211.36
354.01	211.07
354.39	211.33
354.77	211.21
355.15	212.00
355.54	211.76
355.92	211.00
356.30	211.00
356.68	212.26
357.06	212.48
357.44	212.21
357.82	212.17
358.20	212.93
358.58	213.14
358.97	213.12
359.35	213.45
359.73	213.67
360.11	213.62
360.49	213.64
360.87	213.36
361.25	213.64
361.63	214.24
362.01	214.62
362.39	214.43
362.77	214.69
363.15	214.40
363.53	214.45
363.91	214.67
364.29	214.62
364.67	212.71
365.05	212.83
365.43	213.05
365.81	213.52
366.19	213.86
366.57	214.74
366.95	214.90
367.33	214.50
367.71	214.45
368.09	215.17
368.47	215.21
368.85	215.33
369.23	215.69
369.61	215.10
369.99	215.76
370.37	216.07
370.75	217.05
371.13	216.69
371.51	216.55
371.89	216.67
372.27	216.83
372.65	217.12
373.03	217.36
373.41	217.38
373.78	217.14
374.16	216.00
374.54	215.14
374.92	214.90
375.30	214.90
375.68	214.52
376.06	214.43
376.44	214.19
376.82	214.29
377.19	214.14
377.57	214.00
377.95	213.40
378.33	213.19
378.71	212.00
379.09	212.24
379.47	212.48
379.84	212.50
380.22	212.36
380.60	211.93
380.98	211.71
381.36	211.50
381.73	211.38
382.11	211.93
382.49	211.95
382.87	211.86
383.25	211.88
383.62	214.60
384.00	213.98
384.38	214.33
384.76	214.86
385.13	215.64
385.51	215.76
385.89	215.38
386.27	215.60
386.64	215.62
387.02	215.43
387.40	215.24
387.78	215.38
388.15	215.45
388.53	215.29
388.91	215.26
389.29	215.19
389.66	215.36
390.04	215.29
390.42	215.62
390.79	215.86
391.17	215.76
391.55	213.26
391.92	213.45
392.30	213.43
392.68	213.05
393.05	212.88
393.43	212.95
393.81	213.26
394.18	212.93
394.56	213.24
394.94	213.79
395.31	213.43
395.69	213.98
396.06	214.31
396.44	214.62
396.82	214.50
397.19	215.67
397.57	215.74
397.95	215.79
398.32	215.21
398.70	215.38
399.07	216.00
399.45	215.86
399.82	216.00
400.20	215.74
400.58	215.76
400.95	214.95
401.33	215.38
401.70	216.76
402.08	217.00
402.45	217.02
402.83	217.57
403.20	217.88
403.58	217.57
403.95	217.95
404.33	218.52
404.71	218.76
405.08	219.98
405.46	220.10
405.83	220.60
406.21	221.07
406.58	221.55
406.96	221.69
407.33	222.48
407.70	223.14
408.08	225.64
408.45	226.36
408.83	227.36
409.20	227.62
409.58	227.12
409.95	228.31
410.33	229.24
410.70	229.19
411.08	230.60
411.45	232.00
411.82	232.50
412.20	233.90
412.57	236.38
412.95	236.10
413.32	238.12
413.69	239.33
414.07	241.07
414.44	242.79
414.82	244.71
415.19	247.21
415.56	249.45
415.94	250.64
416.31	253.69
416.68	256.50
417.06	259.83
417.43	263.45
417.81	266.88
418.18	270.76
418.55	274.52
418.93	278.24
419.30	282.07
419.67	286.67
420.04	290.98
420.42	295.19
420.79	302.29
421.16	307.62
421.54	314.88
421.91	320.93
422.28	326.93
422.66	333.83
423.03	341.36
423.40	348.31
423.77	355.33
424.15	362.52
424.52	370.05
424.89	378.88
425.26	386.83
425.64	394.29
426.01	402.40
426.38	411.69
426.75	421.40
427.13	431.07
427.50	440.60
427.87	451.14
428.24	460.95
428.61	468.76
428.99	479.83
429.36	490.12
429.73	501.52
430.10	512.90
430.47	524.38
430.85	534.62
431.22	547.55
431.59	562.38
431.96	575.05
432.33	589.62
432.70	602.67
433.08	618.62
433.45	633.95
433.82	649.60
434.19	666.81
434.56	683.60
434.93	699.12
435.30	715.10
435.68	732.07
436.05	749.83
436.42	767.48
436.79	783.33
437.16	800.62
437.53	818.19
437.90	836.33
438.27	854.43
438.64	873.17
439.01	890.14
439.38	903.31
439.75	918.10
440.13	934.64
440.50	950.90
440.87	963.29
441.24	976.29
441.61	990.55
441.98	1001.07
442.35	1013.40
442.72	1026.26
443.09	1039.76
443.46	1047.81
443.83	1052.81
444.20	1057.48
444.57	1063.60
444.94	1066.79
445.31	1070.31
445.68	1076.00
446.05	1077.24
446.42	1076.14
446.79	1074.67
447.16	1073.50
447.53	1072.62
447.90	1066.19
448.27	1059.48
448.64	1050.95
449.01	1045.07
449.37	1034.36
449.74	1022.90
450.11	1011.07
450.48	997.10
450.85	980.93
451.22	968.52
451.59	956.67
451.96	945.14
452.33	929.69
452.70	915.74
453.07	898.98
453.43	879.38
453.80	862.98
454.17	847.05
454.54	831.48
454.91	815.10
455.28	798.81
455.65	783.60
456.02	772.48
456.38	760.17
456.75	744.86
457.12	731.21
457.49	718.55
457.86	704.43
458.23	694.05
458.59	682.74
458.96	670.33
459.33	659.62
459.70	649.05
460.07	640.57
460.43	630.69
460.80	622.29
461.17	614.95
461.54	606.36
461.91	598.24
462.27	589.93
462.64	582.93
463.01	575.36
463.38	569.81
463.74	558.86
464.11	551.86
464.48	545.76
464.85	539.52
465.21	535.48
465.58	530.67
465.95	523.64
466.32	519.21
466.68	514.19
467.05	509.36
467.42	504.17
467.78	498.76
468.15	494.05
468.52	490.05
468.88	484.36
469.25	479.74
469.62	476.33
469.98	473.02
470.35	469.48
470.72	466.00
471.08	460.79
471.45	458.07
471.82	455.57
472.18	451.88
472.55	449.57
472.92	445.57
473.28	442.40
473.65	439.71
474.02	436.50
474.38	434.38
474.75	432.12
475.11	429.55
475.48	428.24
475.85	425.98
476.21	423.95
476.58	422.74
476.94	421.55
477.31	420.21
477.67	418.79
478.04	417.86
478.41	417.12
478.77	418.29
479.14	416.88
479.50	415.93
479.87	415.76
480.23	415.00
480.60	414.95
480.96	414.79
481.33	415.50
481.69	415.33
482.06	415.38
482.42	415.93
482.79	416.57
483.15	416.62
483.52	417.40
483.88	417.98
484.25	418.52
484.61	419.50
484.98	420.19
485.34	421.76
485.71	423.19
486.07	424.50
486.44	424.33
486.80	426.14
487.17	427.69
487.53	430.57
487.90	433.10
488.26	435.81
488.62	438.88
488.99	440.50
489.35	443.55
489.72	446.24
490.08	448.52
490.44	451.48
490.81	454.79
491.17	457.93
491.54	461.45
491.90	465.21
492.26	468.76
492.63	472.62
492.99	476.12
493.36	480.10
493.72	484.43
494.08	488.83
494.45	493.69
494.81	498.55
495.17	502.74
495.54	507.60
495.90	512.36
496.26	517.26
496.63	523.60
496.99	529.02
497.35	534.79
497.72	540.69
498.08	546.43
498.44	552.40
498.80	558.88
499.17	565.00
499.53	571.43
499.89	577.90
500.26	584.81
500.62	591.17
500.98	598.45
501.34	605.14
501.71	612.55
502.07	619.67
502.43	627.17
502.79	634.36
503.16	641.64
503.52	648.57
503.88	655.36
504.24	662.26
504.60	669.81
504.97	676.95
505.33	684.62
505.69	693.38
506.05	700.69
506.41	708.17
506.78	715.74
507.14	723.00
507.50	731.05
507.86	739.00
508.22	747.21
508.59	753.90
508.95	762.17
509.31	770.14
509.67	777.60
510.03	784.62
510.39	792.62
510.75	799.71
511.12	807.62
511.48	815.64
511.84	822.71
512.20	829.88
512.56	838.05
512.92	845.50
513.28	852.14
513.64	860.02
514.00	867.95
514.37	875.83
514.73	883.40
515.09	890.67
515.45	897.12
515.81	903.71
516.17	911.26
516.53	917.31
516.89	923.26
517.25	929.93
517.61	937.31
517.97	943.36
518.33	949.83
518.69	956.48
519.05	962.71
519.41	969.86
519.77	977.48
520.13	983.24
520.49	989.24
520.85	995.60
521.21	1001.93
521.57	1007.50
521.93	1011.93
522.29	1017.71
522.65	1022.76
523.01	1028.33
523.37	1033.62
523.73	1038.50
524.09	1043.76
524.45	1048.95
524.81	1054.10
525.17	1058.79
525.53	1063.98
525.89	1069.12
526.25	1074.17
526.61	1078.52
526.97	1082.26
527.33	1085.60
527.68	1091.57
528.04	1095.81
528.40	1099.36
528.76	1102.76
529.12	1106.64
529.48	1112.40
529.84	1116.31
530.20	1120.76
530.56	1125.12
530.91	1129.55
531.27	1134.57
531.63	1139.24
531.99	1143.45
532.35	1147.14
532.71	1150.79
533.07	1155.10
533.42	1161.74
533.78	1165.50
534.14	1170.21
534.50	1174.24
534.86	1179.33
535.21	1182.26
535.57	1186.64
535.93	1190.40
536.29	1196.00
536.65	1199.67
537.00	1202.43
537.36	1206.17
537.72	1209.83
538.08	1213.40
538.44	1215.93
538.79	1218.83
539.15	1221.48
539.51	1224.74
539.87	1228.81
540.22	1231.86
540.58	1234.79
540.94	1235.52
541.29	1238.69
541.65	1240.26
542.01	1244.76
542.37	1247.45
542.72	1249.45
543.08	1251.90
543.44	1255.38
543.79	1255.95
544.15	1259.67
544.51	1263.62
544.87	1267.12
545.22	1269.86
545.58	1272.60
545.94	1275.93
546.29	1278.62
546.65	1281.86
547.01	1283.93
547.36	1285.98
547.72	1289.00
548.07	1291.50
548.43	1294.05
548.79	1296.17
549.14	1299.71
549.50	1301.50
549.86	1302.76
550.21	1306.10
550.57	1309.14
550.92	1311.40
551.28	1315.50
551.64	1317.90
551.99	1319.98
552.35	1322.45
552.70	1325.36
553.06	1328.88
553.41	1332.95
553.77	1337.17
554.13	1341.36
554.48	1346.79
554.84	1351.79
555.19	1356.57
555.55	1361.14
555.90	1364.76
556.26	1368.71
556.61	1372.31
556.97	1375.12
557.32	1379.76
557.68	1383.02
558.03	1386.24
558.39	1391.10
558.74	1395.10
559.10	1399.33
559.45	1403.76
559.81	1407.86
560.16	1411.90
560.52	1415.43
560.87	1419.67
561.23	1422.95
561.58	1427.21
561.94	1430.02
562.29	1432.62
562.64	1437.10
563.00	1440.79
563.35	1445.26
563.71	1450.19
564.06	1455.71
564.42	1461.60
564.77	1467.95
565.12	1474.02
565.48	1482.38
565.83	1488.17
566.19	1493.02
566.54	1498.60
566.89	1504.69
567.25	1510.79
567.60	1518.10
567.96	1526.60
568.31	1533.17
568.66	1540.21
569.02	1545.24
569.37	1551.07
569.72	1557.57
570.08	1562.26
570.43	1567.88
570.78	1574.50
571.14	1580.31
571.49	1585.43
571.84	1591.43
572.20	1595.83
572.55	1600.62
572.90	1603.45
573.26	1607.38
573.61	1613.29
573.96	1617.24
574.31	1621.24
574.67	1625.36
575.02	1628.69
575.37	1630.12
575.72	1632.71
576.08	1635.95
576.43	1639.67
576.78	1643.17
577.13	1646.69
577.49	1650.38
577.84	1654.71
578.19	1658.02
578.54	1662.33
578.90	1666.57
579.25	1669.74
579.60	1672.36
579.95	1675.52
580.30	1678.88
580.66	1683.38
581.01	1686.17
581.36	1689.62
581.71	1692.60
582.06	1697.07
582.42	1700.79
582.77	1703.24
583.12	1706.64
583.47	1709.81
583.82	1713.86
584.17	1717.17
584.53	1720.57
584.88	1723.74
585.23	1727.45
585.58	1730.21
585.93	1732.24
586.28	1734.62
586.63	1736.67
586.98	1740.12
587.34	1743.88
587.69	1745.26
588.04	1746.86
588.39	1749.26
588.74	1750.07
589.09	1753.24
589.44	1753.24
589.79	1754.79
590.14	1757.93
590.49	1759.52
590.84	1760.93
591.19	1762.12
591.54	1763.79
591.89	1765.12
592.25	1768.50
592.60	1767.74
592.95	1769.52
593.30	1770.14
593.65	1771.33
594.00	1772.05
594.35	1778.88
594.70	1778.79
595.05	1781.26
595.40	1782.17
595.75	1781.86
596.10	1784.33
596.45	1784.29
596.80	1785.33
597.15	1785.86
597.50	1785.79
597.85	1786.57
598.19	1786.19
598.54	1785.98
598.89	1786.83
599.24	1787.50
599.59	1785.67
599.94	1787.19
600.29	1787.14
600.64	1787.83
600.99	1787.64
601.34	1787.57
601.69	1781.38
602.04	1780.48
602.39	1778.43
602.74	1778.88
603.08	1779.12
603.43	1779.55
603.78	1779.00
604.13	1778.12
604.48	1777.62
604.83	1778.24
605.18	1778.98
605.53	1779.57
605.87	1778.50
606.22	1776.07
606.57	1774.10
606.92	1773.05
607.27	1770.83
607.62	1769.05
607.96	1767.86
608.31	1766.60
608.66	1766.36
609.01	1763.43
609.36	1762.60
609.70	1762.26
610.05	1758.76
610.40	1757.40
610.75	1754.88
611.10	1753.57
611.44	1751.60
611.79	1749.29
612.14	1746.76
612.49	1741.79
612.83	1738.14
613.18	1734.67
613.53	1732.36
613.88	1729.76
614.22	1727.29
614.57	1724.10
614.92	1720.52
615.27	1716.50
615.61	1712.17
615.96	1707.45
616.31	1705.43
616.65	1702.71
617.00	1699.55
617.35	1696.98
617.70	1692.93
618.04	1688.90
618.39	1683.83
618.74	1679.90
619.08	1674.83
619.43	1670.26
619.78	1667.62
620.12	1664.86
620.47	1662.64
620.82	1658.76
621.16	1654.05
621.51	1651.26
621.85	1647.26
622.20	1643.26
622.55	1638.81
622.89	1635.62
623.24	1633.33
623.59	1628.19
623.93	1623.60
624.28	1618.90
624.62	1616.86
624.97	1614.05
625.32	1609.62
625.66	1605.36
626.01	1601.55
626.35	1598.74
626.70	1594.81
627.04	1591.43
627.39	1587.05
627.73	1583.76
628.08	1580.50
628.43	1577.38
628.77	1571.38
629.12	1568.12
629.46	1564.74
629.81	1562.05
630.15	1557.38
630.50	1551.64
630.84	1547.64
631.19	1542.60
631.53	1537.57
631.88	1530.00
632.22	1523.38
632.57	1519.17
632.91	1514.31
633.26	1509.98
633.60	1504.83
633.95	1499.38
634.29	1492.81
634.64	1487.83
634.98	1481.74
635.32	1476.90
635.67	1473.17
636.01	1469.10
636.36	1463.60
636.70	1458.60
637.05	1453.12
637.39	1448.50
637.73	1443.81
638.08	1439.26
638.42	1434.76
638.77	1430.55
639.11	1425.31
639.45	1420.50
639.80	1414.45
640.14	1409.69
640.49	1404.10
640.83	1398.24
641.17	1393.90
641.52	1389.05
641.86	1383.76
642.20	1378.69
642.55	1372.26
642.89	1365.45
643.23	1359.05
643.58	1354.36
643.92	1347.60
644.26	1341.38
644.61	1335.55
644.95	1329.48
645.29	1322.83
645.64	1317.00
645.98	1310.79
646.32	1306.14
646.66	1299.57
647.01	1293.98
647.35	1288.62
647.69	1283.10
648.04	1278.00
648.38	1271.71
648.72	1266.17
649.06	1259.55
649.41	1252.60
649.75	1246.31
650.09	1239.95
650.43	1233.50
650.78	1226.05
651.12	1220.07
651.46	1213.24
651.80	1206.69
652.14	1200.50
652.49	1194.71
652.83	1188.45
653.17	1180.79
653.51	1173.81
653.85	1168.31
654.20	1162.17
654.54	1155.12
654.88	1147.76
655.22	1141.10
655.56	1134.07
655.90	1126.81
656.25	1120.40
656.59	1114.40
656.93	1108.21
657.27	1102.64
657.61	1096.33
657.95	1090.93
658.29	1084.45
658.64	1079.74
658.98	1073.02
659.32	1066.21
659.66	1059.93
660.00	1053.52
660.34	1047.76
660.68	1041.19
661.02	1034.21
661.36	1027.81
661.70	1021.50
662.05	1015.79
662.39	1009.26
662.73	1003.95
663.07	999.38
663.41	993.45
663.75	987.12
664.09	981.21
664.43	974.52
664.77	968.12
665.11	961.74
665.45	956.29
665.79	949.48
666.13	943.69
666.47	938.71
666.81	932.55
667.15	926.02
667.49	921.38
667.83	916.57
668.17	910.71
668.51	904.98
668.85	899.38
669.19	894.33
669.53	888.26
669.87	881.74
670.21	874.83
670.55	868.64
670.89	864.05
671.23	858.69
671.57	853.17
671.91	848.48
672.25	843.02
672.58	838.43
672.92	833.05
673.26	827.60
673.60	822.00
673.94	817.07
674.28	812.05
674.62	806.57
674.96	800.79
675.30	796.48
675.64	791.43
675.97	786.67
676.31	780.98
676.65	776.74
676.99	773.19
677.33	768.07
677.67	763.74
678.01	757.69
678.34	753.26
678.68	748.83
679.02	743.29
679.36	738.00
679.70	732.57
680.04	727.45
680.37	722.88
680.71	717.60
681.05	713.31
681.39	708.60
681.73	703.29
682.06	698.67
682.40	694.38
682.74	690.05
683.08	686.36
683.42	681.52
683.75	677.02
684.09	671.07
684.43	666.83
684.77	662.02
685.10	658.10
685.44	653.00
685.78	648.19
686.12	644.02
686.45	639.45
686.79	634.57
687.13	630.69
687.46	626.05
687.80	622.12
688.14	617.71
688.48	613.69
688.81	609.79
689.15	606.60
689.49	601.62
689.82	597.48
690.16	591.79
690.50	587.69
690.83	583.26
691.17	579.29
691.51	575.21
691.84	571.33
692.18	567.14
692.52	563.26
692.85	559.57
693.19	556.88
693.52	553.45
693.86	549.50
694.20	545.29
694.53	541.64
694.87	537.64
695.21	533.57
695.54	529.98
695.88	526.12
696.21	520.69
696.55	517.50
696.88	513.74
697.22	510.43
697.56	507.33
697.89	503.71
698.23	500.79
698.56	497.12
698.90	493.83
699.23	490.10
699.57	487.02
699.90	483.43
700.24	478.98
700.58	475.48
700.91	472.26
701.25	470.90
701.58	468.60
701.92	466.14
702.25	463.17
702.59	459.60
702.92	457.07
703.26	454.74
703.59	451.38
703.93	450.14
704.26	447.67
704.60	444.64
704.93	441.69
705.26	438.05
705.60	436.02
705.93	432.79
706.27	430.81
706.60	428.17
706.94	426.33
707.27	423.43
707.61	420.62
707.94	418.33
708.27	414.21
708.61	410.81
708.94	408.21
709.28	406.07
709.61	403.81
709.94	401.24
710.28	399.07
710.61	396.81
710.95	392.69
711.28	392.02
711.61	390.12
711.95	388.50
712.28	386.62
712.61	384.40
712.95	383.55
713.28	382.43
713.61	380.52
713.95	377.83
714.28	376.24
714.61	374.57
714.95	372.40
715.28	370.43
715.61	368.62
715.95	366.64
716.28	364.19
716.61	362.81
716.95	360.40
717.28	358.45
717.61	356.90
717.94	355.00
718.28	351.55
718.61	349.40
718.94	346.95
719.27	345.10
719.61	343.17
719.94	340.86
720.27	338.17
720.60	336.10
720.94	334.36
721.27	332.79
721.60	331.38
721.93	329.83
722.27	328.81
722.60	327.55
722.93	325.88
723.26	324.98
723.59	323.21
723.93	322.67
724.26	321.10
724.59	319.60
724.92	318.48
725.25	317.76
725.59	316.90
725.92	316.21
726.25	315.26
726.58	314.21
726.91	312.95
727.24	312.26
727.57	311.17
727.91	310.19
728.24	309.31
728.57	308.05
728.90	307.29
729.23	305.60
729.56	305.19
729.89	304.21
730.22	302.71
730.55	301.57
730.89	300.43
731.22	299.45
731.55	298.31
731.88	297.52
732.21	296.24
732.54	294.93
732.87	294.10
733.20	293.19
733.53	292.10
733.86	291.17
734.19	289.40
734.52	288.64
734.85	288.90
735.18	287.52
735.51	287.26
735.84	286.40
736.17	286.12
736.50	284.60
736.83	285.98
737.16	285.40
737.49	284.62
737.82	283.67
738.15	283.19
738.48	282.33
738.81	281.43
739.14	280.31
739.47	279.24
739.80	278.31
740.13	278.00
740.46	276.83
740.79	275.98
741.12	275.31
741.45	274.45
741.78	272.60
742.11	272.50
742.44	271.31
742.77	270.81
743.10	269.83
743.43	269.05
743.75	266.21
744.08	268.26
744.41	267.48
744.74	266.60
745.07	265.67
745.40	265.67
745.73	265.76
746.06	265.07
746.39	264.88
746.71	263.98
747.04	262.76
747.37	262.45
747.70	262.26
748.03	262.12
748.36	261.90
748.68	261.45
749.01	260.24
749.34	259.50
749.67	259.07
750.00	258.88
750.33	259.95
750.65	259.88
750.98	256.60
751.31	256.26
751.64	255.98
751.97	256.64
752.29	255.93
752.62	254.69
752.95	254.31
753.28	253.60
753.60	253.14
753.93	253.50
754.26	253.10
754.59	252.00
754.91	251.24
755.24	250.57
755.57	250.05
755.90	249.79
756.22	249.43
756.55	248.71
756.88	247.86
757.20	246.00
757.53	244.81
757.86	244.17
758.19	244.00
758.51	243.48
758.84	241.76
759.17	241.14
759.49	240.71
759.82	241.14
760.15	240.95
760.47	240.64
760.80	239.43
761.13	239.24
761.45	238.93
761.78	238.50
762.11	237.95
762.43	237.45
762.76	236.93
763.08	236.90
763.41	236.71
763.74	236.43
764.06	236.21
764.39	236.00
764.71	235.86
765.04	235.24
765.37	234.90
765.69	234.90
766.02	234.45
766.34	234.31
766.67	233.50
767.00	233.40
767.32	234.00
767.65	234.93
767.97	234.55
768.30	234.48
768.62	234.26
768.95	234.02
769.27	233.79
769.60	234.07
769.92	233.38
770.25	232.64
770.57	232.07
770.90	231.76
771.22	231.29
771.55	231.19
771.87	230.95
772.20	230.76
772.52	232.12
772.85	234.50
773.17	234.12
773.50	233.76
773.82	233.40
774.15	232.45
774.47	231.21
774.80	230.93
775.12	230.81
775.45	230.88
775.77	230.74
776.09	230.83
776.42	230.57
776.74	231.17
777.07	230.95
777.39	231.05
777.72	230.76
778.04	231.17
778.36	230.60
778.69	230.69
779.01	230.52
779.33	228.60
779.66	226.07
779.98	225.90
780.31	225.57
780.63	226.12
780.95	226.24
781.28	226.07
781.60	225.60
781.92	225.21
782.25	224.90
782.57	224.90
782.89	224.38
783.22	224.33
783.54	223.71
783.86	223.83
784.19	223.60
784.51	224.02
784.83	223.50
785.16	223.52
