SpectraSuite Data File
++++++++++++++++++++++++++++++++++++
Date: Tue Apr 02 18:40:21 EDT 2013
User: group
Dark Spectrum Present: No
Reference Spectrum Present: No
Number of Sampled Component Spectra: 1
Spectrometers: USB2E7196
Integration Time (usec): 580000 (USB2E7196)
Spectra Averaged: 2 (USB2E7196)
Boxcar Smoothing: 10 (USB2E7196)
Correct for Electrical Dark: No (USB2E7196)
Strobe/Lamp Enabled: No (USB2E7196)
Correct for Detector Non-linearity: No (USB2E7196)
Correct for Stray Light: No (USB2E7196)
Number of Pixels in Processed Spectrum: 2048
>>>>>Begin Processed Spectral Data<<<<<
339.09	0.00
339.48	192.50
339.86	197.50
340.24	196.50
340.63	198.50
341.01	230.00
341.39	201.00
341.78	209.00
342.16	211.50
342.54	208.00
342.93	198.88
343.31	208.74
343.69	209.38
344.07	209.79
344.46	210.38
344.84	211.02
345.22	209.88
345.60	210.29
345.99	210.36
346.37	210.31
346.75	210.40
347.13	210.62
347.52	210.48
347.90	211.05
348.28	210.83
348.66	211.26
349.05	210.93
349.43	211.12
349.81	211.36
350.19	210.88
350.57	210.93
350.96	211.05
351.34	211.29
351.72	211.40
352.10	211.45
352.48	211.45
352.87	211.40
353.25	211.79
353.63	211.71
354.01	211.76
354.39	211.93
354.77	212.00
355.15	212.62
355.54	212.52
355.92	212.00
356.30	212.48
356.68	213.76
357.06	213.76
357.44	213.81
357.82	213.71
358.20	214.81
358.58	214.62
358.97	214.55
359.35	214.88
359.73	215.21
360.11	215.38
360.49	215.62
360.87	215.74
361.25	215.83
361.63	216.64
362.01	216.83
362.39	216.60
362.77	216.69
363.15	216.48
363.53	216.52
363.91	216.79
364.29	216.69
364.67	214.67
365.05	214.45
365.43	214.64
365.81	215.00
366.19	215.10
366.57	215.83
366.95	215.88
367.33	215.40
367.71	215.50
368.09	215.86
368.47	215.86
368.85	215.69
369.23	216.12
369.61	215.50
369.99	216.02
370.37	216.50
370.75	217.74
371.13	217.43
371.51	217.26
371.89	217.43
372.27	217.31
372.65	217.52
373.03	218.02
373.41	217.79
373.78	217.55
374.16	216.55
374.54	216.12
374.92	216.12
375.30	216.19
375.68	215.86
376.06	216.10
376.44	215.76
376.82	215.90
377.19	215.48
377.57	215.38
377.95	214.67
378.33	214.31
378.71	212.90
379.09	213.10
379.47	213.29
379.84	213.02
380.22	213.02
380.60	212.55
380.98	212.17
381.36	212.24
381.73	211.74
382.11	212.17
382.49	212.17
382.87	211.83
383.25	212.12
383.62	214.36
384.00	213.71
384.38	213.76
384.76	214.29
385.13	215.31
385.51	215.24
385.89	215.10
386.27	215.12
386.64	215.21
387.02	215.17
387.40	215.19
387.78	215.29
388.15	215.29
388.53	215.45
388.91	215.52
389.29	215.45
389.66	215.81
390.04	215.55
390.42	215.74
390.79	215.98
391.17	215.48
391.55	213.43
391.92	213.60
392.30	213.90
392.68	213.29
393.05	213.05
393.43	213.19
393.81	213.33
394.18	213.24
394.56	213.64
394.94	214.12
395.31	213.90
395.69	214.48
396.06	214.95
396.44	215.10
396.82	215.02
397.19	215.79
397.57	215.76
397.95	215.98
398.32	215.55
398.70	215.64
399.07	216.38
399.45	216.21
399.82	216.10
400.20	215.74
400.58	215.71
400.95	214.90
401.33	215.17
401.70	216.69
402.08	216.81
402.45	216.67
402.83	217.05
403.20	217.19
403.58	217.14
403.95	217.50
404.33	218.02
404.71	218.31
405.08	219.62
405.46	219.93
405.83	220.74
406.21	221.10
406.58	221.45
406.96	221.60
407.33	222.10
407.70	222.95
408.08	225.36
408.45	226.31
408.83	227.26
409.20	227.74
409.58	227.12
409.95	228.12
410.33	229.26
410.70	229.52
411.08	230.86
411.45	231.95
411.82	232.67
412.20	234.12
412.57	236.67
412.95	236.40
413.32	238.36
413.69	239.38
414.07	241.05
414.44	242.86
414.82	244.98
415.19	247.55
415.56	249.71
415.94	251.26
416.31	254.43
416.68	257.50
417.06	261.26
417.43	265.48
417.81	269.07
418.18	272.90
418.55	276.88
418.93	281.31
419.30	285.81
419.67	290.76
420.04	295.69
420.42	300.31
420.79	308.00
421.16	313.93
421.54	321.67
421.91	328.52
422.28	335.57
422.66	342.69
423.03	351.19
423.40	358.79
423.77	366.62
424.15	374.31
424.52	382.40
424.89	391.07
425.26	399.07
425.64	407.60
426.01	416.17
426.38	425.62
426.75	435.52
427.13	445.02
427.50	455.12
427.87	465.57
428.24	476.24
428.61	485.31
428.99	497.26
429.36	507.74
429.73	519.71
430.10	532.00
430.47	544.57
430.85	556.12
431.22	569.17
431.59	584.83
431.96	597.86
432.33	612.71
432.70	627.50
433.08	644.88
433.45	661.19
433.82	677.38
434.19	695.76
434.56	713.50
434.93	730.12
435.30	746.57
435.68	765.67
436.05	783.52
436.42	801.05
436.79	818.24
437.16	837.45
437.53	856.21
437.90	875.12
438.27	894.05
438.64	913.07
439.01	931.29
439.38	946.36
439.75	962.79
440.13	980.98
440.50	997.45
440.87	1011.02
441.24	1025.00
441.61	1040.83
441.98	1052.36
442.35	1065.43
442.72	1079.69
443.09	1094.48
443.46	1102.57
443.83	1109.17
444.20	1114.81
444.57	1120.64
444.94	1123.60
445.31	1127.57
445.68	1132.62
446.05	1133.81
446.42	1132.02
446.79	1131.36
447.16	1128.02
447.53	1126.74
447.90	1119.81
448.27	1113.79
448.64	1103.81
449.01	1097.52
449.37	1085.10
449.74	1072.86
450.11	1060.31
450.48	1044.31
450.85	1027.55
451.22	1013.67
451.59	1000.10
451.96	987.45
452.33	971.40
452.70	955.83
453.07	937.60
453.43	917.50
453.80	900.12
454.17	884.17
454.54	867.45
454.91	850.83
455.28	833.57
455.65	817.48
456.02	804.21
456.38	791.36
456.75	774.45
457.12	760.90
457.49	747.26
457.86	732.38
458.23	722.19
458.59	710.19
458.96	697.00
459.33	685.76
459.70	674.64
460.07	665.17
460.43	655.14
460.80	645.98
461.17	638.17
461.54	629.19
461.91	620.12
462.27	610.93
462.64	603.64
463.01	595.26
463.38	588.24
463.74	577.19
464.11	569.76
464.48	563.50
464.85	556.71
465.21	552.26
465.58	546.83
465.95	539.64
466.32	533.52
466.68	528.50
467.05	523.33
467.42	517.79
467.78	511.86
468.15	506.98
468.52	502.62
468.88	496.50
469.25	491.45
469.62	487.69
469.98	483.55
470.35	479.76
470.72	476.21
471.08	471.79
471.45	469.10
471.82	466.19
472.18	462.76
472.55	460.07
472.92	456.33
473.28	453.36
473.65	450.07
474.02	447.60
474.38	445.50
474.75	443.33
475.11	441.02
475.48	439.60
475.85	437.60
476.21	435.93
476.58	434.90
476.94	433.69
477.31	432.40
477.67	431.40
478.04	430.02
478.41	429.24
478.77	430.45
479.14	429.17
479.50	428.36
479.87	427.76
480.23	427.45
480.60	427.07
480.96	426.74
481.33	427.81
481.69	427.69
482.06	427.86
482.42	428.24
482.79	428.88
483.15	429.29
483.52	430.40
483.88	430.83
484.25	431.43
484.61	432.50
484.98	433.24
485.34	434.90
485.71	436.64
486.07	438.31
486.44	438.10
486.80	439.57
487.17	441.55
487.53	444.48
487.90	446.79
488.26	450.07
488.62	453.24
488.99	455.43
489.35	458.24
489.72	461.33
490.08	463.90
490.44	466.62
490.81	469.71
491.17	472.57
491.54	476.12
491.90	479.88
492.26	484.07
492.63	488.17
492.99	491.95
493.36	496.17
493.72	501.07
494.08	505.57
494.45	511.19
494.81	516.48
495.17	521.00
495.54	526.43
495.90	530.79
496.26	536.10
496.63	541.74
496.99	547.69
497.35	553.48
497.72	560.00
498.08	566.05
498.44	572.90
498.80	579.71
499.17	586.74
499.53	593.19
499.89	600.19
500.26	607.26
500.62	614.36
500.98	622.05
501.34	629.07
501.71	637.43
502.07	644.64
502.43	651.86
502.79	659.67
503.16	666.74
503.52	675.00
503.88	681.69
504.24	690.10
504.60	698.52
504.97	707.05
505.33	715.07
505.69	724.38
506.05	732.62
506.41	741.26
506.78	749.86
507.14	758.29
507.50	766.67
507.86	775.48
508.22	783.45
508.59	791.24
508.95	799.79
509.31	809.19
509.67	817.67
510.03	825.95
510.39	834.12
510.75	842.93
511.12	851.29
511.48	861.02
511.84	868.74
512.20	876.71
512.56	884.67
512.92	893.29
513.28	901.74
513.64	909.83
514.00	917.57
514.37	924.98
514.73	933.12
515.09	941.29
515.45	948.74
515.81	956.74
516.17	964.60
516.53	971.83
516.89	977.79
517.25	985.38
517.61	993.17
517.97	1000.29
518.33	1007.43
518.69	1014.86
519.05	1021.79
519.41	1028.98
519.77	1037.19
520.13	1044.43
520.49	1051.12
520.85	1057.69
521.21	1065.26
521.57	1071.57
521.93	1077.45
522.29	1084.60
522.65	1090.33
523.01	1096.90
523.37	1103.57
523.73	1110.07
524.09	1116.64
524.45	1121.95
524.81	1126.98
525.17	1133.02
525.53	1138.86
525.89	1144.45
526.25	1150.26
526.61	1155.31
526.97	1160.24
527.33	1164.81
527.68	1171.64
528.04	1177.14
528.40	1181.12
528.76	1186.17
529.12	1191.52
529.48	1198.07
529.84	1202.14
530.20	1207.93
530.56	1212.64
530.91	1217.43
531.27	1222.45
531.63	1227.43
531.99	1232.19
532.35	1237.88
532.71	1242.24
533.07	1247.95
533.42	1255.45
533.78	1260.52
534.14	1265.98
534.50	1270.95
534.86	1276.10
535.21	1279.26
535.57	1283.83
535.93	1289.21
536.29	1294.83
536.65	1300.02
537.00	1303.86
537.36	1308.90
537.72	1313.29
538.08	1318.26
538.44	1322.67
538.79	1327.57
539.15	1331.02
539.51	1337.26
539.87	1341.79
540.22	1346.48
540.58	1350.12
540.94	1352.36
541.29	1355.52
541.65	1358.81
542.01	1363.69
542.37	1366.98
542.72	1369.88
543.08	1372.79
543.44	1377.02
543.79	1378.40
544.15	1382.26
544.51	1386.29
544.87	1390.36
545.22	1393.57
545.58	1396.90
545.94	1401.21
546.29	1404.79
546.65	1409.55
547.01	1411.57
547.36	1414.90
547.72	1417.86
548.07	1421.31
548.43	1424.05
548.79	1427.36
549.14	1430.52
549.50	1433.83
549.86	1436.90
550.21	1441.52
550.57	1446.10
550.92	1449.14
551.28	1453.79
551.64	1457.24
551.99	1461.64
552.35	1465.05
552.70	1468.90
553.06	1472.95
553.41	1475.45
553.77	1480.19
554.13	1484.10
554.48	1489.79
554.84	1494.81
555.19	1499.90
555.55	1505.57
555.90	1510.10
556.26	1515.10
556.61	1519.67
556.97	1522.98
557.32	1527.60
557.68	1530.50
558.03	1534.07
558.39	1538.69
558.74	1543.12
559.10	1546.93
559.45	1551.69
559.81	1556.33
560.16	1560.12
560.52	1564.79
560.87	1570.52
561.23	1573.48
561.58	1578.64
561.94	1581.76
562.29	1585.60
562.64	1590.17
563.00	1593.76
563.35	1599.10
563.71	1603.83
564.06	1609.07
564.42	1614.31
564.77	1620.07
565.12	1626.90
565.48	1634.81
565.83	1640.26
566.19	1645.50
566.54	1650.76
566.89	1655.17
567.25	1660.05
567.60	1667.45
567.96	1674.40
568.31	1680.81
568.66	1687.17
569.02	1691.12
569.37	1695.71
569.72	1700.62
570.08	1704.60
570.43	1708.83
570.78	1713.60
571.14	1718.07
571.49	1722.60
571.84	1727.57
572.20	1731.55
572.55	1735.10
572.90	1736.57
573.26	1739.83
573.61	1742.62
573.96	1747.17
574.31	1751.29
574.67	1755.67
575.02	1758.29
575.37	1759.14
575.72	1760.02
576.08	1762.45
576.43	1764.67
576.78	1768.40
577.13	1770.86
577.49	1774.12
577.84	1776.26
578.19	1778.69
578.54	1782.43
578.90	1785.64
579.25	1787.71
579.60	1788.86
579.95	1790.12
580.30	1792.57
580.66	1795.36
581.01	1798.17
581.36	1798.93
581.71	1800.19
582.06	1801.88
582.42	1803.93
582.77	1805.12
583.12	1806.45
583.47	1807.26
583.82	1809.14
584.17	1810.45
584.53	1812.31
584.88	1813.24
585.23	1815.36
585.58	1815.64
585.93	1815.05
586.28	1815.36
586.63	1816.38
586.98	1818.48
587.34	1819.55
587.69	1819.83
588.04	1820.24
588.39	1820.69
588.74	1820.38
589.09	1819.79
589.44	1818.40
589.79	1817.02
590.14	1817.12
590.49	1817.29
590.84	1815.95
591.19	1816.40
591.54	1815.79
591.89	1814.55
592.25	1815.64
592.60	1814.19
592.95	1813.98
593.30	1814.86
593.65	1813.45
594.00	1812.29
594.35	1816.12
594.70	1814.86
595.05	1813.74
595.40	1812.14
595.75	1811.05
596.10	1811.31
596.45	1810.60
596.80	1810.17
597.15	1809.31
597.50	1807.50
597.85	1807.05
598.19	1806.24
598.54	1804.57
598.89	1802.95
599.24	1801.93
599.59	1798.79
599.94	1798.19
600.29	1796.52
600.64	1793.81
600.99	1791.95
601.34	1791.26
601.69	1784.19
602.04	1782.81
602.39	1781.64
602.74	1779.60
603.08	1776.31
603.43	1775.21
603.78	1772.52
604.13	1771.05
604.48	1768.38
604.83	1767.67
605.18	1765.50
605.53	1764.21
605.87	1760.76
606.22	1757.98
606.57	1754.93
606.92	1752.24
607.27	1748.79
607.62	1745.86
607.96	1743.05
608.31	1741.21
608.66	1737.24
609.01	1734.00
609.36	1730.55
609.70	1726.88
610.05	1723.52
610.40	1720.69
610.75	1714.88
611.10	1712.29
611.44	1707.12
611.79	1702.76
612.14	1698.45
612.49	1692.64
612.83	1687.36
613.18	1682.86
613.53	1678.24
613.88	1673.26
614.22	1668.86
614.57	1663.69
614.92	1658.57
615.27	1653.52
615.61	1647.81
615.96	1642.21
616.31	1636.31
616.65	1632.05
617.00	1626.95
617.35	1622.43
617.70	1617.69
618.04	1612.50
618.39	1605.88
618.74	1600.76
619.08	1595.60
619.43	1589.36
619.78	1584.98
620.12	1580.69
620.47	1576.69
620.82	1571.38
621.16	1565.33
621.51	1560.29
621.85	1554.90
622.20	1548.93
622.55	1542.05
622.89	1535.64
623.24	1530.38
623.59	1525.02
623.93	1519.24
624.28	1513.86
624.62	1509.36
624.97	1504.98
625.32	1500.26
625.66	1495.52
626.01	1490.10
626.35	1485.26
626.70	1480.57
627.04	1475.74
627.39	1469.57
627.73	1464.31
628.08	1459.24
628.43	1455.33
628.77	1449.69
629.12	1444.81
629.46	1440.50
629.81	1436.00
630.15	1430.02
630.50	1424.29
630.84	1418.43
631.19	1412.33
631.53	1406.43
631.88	1398.86
632.22	1390.83
632.57	1385.36
632.91	1379.14
633.26	1373.38
633.60	1366.79
633.95	1360.48
634.29	1353.81
634.64	1347.67
634.98	1340.33
635.32	1334.90
635.67	1329.00
636.01	1322.52
636.36	1316.05
636.70	1310.36
637.05	1303.98
637.39	1299.43
637.73	1294.14
638.08	1289.60
638.42	1283.95
638.77	1278.31
639.11	1272.33
639.45	1267.26
639.80	1261.36
640.14	1255.86
640.49	1249.36
640.83	1242.93
641.17	1236.76
641.52	1230.67
641.86	1224.95
642.20	1220.05
642.55	1212.64
642.89	1205.76
643.23	1199.17
643.58	1193.90
643.92	1186.43
644.26	1180.14
644.61	1173.98
644.95	1166.79
645.29	1159.81
645.64	1153.67
645.98	1146.60
646.32	1140.74
646.66	1133.67
647.01	1126.95
647.35	1120.36
647.69	1113.98
648.04	1108.88
648.38	1103.10
648.72	1096.76
649.06	1090.00
649.41	1082.55
649.75	1076.19
650.09	1069.86
650.43	1062.69
650.78	1055.79
651.12	1049.33
651.46	1042.57
651.80	1035.36
652.14	1029.10
652.49	1023.40
652.83	1016.67
653.17	1010.38
653.51	1003.40
653.85	997.17
654.20	990.12
654.54	982.90
654.88	975.90
655.22	969.60
655.56	962.60
655.90	956.02
656.25	949.62
656.59	943.88
656.93	938.00
657.27	932.64
657.61	926.90
657.95	920.50
658.29	914.52
658.64	909.10
658.98	903.10
659.32	897.05
659.66	889.98
660.00	884.14
660.34	878.50
660.68	872.90
661.02	867.07
661.36	861.52
661.70	856.57
662.05	851.79
662.39	846.17
662.73	841.21
663.07	836.79
663.41	831.02
663.75	825.00
664.09	819.26
664.43	812.67
664.77	807.12
665.11	801.19
665.45	796.05
665.79	790.40
666.13	784.55
666.47	779.12
666.81	774.10
667.15	768.67
667.49	763.40
667.83	758.76
668.17	753.36
668.51	748.19
668.85	742.81
669.19	738.60
669.53	732.95
669.87	727.26
670.21	721.36
670.55	716.45
670.89	712.43
671.23	707.52
671.57	702.98
671.91	698.93
672.25	694.71
672.58	690.21
672.92	685.10
673.26	681.05
673.60	676.79
673.94	671.98
674.28	667.48
674.62	663.21
674.96	657.69
675.30	653.86
675.64	650.02
675.97	646.14
676.31	640.79
676.65	636.17
676.99	632.69
677.33	628.19
677.67	624.67
678.01	619.55
678.34	615.33
678.68	611.50
679.02	607.00
679.36	603.17
679.70	599.07
680.04	595.21
680.37	591.05
680.71	586.33
681.05	582.55
681.39	578.21
681.73	573.74
682.06	570.29
682.40	566.19
682.74	561.83
683.08	558.57
683.42	554.40
683.75	550.45
684.09	545.93
684.43	542.19
684.77	537.48
685.10	533.55
685.44	530.12
685.78	526.19
686.12	522.45
686.45	518.17
686.79	514.10
687.13	510.88
687.46	507.10
687.80	504.36
688.14	500.95
688.48	497.74
688.81	494.38
689.15	491.60
689.49	488.12
689.82	484.81
690.16	480.55
690.50	477.62
690.83	474.50
691.17	470.95
691.51	468.07
691.84	465.40
692.18	462.31
692.52	459.12
692.85	456.29
693.19	454.12
693.52	451.48
693.86	448.21
694.20	445.12
694.53	442.69
694.87	439.52
695.21	436.38
695.54	433.17
695.88	429.83
696.21	425.79
696.55	423.00
696.88	420.29
697.22	417.12
697.56	414.95
697.89	412.24
698.23	409.98
698.56	406.79
698.90	404.57
699.23	402.19
699.57	399.74
699.90	396.57
700.24	393.62
700.58	390.95
700.91	389.21
701.25	388.67
701.58	386.93
701.92	385.17
702.25	382.88
702.59	380.57
702.92	378.88
703.26	377.14
703.59	375.07
703.93	374.52
704.26	372.83
704.60	370.86
704.93	368.93
705.26	366.86
705.60	365.36
705.93	362.86
706.27	361.88
706.60	360.50
706.94	360.00
707.27	358.00
707.61	356.36
707.94	354.38
708.27	351.00
708.61	348.40
708.94	346.45
709.28	344.83
709.61	343.19
709.94	341.52
710.28	340.17
710.61	338.79
710.95	335.29
711.28	335.17
711.61	333.24
711.95	332.05
712.28	330.60
712.61	329.07
712.95	328.52
713.28	327.50
713.61	325.67
713.95	323.43
714.28	322.36
714.61	320.95
714.95	319.55
715.28	318.02
715.61	316.81
715.95	315.64
716.28	314.45
716.61	313.76
716.95	312.48
717.28	311.10
717.61	309.55
717.94	308.76
718.28	306.00
718.61	304.86
718.94	303.43
719.27	301.95
719.61	300.60
719.94	298.90
720.27	296.60
720.60	295.07
720.94	294.07
721.27	292.64
721.60	291.79
721.93	290.62
722.27	290.45
722.60	290.02
722.93	288.76
723.26	287.74
723.59	286.52
723.93	285.67
724.26	284.88
724.59	283.83
724.92	283.02
725.25	283.07
725.59	282.33
725.92	281.81
726.25	281.26
726.58	280.69
726.91	279.88
727.24	279.55
727.57	279.29
727.91	278.19
728.24	277.88
728.57	276.88
728.90	276.38
729.23	274.81
729.56	274.69
729.89	274.07
730.22	273.43
730.55	272.67
730.89	271.71
731.22	270.69
731.55	270.14
731.88	269.57
732.21	268.33
732.54	267.48
732.87	266.74
733.20	266.19
733.53	265.67
733.86	265.17
734.19	264.26
734.52	263.90
734.85	264.81
735.18	263.64
735.51	263.71
735.84	263.29
736.17	263.33
736.50	261.64
736.83	263.38
737.16	262.74
737.49	262.40
737.82	262.07
738.15	262.12
738.48	261.60
738.81	261.10
739.14	260.50
739.47	259.74
739.80	259.00
740.13	258.74
740.46	257.88
740.79	257.24
741.12	256.69
741.45	255.60
741.78	254.12
742.11	254.45
742.44	253.64
742.77	253.52
743.10	252.81
743.43	252.43
743.75	249.86
744.08	251.93
744.41	251.21
744.74	250.74
745.07	249.98
745.40	249.90
745.73	250.02
746.06	249.60
746.39	249.60
746.71	249.10
747.04	248.26
747.37	247.95
747.70	247.71
748.03	247.38
748.36	247.55
748.68	247.10
749.01	246.17
749.34	245.83
749.67	245.38
750.00	245.19
750.33	246.21
750.65	246.12
750.98	243.43
751.31	243.40
751.64	242.98
751.97	243.57
752.29	243.02
752.62	241.86
752.95	241.40
753.28	240.81
753.60	240.48
753.93	240.76
754.26	240.62
754.59	239.76
754.91	239.19
755.24	238.40
755.57	237.79
755.90	237.55
756.22	237.05
756.55	236.45
756.88	235.83
757.20	234.21
757.53	233.31
757.86	233.05
758.19	232.86
758.51	232.71
758.84	231.40
759.17	231.17
759.49	231.26
759.82	232.24
760.15	232.26
760.47	232.12
760.80	231.31
761.13	231.60
761.45	231.67
761.78	231.76
762.11	231.83
762.43	231.64
762.76	231.40
763.08	231.19
763.41	231.05
763.74	231.12
764.06	231.02
764.39	230.88
764.71	230.67
765.04	230.07
765.37	229.83
765.69	229.67
766.02	229.55
766.34	229.12
766.67	228.05
767.00	228.17
767.32	229.10
767.65	230.00
767.97	229.33
768.30	229.36
768.62	228.83
768.95	228.60
769.27	228.60
769.60	228.62
769.92	228.36
770.25	228.02
770.57	227.40
770.90	227.17
771.22	226.90
771.55	226.62
771.87	226.69
772.20	226.36
772.52	227.86
772.85	229.93
773.17	229.55
773.50	229.36
773.82	228.93
774.15	227.76
774.47	226.62
774.80	226.52
775.12	226.21
775.45	226.12
775.77	226.24
776.09	225.93
776.42	225.69
776.74	226.24
777.07	226.02
777.39	225.95
777.72	225.67
778.04	225.86
778.36	225.95
778.69	225.98
779.01	225.98
779.33	224.21
779.66	222.02
779.98	222.05
780.31	221.90
780.63	222.64
780.95	222.83
781.28	222.71
781.60	222.36
781.92	222.05
782.25	222.24
782.57	221.83
782.89	221.60
783.22	221.40
783.54	220.88
783.86	221.21
784.19	221.24
784.51	222.00
784.83	221.81
785.16	221.48
785.48	221.45
