SpectraSuite Data File
++++++++++++++++++++++++++++++++++++
Date: Tue Apr 02 18:42:00 EDT 2013
User: group
Dark Spectrum Present: No
Reference Spectrum Present: No
Number of Sampled Component Spectra: 1
Spectrometers: USB2E7196
Integration Time (usec): 580000 (USB2E7196)
Spectra Averaged: 2 (USB2E7196)
Boxcar Smoothing: 10 (USB2E7196)
Correct for Electrical Dark: No (USB2E7196)
Strobe/Lamp Enabled: No (USB2E7196)
Correct for Detector Non-linearity: No (USB2E7196)
Correct for Stray Light: No (USB2E7196)
Number of Pixels in Processed Spectrum: 2048
>>>>>Begin Processed Spectral Data<<<<<
339.09	0.00
339.48	192.50
339.86	196.00
340.24	192.00
340.63	200.00
341.01	232.00
341.39	200.00
341.78	208.00
342.16	211.50
342.54	207.00
342.93	196.98
343.31	206.81
343.69	207.45
344.07	207.79
344.46	208.69
344.84	209.10
345.22	207.95
345.60	208.21
345.99	208.31
346.37	208.12
346.75	207.93
347.13	207.86
347.52	207.86
347.90	208.05
348.28	208.02
348.66	208.67
349.05	208.02
349.43	208.36
349.81	208.57
350.19	208.36
350.57	208.50
350.96	208.74
351.34	208.88
351.72	208.81
352.10	208.83
352.48	208.60
352.87	208.69
353.25	208.67
353.63	208.50
354.01	208.45
354.39	208.50
354.77	208.60
355.15	209.14
355.54	209.17
355.92	208.93
356.30	208.93
356.68	210.31
357.06	210.69
357.44	210.17
357.82	210.24
358.20	211.60
358.58	211.88
358.97	212.00
359.35	212.64
359.73	213.43
360.11	213.83
360.49	214.17
360.87	214.17
361.25	214.62
361.63	215.90
362.01	216.07
362.39	216.29
362.77	216.60
363.15	216.64
363.53	216.76
363.91	217.12
364.29	217.33
364.67	215.38
365.05	215.31
365.43	215.83
365.81	216.21
366.19	216.14
366.57	216.86
366.95	217.00
367.33	216.43
367.71	216.40
368.09	216.57
368.47	216.60
368.85	216.50
369.23	216.74
369.61	216.05
369.99	216.90
370.37	217.07
370.75	218.12
371.13	217.62
371.51	217.36
371.89	217.40
372.27	217.67
372.65	217.83
373.03	218.07
373.41	217.95
373.78	217.62
374.16	216.79
374.54	216.31
374.92	216.14
375.30	216.17
375.68	215.57
376.06	215.86
376.44	215.67
376.82	215.86
377.19	215.88
377.57	215.57
377.95	214.60
378.33	214.38
378.71	213.14
379.09	213.52
379.47	213.79
379.84	213.69
380.22	213.36
380.60	213.26
380.98	213.12
381.36	213.24
381.73	213.21
382.11	213.57
382.49	213.33
382.87	212.88
383.25	212.79
383.62	215.05
384.00	214.57
384.38	214.67
384.76	215.07
385.13	215.93
385.51	216.05
385.89	216.05
386.27	216.26
386.64	216.67
387.02	216.45
387.40	216.38
387.78	216.36
388.15	216.21
388.53	215.86
388.91	215.95
389.29	215.81
389.66	215.90
390.04	215.64
390.42	215.81
390.79	216.17
391.17	216.36
391.55	214.36
391.92	214.40
392.30	214.62
392.68	214.19
393.05	213.52
393.43	213.60
393.81	213.62
394.18	213.19
394.56	213.12
394.94	213.55
395.31	213.26
395.69	213.71
396.06	214.19
396.44	214.50
396.82	214.26
397.19	215.31
397.57	215.10
397.95	215.50
398.32	215.14
398.70	215.38
399.07	215.81
399.45	215.60
399.82	215.52
400.20	215.45
400.58	215.33
400.95	214.98
401.33	215.33
401.70	216.83
402.08	216.90
402.45	216.98
402.83	217.33
403.20	217.62
403.58	217.67
403.95	218.24
404.33	218.74
404.71	219.05
405.08	220.10
405.46	220.33
405.83	220.45
406.21	220.88
406.58	221.24
406.96	221.36
407.33	222.12
407.70	222.93
408.08	224.79
408.45	225.79
408.83	226.55
409.20	226.95
409.58	226.33
409.95	227.62
410.33	228.38
410.70	228.81
411.08	230.12
411.45	231.07
411.82	231.83
412.20	233.26
412.57	235.76
412.95	235.43
413.32	237.45
413.69	238.95
414.07	240.79
414.44	242.74
414.82	244.88
415.19	247.33
415.56	249.52
415.94	250.79
416.31	253.67
416.68	256.38
417.06	259.62
417.43	263.38
417.81	267.05
418.18	270.98
418.55	274.69
418.93	278.33
419.30	282.64
419.67	287.31
420.04	291.64
420.42	296.00
420.79	303.12
421.16	308.71
421.54	315.55
421.91	321.71
422.28	327.86
422.66	334.36
423.03	342.17
423.40	349.07
423.77	356.55
424.15	363.76
424.52	371.60
424.89	380.69
425.26	388.33
425.64	395.81
426.01	404.21
426.38	413.64
426.75	423.45
427.13	432.57
427.50	442.17
427.87	452.57
428.24	462.60
428.61	471.12
428.99	482.19
429.36	492.83
429.73	504.05
430.10	515.50
430.47	528.02
430.85	539.17
431.22	552.14
431.59	567.38
431.96	580.88
432.33	594.98
432.70	608.52
433.08	625.19
433.45	641.02
433.82	656.40
434.19	673.21
434.56	689.90
434.93	705.95
435.30	722.43
435.68	740.00
436.05	757.83
436.42	775.62
436.79	791.88
437.16	809.76
437.53	828.02
437.90	846.21
438.27	863.81
438.64	881.76
439.01	898.79
439.38	912.31
439.75	926.60
440.13	943.88
440.50	959.64
440.87	972.29
441.24	985.48
441.61	1000.24
441.98	1010.74
442.35	1023.17
442.72	1036.52
443.09	1050.36
443.46	1058.24
443.83	1063.05
444.20	1067.74
444.57	1073.57
444.94	1076.45
445.31	1080.05
445.68	1086.17
446.05	1087.79
446.42	1086.40
446.79	1085.31
447.16	1083.52
447.53	1082.55
447.90	1076.02
448.27	1069.76
448.64	1061.29
449.01	1054.88
449.37	1043.88
449.74	1033.67
450.11	1022.33
450.48	1007.05
450.85	990.67
451.22	977.57
451.59	965.81
451.96	953.90
452.33	938.21
452.70	923.83
453.07	906.90
453.43	887.00
453.80	870.24
454.17	854.12
454.54	838.48
454.91	822.07
455.28	805.95
455.65	790.79
456.02	779.00
456.38	766.14
456.75	750.57
457.12	737.05
457.49	723.60
457.86	709.33
458.23	699.45
458.59	687.40
458.96	675.50
459.33	664.67
459.70	653.81
460.07	645.83
460.43	635.57
460.80	626.43
461.17	618.71
461.54	610.00
461.91	602.43
462.27	593.67
462.64	586.24
463.01	578.81
463.38	572.71
463.74	562.29
464.11	555.48
464.48	549.71
464.85	543.52
465.21	538.83
465.58	533.52
465.95	527.00
466.32	521.79
466.68	516.74
467.05	511.33
467.42	506.26
467.78	500.60
468.15	496.12
468.52	492.55
468.88	487.10
469.25	482.52
469.62	479.14
469.98	475.45
470.35	472.10
470.72	468.21
471.08	463.12
471.45	460.02
471.82	457.24
472.18	453.55
472.55	450.79
472.92	447.14
473.28	444.14
473.65	441.00
474.02	438.52
474.38	436.55
474.75	434.95
475.11	432.57
475.48	431.05
475.85	429.67
476.21	427.40
476.58	426.12
476.94	424.90
477.31	423.21
477.67	422.29
478.04	421.36
478.41	421.14
478.77	422.38
479.14	420.90
479.50	420.19
479.87	420.02
480.23	419.90
480.60	419.79
480.96	419.48
481.33	420.48
481.69	420.12
482.06	419.71
482.42	419.83
482.79	420.40
483.15	420.79
483.52	421.40
483.88	421.98
484.25	422.17
484.61	423.12
484.98	423.83
485.34	425.81
485.71	427.14
486.07	427.79
486.44	427.43
486.80	429.29
487.17	430.88
487.53	433.14
487.90	434.98
488.26	437.95
488.62	440.57
488.99	442.14
489.35	445.33
489.72	447.98
490.08	450.69
490.44	453.24
490.81	456.48
491.17	458.83
491.54	462.67
491.90	466.67
492.26	470.12
492.63	473.93
492.99	476.98
493.36	481.05
493.72	485.74
494.08	489.98
494.45	494.76
494.81	499.48
495.17	503.98
495.54	509.29
495.90	513.52
496.26	518.93
496.63	524.19
496.99	529.71
497.35	535.83
497.72	541.52
498.08	547.19
498.44	552.88
498.80	560.31
499.17	566.55
499.53	572.60
499.89	579.74
500.26	586.62
500.62	593.26
500.98	600.33
501.34	607.31
501.71	615.00
502.07	621.60
502.43	628.62
502.79	636.17
503.16	643.43
503.52	651.74
503.88	659.17
504.24	667.74
504.60	675.10
504.97	682.98
505.33	690.38
505.69	699.88
506.05	707.48
506.41	714.81
506.78	721.93
507.14	729.38
507.50	737.29
507.86	745.26
508.22	753.81
508.59	761.12
508.95	769.00
509.31	778.33
509.67	786.88
510.03	794.71
510.39	802.64
510.75	810.31
511.12	817.21
511.48	824.79
511.84	831.40
512.20	839.17
512.56	847.00
512.92	854.93
513.28	861.88
513.64	869.83
514.00	877.33
514.37	885.62
514.73	893.83
515.09	901.62
515.45	908.64
515.81	914.74
516.17	921.81
516.53	928.19
516.89	933.55
517.25	940.88
517.61	948.10
517.97	954.67
518.33	961.10
518.69	968.29
519.05	975.60
519.41	982.45
519.77	989.93
520.13	995.90
520.49	1002.17
520.85	1007.88
521.21	1015.26
521.57	1021.71
521.93	1026.57
522.29	1031.71
522.65	1036.45
523.01	1042.52
523.37	1047.90
523.73	1053.90
524.09	1059.67
524.45	1064.76
524.81	1068.79
525.17	1074.14
525.53	1079.12
525.89	1083.90
526.25	1087.86
526.61	1091.07
526.97	1095.26
527.33	1098.90
527.68	1105.05
528.04	1109.40
528.40	1113.45
528.76	1116.79
529.12	1120.48
529.48	1125.67
529.84	1130.40
530.20	1135.33
530.56	1139.64
530.91	1144.95
531.27	1148.71
531.63	1152.40
531.99	1156.95
532.35	1161.45
532.71	1165.12
533.07	1169.14
533.42	1176.31
533.78	1180.98
534.14	1185.90
534.50	1190.29
534.86	1195.07
535.21	1197.60
535.57	1202.17
535.93	1206.07
536.29	1210.98
536.65	1215.88
537.00	1219.38
537.36	1222.60
537.72	1225.69
538.08	1229.95
538.44	1232.19
538.79	1236.12
539.15	1240.10
539.51	1244.19
539.87	1247.83
540.22	1251.57
540.58	1255.19
540.94	1256.45
541.29	1259.31
541.65	1261.83
542.01	1265.40
542.37	1267.38
542.72	1269.36
543.08	1271.62
543.44	1275.43
543.79	1277.10
544.15	1279.52
544.51	1283.93
544.87	1287.52
545.22	1291.12
545.58	1293.64
545.94	1297.74
546.29	1300.88
546.65	1303.52
547.01	1304.88
547.36	1308.05
547.72	1311.02
548.07	1314.05
548.43	1316.62
548.79	1319.67
549.14	1322.57
549.50	1325.71
549.86	1328.74
550.21	1331.76
550.57	1335.40
550.92	1337.45
551.28	1341.10
551.64	1344.14
551.99	1345.95
552.35	1349.14
552.70	1351.83
553.06	1354.81
553.41	1357.83
553.77	1362.81
554.13	1366.76
554.48	1372.33
554.84	1376.90
555.19	1380.40
555.55	1385.17
555.90	1388.98
556.26	1392.60
556.61	1397.36
556.97	1400.48
557.32	1404.12
557.68	1408.88
558.03	1412.71
558.39	1417.36
558.74	1421.52
559.10	1426.24
559.45	1431.02
559.81	1435.40
560.16	1439.31
560.52	1444.90
560.87	1449.45
561.23	1452.31
561.58	1458.19
561.94	1461.62
562.29	1465.43
562.64	1470.55
563.00	1474.50
563.35	1479.88
563.71	1485.79
564.06	1491.48
564.42	1496.62
564.77	1502.55
565.12	1508.52
565.48	1516.07
565.83	1523.10
566.19	1528.74
566.54	1533.90
566.89	1539.36
567.25	1546.05
567.60	1553.64
567.96	1560.45
568.31	1568.12
568.66	1574.64
569.02	1578.90
569.37	1583.52
569.72	1588.48
570.08	1593.86
570.43	1598.81
570.78	1604.12
571.14	1609.74
571.49	1614.43
571.84	1621.00
572.20	1625.90
572.55	1630.29
572.90	1632.90
573.26	1636.14
573.61	1639.95
573.96	1643.93
574.31	1648.79
574.67	1653.02
575.02	1656.33
575.37	1658.33
575.72	1660.02
576.08	1663.86
576.43	1667.86
576.78	1672.43
577.13	1676.29
577.49	1679.24
577.84	1682.67
578.19	1685.95
578.54	1689.67
578.90	1692.93
579.25	1695.40
579.60	1698.57
579.95	1701.60
580.30	1705.36
580.66	1709.12
581.01	1712.74
581.36	1715.69
581.71	1718.43
582.06	1721.17
582.42	1723.69
582.77	1725.48
583.12	1728.62
583.47	1731.45
583.82	1734.10
584.17	1737.12
584.53	1741.10
584.88	1743.74
585.23	1747.07
585.58	1748.88
585.93	1750.17
586.28	1752.50
586.63	1755.55
586.98	1758.50
587.34	1761.24
587.69	1762.76
588.04	1764.21
588.39	1765.52
588.74	1766.52
589.09	1768.29
589.44	1768.38
589.79	1769.88
590.14	1772.67
590.49	1773.21
590.84	1773.17
591.19	1775.05
591.54	1776.14
591.89	1776.33
592.25	1780.00
592.60	1779.67
592.95	1780.02
593.30	1782.12
593.65	1782.31
594.00	1781.00
594.35	1786.19
594.70	1785.40
595.05	1786.10
595.40	1786.50
595.75	1786.79
596.10	1788.10
596.45	1788.33
596.80	1789.81
597.15	1790.88
597.50	1790.05
597.85	1792.76
598.19	1793.12
598.54	1791.74
598.89	1790.98
599.24	1791.26
599.59	1788.36
599.94	1788.50
600.29	1790.05
600.64	1789.19
600.99	1789.33
601.34	1790.64
601.69	1784.98
602.04	1784.60
602.39	1784.14
602.74	1783.40
603.08	1782.64
603.43	1783.17
603.78	1782.00
604.13	1780.38
604.48	1778.40
604.83	1778.19
605.18	1775.67
605.53	1775.21
605.87	1774.45
606.22	1773.43
606.57	1771.12
606.92	1770.24
607.27	1769.52
607.62	1767.48
607.96	1765.93
608.31	1765.50
608.66	1763.86
609.01	1761.55
609.36	1760.43
609.70	1757.95
610.05	1755.81
610.40	1754.76
610.75	1751.21
611.10	1749.52
611.44	1747.02
611.79	1743.93
612.14	1741.14
612.49	1737.50
612.83	1733.83
613.18	1730.10
613.53	1726.83
613.88	1723.10
614.22	1719.31
614.57	1715.05
614.92	1709.98
615.27	1705.31
615.61	1699.07
615.96	1694.55
616.31	1690.76
616.65	1687.76
617.00	1684.21
617.35	1680.88
617.70	1676.50
618.04	1672.05
618.39	1666.95
618.74	1662.21
619.08	1657.95
619.43	1653.12
619.78	1649.62
620.12	1645.98
620.47	1642.50
620.82	1637.38
621.16	1633.31
621.51	1629.88
621.85	1624.98
622.20	1621.14
622.55	1616.40
622.89	1612.69
623.24	1608.29
623.59	1603.93
623.93	1598.43
624.28	1594.17
624.62	1590.86
624.97	1586.98
625.32	1582.02
625.66	1578.19
626.01	1574.10
626.35	1570.05
626.70	1566.45
627.04	1562.95
627.39	1557.86
627.73	1554.21
628.08	1551.67
628.43	1547.36
628.77	1542.17
629.12	1538.71
629.46	1534.62
629.81	1530.38
630.15	1526.02
630.50	1521.10
630.84	1516.86
631.19	1511.60
631.53	1505.79
631.88	1498.12
632.22	1491.33
632.57	1487.33
632.91	1481.31
633.26	1476.69
633.60	1471.26
633.95	1464.57
634.29	1457.17
634.64	1452.40
634.98	1446.14
635.32	1440.62
635.67	1436.36
636.01	1431.40
636.36	1425.33
636.70	1421.45
637.05	1417.21
637.39	1411.93
637.73	1407.74
638.08	1402.83
638.42	1398.50
638.77	1394.12
639.11	1389.45
639.45	1385.00
639.80	1378.93
640.14	1373.60
640.49	1367.26
640.83	1361.55
641.17	1356.83
641.52	1351.48
641.86	1345.98
642.20	1341.36
642.55	1334.43
642.89	1327.64
643.23	1321.76
643.58	1317.24
643.92	1309.55
644.26	1302.52
644.61	1296.69
644.95	1289.71
645.29	1282.38
645.64	1276.05
645.98	1269.31
646.32	1263.24
646.66	1256.19
647.01	1249.83
647.35	1244.48
647.69	1239.19
648.04	1233.48
648.38	1227.31
648.72	1221.86
649.06	1215.43
649.41	1208.31
649.75	1202.00
650.09	1195.29
650.43	1188.43
650.78	1180.98
651.12	1174.83
651.46	1168.36
651.80	1161.19
652.14	1154.60
652.49	1148.81
652.83	1142.36
653.17	1135.38
653.51	1128.10
653.85	1122.10
654.20	1116.29
654.54	1108.38
654.88	1100.88
655.22	1094.57
655.56	1087.50
655.90	1080.50
656.25	1073.71
656.59	1067.45
656.93	1061.38
657.27	1056.36
657.61	1049.29
657.95	1043.29
658.29	1036.74
658.64	1031.26
658.98	1025.26
659.32	1018.55
659.66	1011.67
660.00	1004.98
660.34	998.81
660.68	993.17
661.02	986.36
661.36	980.00
661.70	974.60
662.05	968.86
662.39	962.74
662.73	957.52
663.07	953.14
663.41	947.02
663.75	940.21
664.09	934.33
664.43	926.71
664.77	920.98
665.11	914.76
665.45	909.14
665.79	902.33
666.13	896.48
666.47	891.00
666.81	885.26
667.15	879.57
667.49	874.79
667.83	869.74
668.17	864.52
668.51	858.36
668.85	852.86
669.19	847.90
669.53	842.17
669.87	836.10
670.21	829.55
670.55	823.81
670.89	820.12
671.23	814.67
671.57	810.02
671.91	805.05
672.25	799.95
672.58	795.14
672.92	790.07
673.26	784.62
673.60	779.21
673.94	774.50
674.28	769.67
674.62	764.71
674.96	759.33
675.30	754.40
675.64	750.24
675.97	745.17
676.31	740.33
676.65	735.31
676.99	731.14
677.33	726.24
677.67	722.26
678.01	716.43
678.34	712.26
678.68	707.79
679.02	703.31
679.36	697.67
679.70	692.31
680.04	687.95
680.37	683.69
680.71	679.52
681.05	675.21
681.39	670.64
681.73	665.74
682.06	661.33
682.40	656.79
682.74	652.45
683.08	648.93
683.42	643.88
683.75	640.02
684.09	634.95
684.43	630.33
684.77	625.48
685.10	621.05
685.44	616.19
685.78	611.71
686.12	607.24
686.45	603.69
686.79	598.98
687.13	595.12
687.46	590.81
687.80	587.07
688.14	582.57
688.48	578.45
688.81	573.90
689.15	570.33
689.49	566.60
689.82	562.52
690.16	557.17
690.50	553.21
690.83	548.71
691.17	544.33
691.51	540.64
691.84	536.64
692.18	532.98
692.52	529.10
692.85	525.74
693.19	522.76
693.52	518.93
693.86	515.48
694.20	511.45
694.53	507.88
694.87	503.83
695.21	500.07
695.54	496.48
695.88	492.79
696.21	488.45
696.55	484.86
696.88	481.43
697.22	478.43
697.56	475.50
697.89	472.10
698.23	469.45
698.56	466.40
698.90	463.60
699.23	460.17
699.57	457.05
699.90	453.60
700.24	450.07
700.58	447.26
700.91	444.64
701.25	443.69
701.58	441.55
701.92	439.02
702.25	436.57
702.59	433.64
702.92	431.45
703.26	429.14
703.59	426.24
703.93	425.07
704.26	423.14
704.60	420.52
704.93	418.24
705.26	415.55
705.60	413.31
705.93	409.95
706.27	408.07
706.60	406.10
706.94	404.40
707.27	401.62
707.61	399.17
707.94	396.86
708.27	392.57
708.61	389.31
708.94	387.19
709.28	384.86
709.61	382.71
709.94	380.69
710.28	378.48
710.61	376.90
710.95	373.07
711.28	371.95
711.61	370.21
711.95	368.81
712.28	367.00
712.61	364.62
712.95	364.05
713.28	363.02
713.61	361.05
713.95	358.76
714.28	357.67
714.61	355.88
714.95	353.88
715.28	352.12
715.61	350.67
715.95	348.88
716.28	347.10
716.61	345.83
716.95	343.83
717.28	342.33
717.61	340.17
717.94	338.40
718.28	335.17
718.61	333.21
718.94	330.88
719.27	329.21
719.61	327.79
719.94	325.79
720.27	323.07
720.60	321.31
720.94	319.69
721.27	318.02
721.60	316.98
721.93	315.81
722.27	314.93
722.60	313.95
722.93	312.43
723.26	311.45
723.59	309.57
723.93	308.86
724.26	307.45
724.59	306.52
724.92	306.00
725.25	305.57
725.59	304.43
725.92	303.64
726.25	302.50
726.58	301.52
726.91	300.43
727.24	299.86
727.57	298.83
727.91	297.69
728.24	296.79
728.57	295.71
728.90	294.81
729.23	293.55
729.56	293.43
729.89	292.52
730.22	291.50
730.55	290.86
730.89	289.71
731.22	288.93
731.55	287.86
731.88	286.74
732.21	285.62
732.54	284.55
732.87	283.76
733.20	282.98
733.53	282.40
733.86	282.00
734.19	280.90
734.52	280.43
734.85	281.14
735.18	280.19
735.51	280.07
735.84	279.60
736.17	279.05
736.50	277.17
736.83	278.69
737.16	277.83
737.49	277.12
737.82	276.21
738.15	275.79
738.48	275.14
738.81	274.45
739.14	273.55
739.47	272.67
739.80	271.79
740.13	271.60
740.46	270.40
740.79	269.43
741.12	268.62
741.45	267.71
741.78	265.76
742.11	265.52
742.44	264.21
742.77	263.86
743.10	263.10
743.43	262.48
743.75	259.76
744.08	261.88
744.41	260.95
744.74	260.48
745.07	259.55
745.40	259.55
745.73	259.69
746.06	259.36
746.39	259.33
746.71	258.76
747.04	257.83
747.37	257.45
747.70	257.14
748.03	257.10
748.36	256.86
748.68	256.55
749.01	255.31
749.34	254.74
749.67	254.12
750.00	254.24
750.33	255.43
750.65	255.21
750.98	252.02
751.31	252.19
751.64	251.69
751.97	252.24
752.29	251.64
752.62	250.31
752.95	249.83
753.28	249.24
753.60	248.71
753.93	248.86
754.26	248.55
754.59	247.74
754.91	246.81
755.24	246.52
755.57	245.93
755.90	245.71
756.22	245.19
756.55	244.60
756.88	243.50
757.20	241.90
757.53	240.79
757.86	240.43
758.19	239.90
758.51	239.71
758.84	238.48
759.17	237.81
759.49	237.60
759.82	238.29
760.15	238.21
760.47	238.10
760.80	237.26
761.13	237.21
761.45	236.79
761.78	236.60
762.11	236.05
762.43	235.88
762.76	235.67
763.08	235.71
763.41	235.60
763.74	235.33
764.06	234.81
764.39	234.74
764.71	234.55
765.04	233.98
765.37	233.43
765.69	233.21
766.02	233.05
766.34	232.57
766.67	231.50
767.00	231.60
767.32	232.36
767.65	233.05
767.97	232.93
768.30	232.88
768.62	232.48
768.95	232.19
769.27	231.76
769.60	231.83
769.92	231.48
770.25	230.69
770.57	230.40
770.90	230.14
771.22	229.76
771.55	229.79
771.87	229.71
772.20	229.60
772.52	231.05
772.85	233.26
773.17	233.33
773.50	232.95
773.82	232.21
774.15	230.93
774.47	229.62
774.80	228.90
775.12	228.76
775.45	228.60
775.77	228.43
776.09	228.67
776.42	228.62
776.74	228.90
777.07	228.98
777.39	228.88
777.72	228.86
778.04	229.19
778.36	228.69
778.69	228.74
779.01	228.83
779.33	226.90
779.66	224.57
779.98	224.14
780.31	223.88
780.63	224.83
780.95	225.24
781.28	225.33
781.60	224.98
781.92	224.81
782.25	224.67
782.57	224.64
782.89	223.90
783.22	223.57
783.54	223.12
783.86	223.12
784.19	222.86
784.51	223.07
784.83	222.55
785.16	222.26
