SpectraSuite Data File
++++++++++++++++++++++++++++++++++++
Date: Tue Apr 02 18:40:25 EDT 2013
User: group
Dark Spectrum Present: No
Reference Spectrum Present: No
Number of Sampled Component Spectra: 1
Spectrometers: USB2E7196
Integration Time (usec): 580000 (USB2E7196)
Spectra Averaged: 2 (USB2E7196)
Boxcar Smoothing: 10 (USB2E7196)
Correct for Electrical Dark: No (USB2E7196)
Strobe/Lamp Enabled: No (USB2E7196)
Correct for Detector Non-linearity: No (USB2E7196)
Correct for Stray Light: No (USB2E7196)
Number of Pixels in Processed Spectrum: 2048
>>>>>Begin Processed Spectral Data<<<<<
339.09	0.00
339.48	195.00
339.86	193.00
340.24	196.50
340.63	195.00
341.01	232.00
341.39	201.00
341.78	207.00
342.16	212.50
342.54	205.00
342.93	196.90
343.31	206.71
343.69	207.14
344.07	207.64
344.46	208.29
344.84	208.83
345.22	207.29
345.60	207.81
345.99	207.88
346.37	207.50
346.75	207.62
347.13	207.71
347.52	207.71
347.90	208.90
348.28	208.86
348.66	209.38
349.05	208.60
349.43	208.90
349.81	209.19
350.19	209.45
350.57	209.62
350.96	209.86
351.34	210.12
351.72	210.31
352.10	210.55
352.48	210.40
352.87	210.48
353.25	210.81
353.63	210.40
354.01	210.26
354.39	210.55
354.77	210.74
355.15	211.12
355.54	210.86
355.92	210.17
356.30	210.26
356.68	211.33
357.06	211.67
357.44	211.55
357.82	211.48
358.20	212.55
358.58	212.40
358.97	212.71
359.35	213.19
359.73	213.62
360.11	213.62
360.49	213.71
360.87	213.71
361.25	214.19
361.63	215.12
362.01	215.57
362.39	215.57
362.77	215.74
363.15	215.71
363.53	215.95
363.91	216.26
364.29	216.17
364.67	214.36
365.05	214.24
365.43	214.31
365.81	214.60
366.19	214.57
366.57	215.55
366.95	215.60
367.33	215.07
367.71	215.10
368.09	215.64
368.47	215.90
368.85	216.12
369.23	216.45
369.61	215.95
369.99	216.55
370.37	216.90
370.75	218.02
371.13	217.64
371.51	217.55
371.89	217.69
372.27	218.12
372.65	218.40
373.03	218.79
373.41	218.88
373.78	218.71
374.16	217.52
374.54	216.83
374.92	216.69
375.30	216.86
375.68	216.48
376.06	216.38
376.44	216.21
376.82	216.10
377.19	216.17
377.57	216.02
377.95	215.40
378.33	215.21
378.71	213.81
379.09	214.26
379.47	214.45
379.84	214.02
380.22	213.71
380.60	213.31
380.98	212.95
381.36	212.90
381.73	212.76
382.11	213.17
382.49	213.38
382.87	213.00
383.25	213.05
383.62	215.43
384.00	215.17
384.38	215.38
384.76	215.83
385.13	216.31
385.51	216.48
385.89	216.24
386.27	216.45
386.64	216.88
387.02	216.60
387.40	216.64
387.78	217.00
388.15	217.05
388.53	216.93
388.91	216.86
389.29	216.52
389.66	216.83
390.04	216.55
390.42	216.69
390.79	216.88
391.17	216.76
391.55	214.48
391.92	214.52
392.30	214.48
392.68	213.98
393.05	213.74
393.43	213.88
393.81	213.95
394.18	213.52
394.56	213.36
394.94	213.81
395.31	213.48
395.69	213.71
396.06	213.90
396.44	214.31
396.82	214.24
397.19	215.10
397.57	214.83
397.95	215.19
398.32	214.69
398.70	215.07
399.07	215.38
399.45	215.31
399.82	215.24
400.20	215.07
400.58	215.21
400.95	214.52
401.33	214.74
401.70	216.45
402.08	216.64
402.45	216.86
402.83	217.14
403.20	217.40
403.58	217.45
403.95	217.86
404.33	218.21
404.71	218.62
405.08	220.07
405.46	220.29
405.83	220.74
406.21	221.19
406.58	221.48
406.96	221.74
407.33	222.64
407.70	223.48
408.08	225.67
408.45	226.48
408.83	227.62
409.20	228.02
409.58	227.29
409.95	228.64
410.33	229.55
410.70	229.95
411.08	231.36
411.45	232.45
411.82	233.43
412.20	235.00
412.57	237.76
412.95	237.50
413.32	239.67
413.69	241.26
414.07	242.93
414.44	244.76
414.82	246.86
415.19	249.05
415.56	251.45
415.94	252.90
416.31	256.17
416.68	259.26
417.06	262.76
417.43	266.74
417.81	270.14
418.18	274.12
418.55	278.21
418.93	282.52
419.30	287.00
419.67	291.86
420.04	296.36
420.42	300.74
420.79	308.05
421.16	313.57
421.54	320.64
421.91	327.57
422.28	334.21
422.66	341.31
423.03	349.95
423.40	357.26
423.77	365.05
424.15	372.55
424.52	380.64
424.89	389.40
425.26	397.76
425.64	405.62
426.01	414.43
426.38	424.07
426.75	434.07
427.13	444.14
427.50	454.64
427.87	465.31
428.24	475.88
428.61	485.14
428.99	497.21
429.36	508.38
429.73	520.31
430.10	532.38
430.47	544.81
430.85	555.57
431.22	568.74
431.59	584.62
431.96	598.38
432.33	613.19
432.70	628.12
433.08	645.19
433.45	661.40
433.82	677.36
434.19	695.07
434.56	713.07
434.93	729.48
435.30	745.81
435.68	764.88
436.05	783.48
436.42	801.57
436.79	818.76
437.16	837.45
437.53	856.38
437.90	875.12
438.27	893.83
438.64	913.74
439.01	932.40
439.38	947.02
439.75	962.33
440.13	980.05
440.50	996.62
440.87	1010.02
441.24	1024.26
441.61	1040.19
441.98	1051.88
442.35	1064.57
442.72	1078.26
443.09	1092.95
443.46	1100.55
443.83	1106.40
444.20	1111.24
444.57	1117.50
444.94	1120.45
445.31	1124.33
445.68	1129.90
446.05	1131.95
446.42	1130.57
446.79	1129.24
447.16	1126.71
447.53	1126.10
447.90	1119.43
448.27	1112.50
448.64	1103.14
449.01	1096.81
449.37	1084.60
449.74	1073.19
450.11	1060.71
450.48	1045.21
450.85	1028.33
451.22	1015.00
451.59	1001.83
451.96	989.38
452.33	972.45
452.70	957.29
453.07	939.00
453.43	918.74
453.80	900.57
454.17	883.17
454.54	866.02
454.91	848.64
455.28	830.81
455.65	814.90
456.02	802.33
456.38	789.10
456.75	772.88
457.12	758.48
457.49	744.07
457.86	729.12
458.23	718.43
458.59	705.76
458.96	693.29
459.33	681.83
459.70	670.55
460.07	661.95
460.43	651.93
460.80	642.43
461.17	634.60
461.54	626.21
461.91	617.93
462.27	609.48
462.64	602.64
463.01	594.69
463.38	587.79
463.74	576.67
464.11	569.83
464.48	563.43
464.85	557.57
465.21	553.36
465.58	547.69
465.95	540.76
466.32	535.02
466.68	529.64
467.05	524.07
467.42	518.76
467.78	512.88
468.15	507.48
468.52	503.38
468.88	497.86
469.25	492.31
469.62	488.67
469.98	484.69
470.35	480.55
470.72	477.19
471.08	472.69
471.45	470.10
471.82	467.00
472.18	463.33
472.55	460.24
472.92	456.38
473.28	453.29
473.65	450.24
474.02	447.57
474.38	445.26
474.75	443.43
475.11	441.26
475.48	439.40
475.85	437.38
476.21	435.60
476.58	434.02
476.94	433.33
477.31	432.14
477.67	430.64
478.04	429.64
478.41	428.71
478.77	429.71
479.14	428.21
479.50	427.19
479.87	426.79
480.23	426.31
480.60	425.93
480.96	425.90
481.33	426.67
481.69	427.12
482.06	427.05
482.42	427.60
482.79	427.93
483.15	428.50
483.52	429.79
483.88	430.00
484.25	430.50
484.61	430.90
484.98	431.48
485.34	433.71
485.71	435.10
486.07	436.50
486.44	436.21
486.80	437.93
487.17	440.05
487.53	442.24
487.90	444.76
488.26	448.31
488.62	451.48
488.99	453.52
489.35	455.90
489.72	458.52
490.08	461.40
490.44	464.36
490.81	467.64
491.17	470.64
491.54	474.74
491.90	478.64
492.26	482.81
492.63	486.67
492.99	489.55
493.36	493.88
493.72	498.88
494.08	503.33
494.45	508.33
494.81	513.19
495.17	518.81
495.54	524.10
495.90	528.48
496.26	532.90
496.63	538.64
496.99	544.62
497.35	551.24
497.72	557.12
498.08	563.69
498.44	570.43
498.80	577.48
499.17	583.93
499.53	590.64
499.89	597.74
500.26	605.31
500.62	612.24
500.98	620.12
501.34	627.86
501.71	636.07
502.07	644.10
502.43	651.40
502.79	658.19
503.16	665.50
503.52	673.17
503.88	681.21
504.24	689.17
504.60	697.07
504.97	705.21
505.33	712.95
505.69	721.83
506.05	729.83
506.41	738.10
506.78	746.19
507.14	754.07
507.50	762.81
507.86	771.29
508.22	780.21
508.59	787.64
508.95	795.71
509.31	805.05
509.67	812.69
510.03	820.93
510.39	829.83
510.75	838.52
511.12	846.81
511.48	855.57
511.84	863.90
512.20	872.29
512.56	879.98
512.92	889.12
513.28	897.31
513.64	905.43
514.00	913.36
514.37	922.12
514.73	930.83
515.09	939.12
515.45	946.83
515.81	955.43
516.17	963.33
516.53	970.62
516.89	976.43
517.25	984.45
517.61	992.74
517.97	999.17
518.33	1006.74
518.69	1014.60
519.05	1022.52
519.41	1029.07
519.77	1037.12
520.13	1044.69
520.49	1051.00
520.85	1057.10
521.21	1065.07
521.57	1072.00
521.93	1077.52
522.29	1084.07
522.65	1089.29
523.01	1095.40
523.37	1100.69
523.73	1106.90
524.09	1112.95
524.45	1119.05
524.81	1124.24
525.17	1129.48
525.53	1135.36
525.89	1140.57
526.25	1146.19
526.61	1150.71
526.97	1157.00
527.33	1161.67
527.68	1168.86
528.04	1174.33
528.40	1179.00
528.76	1183.26
529.12	1188.50
529.48	1194.55
529.84	1199.31
530.20	1205.19
530.56	1210.86
530.91	1216.12
531.27	1221.69
531.63	1226.31
531.99	1230.79
532.35	1235.64
532.71	1240.38
533.07	1246.43
533.42	1253.24
533.78	1258.40
534.14	1263.52
534.50	1267.48
534.86	1273.19
535.21	1275.29
535.57	1280.10
535.93	1285.12
536.29	1290.19
536.65	1294.38
537.00	1298.93
537.36	1303.31
537.72	1306.36
538.08	1309.90
538.44	1313.83
538.79	1317.52
539.15	1321.64
539.51	1327.24
539.87	1331.76
540.22	1335.76
540.58	1339.02
540.94	1341.26
541.29	1344.60
541.65	1347.29
542.01	1351.74
542.37	1354.52
542.72	1358.26
543.08	1361.48
543.44	1365.19
543.79	1367.69
544.15	1371.64
544.51	1375.62
544.87	1380.10
545.22	1385.14
545.58	1389.40
545.94	1393.50
546.29	1397.07
546.65	1400.76
547.01	1402.45
547.36	1405.19
547.72	1409.26
548.07	1413.14
548.43	1416.31
548.79	1419.57
549.14	1423.71
549.50	1427.60
549.86	1430.55
550.21	1434.48
550.57	1438.19
550.92	1441.21
551.28	1445.26
551.64	1448.57
551.99	1451.29
552.35	1454.62
552.70	1458.10
553.06	1461.74
553.41	1465.26
553.77	1469.88
554.13	1474.48
554.48	1480.86
554.84	1486.29
555.19	1490.05
555.55	1495.81
555.90	1499.98
556.26	1504.07
556.61	1508.76
556.97	1511.60
557.32	1516.36
557.68	1519.83
558.03	1524.26
558.39	1529.57
558.74	1533.17
559.10	1537.55
559.45	1541.95
559.81	1545.79
560.16	1550.05
560.52	1554.26
560.87	1558.98
561.23	1562.45
561.58	1568.33
561.94	1571.40
562.29	1575.57
562.64	1580.98
563.00	1583.86
563.35	1589.31
563.71	1594.26
564.06	1599.55
564.42	1605.07
564.77	1610.67
565.12	1617.52
565.48	1624.60
565.83	1630.26
566.19	1636.74
566.54	1642.45
566.89	1648.62
567.25	1655.33
567.60	1662.14
567.96	1669.98
568.31	1675.93
568.66	1683.29
569.02	1686.52
569.37	1692.07
569.72	1697.07
570.08	1701.55
570.43	1706.55
570.78	1711.74
571.14	1717.14
571.49	1721.74
571.84	1726.93
572.20	1730.55
572.55	1734.05
572.90	1736.69
573.26	1739.67
573.61	1742.93
573.96	1746.38
574.31	1749.62
574.67	1751.93
575.02	1753.95
575.37	1754.24
575.72	1756.36
576.08	1758.17
576.43	1760.74
576.78	1762.26
577.13	1764.88
577.49	1766.64
577.84	1769.74
578.19	1771.98
578.54	1774.62
578.90	1776.26
579.25	1778.40
579.60	1781.05
579.95	1782.00
580.30	1784.17
580.66	1787.62
581.01	1789.33
581.36	1791.60
581.71	1793.00
582.06	1795.76
582.42	1798.12
582.77	1799.50
583.12	1801.43
583.47	1802.57
583.82	1804.55
584.17	1807.05
584.53	1809.29
584.88	1811.02
585.23	1812.48
585.58	1813.36
585.93	1813.33
586.28	1815.24
586.63	1816.21
586.98	1817.10
587.34	1819.55
587.69	1820.17
588.04	1819.45
588.39	1820.79
588.74	1820.07
589.09	1820.38
589.44	1818.69
589.79	1818.38
590.14	1819.17
590.49	1819.00
590.84	1818.50
591.19	1818.81
591.54	1819.10
591.89	1818.33
592.25	1819.88
592.60	1817.98
592.95	1817.74
593.30	1817.76
593.65	1816.48
594.00	1815.60
594.35	1819.98
594.70	1818.10
595.05	1816.69
595.40	1816.02
595.75	1814.69
596.10	1814.64
596.45	1815.55
596.80	1815.48
597.15	1814.21
597.50	1812.86
597.85	1812.24
598.19	1810.81
598.54	1809.57
598.89	1807.60
599.24	1806.86
599.59	1804.36
599.94	1803.43
600.29	1801.69
600.64	1800.31
600.99	1799.31
601.34	1798.10
601.69	1790.93
602.04	1789.19
602.39	1787.02
602.74	1785.17
603.08	1783.17
603.43	1782.19
603.78	1778.52
604.13	1776.60
604.48	1773.93
604.83	1772.98
605.18	1771.19
605.53	1769.45
605.87	1765.64
606.22	1763.07
606.57	1759.05
606.92	1756.17
607.27	1754.43
607.62	1752.19
607.96	1749.38
608.31	1747.00
608.66	1744.00
609.01	1741.02
609.36	1737.79
609.70	1735.00
610.05	1730.60
610.40	1726.62
610.75	1722.10
611.10	1718.29
611.44	1713.71
611.79	1710.33
612.14	1705.79
612.49	1699.81
612.83	1695.21
613.18	1690.98
613.53	1685.79
613.88	1681.21
614.22	1675.81
614.57	1670.67
614.92	1665.07
615.27	1659.36
615.61	1653.02
615.96	1647.07
616.31	1641.81
616.65	1637.45
617.00	1632.55
617.35	1627.93
617.70	1622.79
618.04	1616.98
618.39	1610.88
618.74	1605.45
619.08	1599.50
619.43	1593.33
619.78	1588.07
620.12	1583.10
620.47	1578.26
620.82	1573.33
621.16	1567.93
621.51	1563.83
621.85	1557.33
622.20	1551.36
622.55	1545.74
622.89	1540.76
623.24	1535.50
623.59	1530.21
623.93	1524.71
624.28	1519.57
624.62	1517.21
624.97	1513.71
625.32	1508.98
625.66	1504.90
626.01	1499.55
626.35	1495.19
626.70	1489.83
627.04	1485.69
627.39	1480.74
627.73	1476.48
628.08	1471.24
628.43	1466.60
628.77	1460.79
629.12	1456.60
629.46	1451.98
629.81	1447.67
630.15	1441.48
630.50	1435.69
630.84	1429.40
631.19	1423.36
631.53	1417.45
631.88	1408.33
632.22	1401.05
632.57	1395.36
632.91	1389.12
633.26	1383.86
633.60	1377.83
633.95	1371.83
634.29	1365.55
634.64	1359.33
634.98	1352.10
635.32	1346.88
635.67	1341.36
636.01	1335.36
636.36	1328.52
636.70	1323.36
637.05	1316.88
637.39	1312.24
637.73	1307.40
638.08	1303.05
638.42	1297.71
638.77	1292.60
639.11	1287.95
639.45	1282.31
639.80	1276.43
640.14	1269.86
640.49	1263.62
640.83	1257.24
641.17	1251.36
641.52	1245.24
641.86	1239.21
642.20	1234.81
642.55	1228.38
642.89	1221.79
643.23	1214.76
643.58	1209.07
643.92	1201.55
644.26	1195.02
644.61	1188.62
644.95	1181.98
645.29	1174.36
645.64	1168.10
645.98	1160.62
646.32	1153.60
646.66	1146.05
647.01	1138.69
647.35	1133.26
647.69	1127.52
648.04	1121.19
648.38	1115.52
648.72	1109.36
649.06	1102.33
649.41	1095.21
649.75	1088.17
650.09	1081.76
650.43	1075.57
650.78	1068.52
651.12	1061.83
651.46	1054.95
651.80	1047.76
652.14	1040.62
652.49	1035.17
652.83	1028.14
653.17	1021.88
653.51	1014.76
653.85	1008.86
654.20	1002.45
654.54	995.21
654.88	988.31
655.22	982.38
655.56	975.29
655.90	968.55
656.25	961.81
656.59	954.90
656.93	948.93
657.27	943.38
657.61	936.86
657.95	931.81
658.29	925.64
658.64	920.00
658.98	914.07
659.32	907.60
659.66	901.00
660.00	894.95
660.34	888.45
660.68	883.10
661.02	877.10
661.36	870.93
661.70	865.76
662.05	859.90
662.39	854.14
662.73	849.33
663.07	844.50
663.41	839.10
663.75	833.19
664.09	827.57
664.43	820.93
664.77	815.69
665.11	808.79
665.45	803.45
665.79	798.33
666.13	792.26
666.47	787.62
666.81	782.05
667.15	776.55
667.49	772.10
667.83	767.33
668.17	762.29
668.51	756.79
668.85	751.10
669.19	746.67
669.53	740.60
669.87	734.48
670.21	728.50
670.55	723.45
670.89	719.45
671.23	714.05
671.57	709.36
671.91	704.17
672.25	699.93
672.58	695.90
672.92	690.69
673.26	686.57
673.60	681.74
673.94	677.07
674.28	672.71
674.62	667.95
674.96	663.60
675.30	659.07
675.64	655.24
675.97	650.90
676.31	645.76
676.65	641.26
676.99	637.74
677.33	633.02
677.67	629.60
678.01	624.60
678.34	620.76
678.68	616.50
679.02	612.40
679.36	608.40
679.70	603.69
680.04	599.14
680.37	594.57
680.71	590.33
681.05	586.62
681.39	582.48
681.73	578.02
682.06	573.48
682.40	569.52
682.74	565.64
683.08	562.26
683.42	558.31
683.75	554.69
684.09	550.17
684.43	546.79
684.77	542.12
685.10	538.26
685.44	534.43
685.78	530.86
686.12	527.33
686.45	523.26
686.79	519.57
687.13	517.00
687.46	513.57
687.80	510.93
688.14	507.17
688.48	504.10
688.81	500.57
689.15	497.50
689.49	493.95
689.82	490.50
690.16	486.43
690.50	483.17
690.83	479.69
691.17	476.21
691.51	472.55
691.84	469.38
692.18	466.33
692.52	463.29
692.85	460.17
693.19	457.81
693.52	454.36
693.86	451.24
694.20	447.71
694.53	444.62
694.87	440.90
695.21	437.64
695.54	434.26
695.88	431.43
696.21	427.71
696.55	424.93
696.88	422.57
697.22	419.79
697.56	416.98
697.89	414.19
698.23	411.95
698.56	409.29
698.90	407.14
699.23	404.48
699.57	401.98
699.90	399.33
700.24	396.43
700.58	394.45
700.91	392.64
701.25	391.88
701.58	390.10
701.92	388.40
702.25	386.50
702.59	384.24
702.92	381.86
703.26	380.05
703.59	378.26
703.93	377.57
704.26	376.14
704.60	374.57
704.93	372.60
705.26	370.71
705.60	369.71
705.93	367.62
706.27	366.26
706.60	364.88
706.94	363.81
707.27	361.48
707.61	359.74
707.94	357.74
708.27	354.60
708.61	352.45
708.94	350.52
709.28	348.74
709.61	347.02
709.94	345.71
710.28	344.40
710.61	342.79
710.95	339.19
711.28	338.79
711.61	337.02
711.95	336.05
712.28	334.00
712.61	331.76
712.95	331.29
713.28	330.64
713.61	328.50
713.95	326.43
714.28	325.21
714.61	323.50
714.95	321.76
715.28	319.90
715.61	318.57
715.95	317.29
716.28	315.83
716.61	315.00
716.95	313.26
717.28	311.83
717.61	310.10
717.94	308.98
718.28	305.93
718.61	304.57
718.94	302.69
719.27	301.50
719.61	300.64
719.94	298.67
720.27	296.29
720.60	295.21
720.94	293.98
721.27	293.26
721.60	292.52
721.93	291.67
722.27	291.38
722.60	290.43
722.93	289.14
723.26	288.40
723.59	286.95
723.93	286.52
724.26	285.67
724.59	284.90
724.92	284.43
725.25	284.21
725.59	283.29
725.92	282.88
726.25	282.14
726.58	281.64
726.91	280.88
727.24	280.57
727.57	279.69
727.91	278.98
728.24	278.29
728.57	277.45
728.90	276.69
729.23	275.43
729.56	275.71
729.89	275.00
730.22	274.12
730.55	273.45
730.89	272.60
731.22	271.86
731.55	271.00
731.88	270.14
732.21	269.17
732.54	268.45
732.87	267.71
733.20	267.26
733.53	266.50
733.86	265.95
734.19	264.83
734.52	264.88
734.85	265.71
735.18	264.62
735.51	264.40
735.84	264.17
736.17	264.07
736.50	262.29
736.83	264.19
737.16	263.60
737.49	263.21
737.82	262.62
738.15	262.50
738.48	262.36
738.81	261.90
739.14	261.17
739.47	260.71
739.80	260.29
740.13	259.81
740.46	258.98
740.79	258.14
741.12	257.90
741.45	256.86
741.78	255.05
742.11	255.36
742.44	254.64
742.77	254.26
743.10	253.50
743.43	253.10
743.75	250.52
744.08	252.83
744.41	252.38
744.74	251.71
745.07	250.76
745.40	250.19
745.73	250.40
746.06	249.98
746.39	249.74
746.71	249.12
747.04	248.45
747.37	248.05
747.70	248.24
748.03	247.93
748.36	248.02
748.68	247.76
749.01	246.60
749.34	246.10
749.67	245.64
750.00	245.74
750.33	246.98
750.65	246.79
750.98	243.98
751.31	243.67
751.64	243.60
751.97	244.64
752.29	244.33
752.62	243.33
752.95	243.07
753.28	242.33
753.60	242.02
753.93	242.26
754.26	241.95
754.59	240.90
754.91	240.21
755.24	239.64
755.57	239.33
755.90	238.93
756.22	238.74
756.55	238.17
756.88	237.26
757.20	235.43
757.53	234.50
757.86	234.31
758.19	234.21
758.51	233.71
758.84	232.05
759.17	231.62
759.49	231.21
759.82	231.83
760.15	232.00
760.47	231.83
760.80	231.10
761.13	231.62
761.45	231.36
761.78	231.17
762.11	230.90
762.43	230.26
762.76	230.19
763.08	230.12
763.41	230.00
763.74	229.76
764.06	229.52
764.39	229.33
764.71	229.10
765.04	228.50
765.37	228.31
765.69	228.26
766.02	228.14
766.34	227.86
766.67	227.10
767.00	227.14
767.32	227.93
767.65	229.05
767.97	228.21
768.30	228.26
768.62	228.19
768.95	227.98
769.27	228.17
769.60	228.31
769.92	227.67
770.25	227.29
770.57	227.00
770.90	227.10
771.22	226.86
771.55	226.71
771.87	226.83
772.20	226.60
772.52	227.98
772.85	230.48
773.17	230.31
773.50	230.14
773.82	229.81
774.15	228.83
774.47	227.40
774.80	227.21
775.12	227.21
775.45	226.98
775.77	226.83
776.09	226.86
776.42	226.62
776.74	227.12
777.07	227.02
777.39	227.24
777.72	226.98
778.04	227.29
778.36	227.00
778.69	226.79
779.01	226.98
779.33	225.21
779.66	222.55
779.98	222.43
780.31	222.21
780.63	222.95
780.95	223.19
781.28	222.95
781.60	222.81
781.92	222.62
782.25	222.60
782.57	222.64
782.89	222.17
783.22	221.90
783.54	221.55
783.86	221.48
784.19	221.02
784.51	221.40
784.83	220.86
785.16	220.67
