SpectraSuite Data File
++++++++++++++++++++++++++++++++++++
Date: Tue Apr 02 18:37:43 EDT 2013
User: group
Dark Spectrum Present: No
Reference Spectrum Present: No
Number of Sampled Component Spectra: 1
Spectrometers: USB2E7196
Integration Time (usec): 580000 (USB2E7196)
Spectra Averaged: 2 (USB2E7196)
Boxcar Smoothing: 10 (USB2E7196)
Correct for Electrical Dark: No (USB2E7196)
Strobe/Lamp Enabled: No (USB2E7196)
Correct for Detector Non-linearity: No (USB2E7196)
Correct for Stray Light: No (USB2E7196)
Number of Pixels in Processed Spectrum: 2048
>>>>>Begin Processed Spectral Data<<<<<
339.09	0.00
339.48	188.50
339.86	191.00
340.24	196.00
340.63	197.50
341.01	229.50
341.39	202.50
341.78	205.00
342.16	211.00
342.54	205.00
342.93	197.02
343.31	206.88
343.69	207.60
344.07	208.36
344.46	209.05
344.84	209.71
345.22	208.57
345.60	208.90
345.99	209.26
346.37	209.14
346.75	209.24
347.13	209.36
347.52	209.52
347.90	210.26
348.28	210.24
348.66	210.74
349.05	210.17
349.43	210.55
349.81	210.81
350.19	211.07
350.57	211.26
350.96	211.52
351.34	211.71
351.72	211.86
352.10	212.00
352.48	211.93
352.87	211.86
353.25	212.21
353.63	212.05
354.01	211.98
354.39	212.17
354.77	212.31
355.15	212.93
355.54	212.71
355.92	212.14
356.30	212.21
356.68	213.48
357.06	213.71
357.44	213.36
357.82	213.36
358.20	214.12
358.58	214.05
358.97	214.19
359.35	214.57
359.73	215.29
360.11	215.17
360.49	215.24
360.87	215.24
361.25	215.38
361.63	216.33
362.01	216.48
362.39	216.36
362.77	216.48
363.15	216.43
363.53	216.71
363.91	216.98
364.29	217.21
364.67	215.26
365.05	215.26
365.43	215.69
365.81	215.86
366.19	215.93
366.57	216.83
366.95	216.76
367.33	216.21
367.71	216.00
368.09	216.57
368.47	216.71
368.85	216.55
369.23	216.79
369.61	216.05
369.99	216.64
370.37	217.02
370.75	217.86
371.13	217.17
371.51	216.79
371.89	216.93
372.27	216.76
372.65	216.93
373.03	216.69
373.41	216.33
373.78	216.19
374.16	215.29
374.54	214.90
374.92	214.69
375.30	215.14
375.68	214.71
376.06	214.79
376.44	214.64
376.82	214.86
377.19	214.83
377.57	214.71
377.95	214.10
378.33	213.90
378.71	212.86
379.09	213.50
379.47	213.64
379.84	213.57
380.22	213.17
380.60	212.83
380.98	213.17
381.36	213.21
381.73	212.98
382.11	213.55
382.49	213.43
382.87	213.31
383.25	213.02
383.62	215.43
384.00	215.10
384.38	215.21
384.76	215.88
385.13	216.79
385.51	216.88
385.89	216.60
386.27	216.62
386.64	217.07
387.02	216.79
387.40	216.71
387.78	216.74
388.15	217.31
388.53	217.38
388.91	217.26
389.29	216.88
389.66	217.26
390.04	216.60
390.42	216.83
390.79	216.88
391.17	217.02
391.55	214.98
391.92	214.76
392.30	214.95
392.68	214.14
393.05	213.71
393.43	213.81
393.81	213.95
394.18	213.55
394.56	213.62
394.94	213.93
395.31	213.86
395.69	214.33
396.06	214.33
396.44	214.43
396.82	214.29
397.19	215.60
397.57	215.36
397.95	216.00
398.32	215.38
398.70	215.71
399.07	216.17
399.45	216.02
399.82	216.24
400.20	216.05
400.58	216.33
400.95	215.57
401.33	216.05
401.70	217.55
402.08	217.81
402.45	217.76
402.83	218.24
403.20	218.62
403.58	218.29
403.95	218.88
404.33	219.45
404.71	220.02
405.08	221.12
405.46	221.71
405.83	222.31
406.21	222.86
406.58	223.19
406.96	223.55
407.33	224.24
407.70	225.07
408.08	227.52
408.45	228.33
408.83	229.40
409.20	229.93
409.58	229.81
409.95	231.12
410.33	232.05
410.70	232.57
411.08	234.07
411.45	235.67
411.82	236.57
412.20	238.14
412.57	240.52
412.95	240.48
413.32	242.55
413.69	243.90
414.07	245.86
414.44	248.12
414.82	250.17
415.19	252.90
415.56	255.26
415.94	256.48
416.31	260.02
416.68	263.40
417.06	267.17
417.43	271.10
417.81	274.79
418.18	279.12
418.55	283.50
418.93	288.12
419.30	292.88
419.67	298.14
420.04	303.10
420.42	308.33
420.79	316.38
421.16	323.10
421.54	330.86
421.91	337.88
422.28	345.10
422.66	352.95
423.03	362.10
423.40	370.40
423.77	379.14
424.15	387.60
424.52	396.36
424.89	406.14
425.26	415.05
425.64	423.98
426.01	433.62
426.38	444.00
426.75	455.17
427.13	466.17
427.50	477.50
427.87	489.40
428.24	501.10
428.61	511.12
428.99	523.86
429.36	536.12
429.73	549.26
430.10	562.76
430.47	576.48
430.85	589.14
431.22	604.19
431.59	621.71
431.96	637.05
432.33	654.29
432.70	670.98
433.08	690.24
433.45	708.36
433.82	726.55
434.19	746.62
434.56	767.07
434.93	785.62
435.30	804.74
435.68	826.38
436.05	847.31
436.42	867.95
436.79	887.31
437.16	908.74
437.53	931.05
437.90	953.57
438.27	974.98
438.64	997.14
439.01	1017.45
439.38	1034.67
439.75	1052.38
440.13	1072.62
440.50	1091.48
440.87	1107.26
441.24	1124.10
441.61	1142.50
441.98	1156.17
442.35	1170.40
442.72	1186.31
443.09	1202.33
443.46	1211.64
443.83	1218.40
444.20	1224.71
444.57	1231.57
444.94	1235.69
445.31	1240.50
445.68	1246.26
446.05	1248.10
446.42	1246.81
446.79	1245.83
447.16	1243.67
447.53	1242.43
447.90	1235.31
448.27	1227.98
448.64	1217.55
449.01	1210.40
449.37	1196.79
449.74	1184.07
450.11	1170.14
450.48	1152.71
450.85	1134.14
451.22	1118.88
451.59	1104.31
451.96	1090.50
452.33	1072.83
452.70	1056.29
453.07	1035.43
453.43	1012.38
453.80	993.45
454.17	974.12
454.54	955.24
454.91	935.76
455.28	916.55
455.65	898.26
456.02	884.00
456.38	869.12
456.75	850.67
457.12	834.81
457.49	819.10
457.86	802.55
458.23	790.86
458.59	777.07
458.96	763.07
459.33	750.38
459.70	737.43
460.07	727.69
460.43	715.55
460.80	704.98
461.17	696.31
461.54	686.21
461.91	676.90
462.27	667.12
462.64	658.69
463.01	650.14
463.38	642.29
463.74	629.71
464.11	621.88
464.48	615.05
464.85	607.69
465.21	602.50
465.58	596.67
465.95	588.60
466.32	582.69
466.68	576.05
467.05	570.10
467.42	564.14
467.78	557.02
468.15	551.38
468.52	546.86
468.88	540.00
469.25	534.17
469.62	530.07
469.98	525.81
470.35	521.83
470.72	517.62
471.08	512.38
471.45	509.64
471.82	506.40
472.18	502.36
472.55	499.48
472.92	495.40
473.28	492.00
473.65	488.74
474.02	485.24
474.38	483.29
474.75	480.98
475.11	478.43
475.48	476.64
475.85	474.86
476.21	472.95
476.58	471.79
476.94	470.86
477.31	468.93
477.67	467.67
478.04	466.05
478.41	464.88
478.77	466.17
479.14	464.64
479.50	463.90
479.87	463.55
480.23	463.38
480.60	462.93
480.96	462.81
481.33	463.81
481.69	464.02
482.06	464.19
482.42	464.86
482.79	466.05
483.15	466.79
483.52	467.64
483.88	468.31
484.25	469.40
484.61	470.45
484.98	471.90
485.34	474.07
485.71	476.29
486.07	478.29
486.44	478.74
486.80	481.00
487.17	483.10
487.53	485.95
487.90	488.62
488.26	492.48
488.62	495.24
488.99	497.83
489.35	501.60
489.72	504.83
490.08	507.95
490.44	510.95
490.81	515.17
491.17	519.14
491.54	523.98
491.90	528.50
492.26	533.43
492.63	538.55
492.99	543.21
493.36	548.55
493.72	554.50
494.08	560.07
494.45	566.50
494.81	573.10
495.17	579.07
495.54	585.98
495.90	591.48
496.26	598.83
496.63	606.71
496.99	613.83
497.35	622.00
497.72	629.60
498.08	637.71
498.44	645.48
498.80	654.62
499.17	662.64
499.53	670.76
499.89	679.62
500.26	688.40
500.62	697.45
500.98	706.52
501.34	715.26
501.71	725.40
502.07	734.67
502.43	743.88
502.79	753.10
503.16	762.29
503.52	772.40
503.88	781.52
504.24	790.86
504.60	801.45
504.97	811.67
505.33	822.05
505.69	832.98
506.05	843.38
506.41	852.69
506.78	862.86
507.14	872.81
507.50	882.86
507.86	892.69
508.22	903.02
508.59	912.79
508.95	923.10
509.31	933.55
509.67	943.69
510.03	953.57
510.39	963.81
510.75	973.52
511.12	983.55
511.48	993.55
511.84	1003.19
512.20	1012.29
512.56	1021.48
512.92	1032.00
513.28	1041.52
513.64	1050.76
514.00	1060.50
514.37	1070.45
514.73	1080.31
515.09	1089.14
515.45	1098.76
515.81	1107.81
516.17	1116.95
516.53	1125.86
516.89	1133.79
517.25	1142.17
517.61	1151.76
517.97	1159.90
518.33	1168.50
518.69	1176.79
519.05	1185.50
519.41	1193.17
519.77	1201.88
520.13	1210.00
520.49	1216.26
520.85	1223.26
521.21	1231.38
521.57	1238.76
521.93	1244.98
522.29	1252.17
522.65	1259.00
523.01	1266.00
523.37	1272.29
523.73	1278.67
524.09	1284.60
524.45	1290.36
524.81	1295.74
525.17	1300.90
525.53	1306.52
525.89	1312.24
526.25	1317.71
526.61	1322.64
526.97	1327.69
527.33	1332.19
527.68	1338.12
528.04	1343.86
528.40	1347.31
528.76	1350.90
529.12	1355.14
529.48	1360.07
529.84	1363.02
530.20	1366.86
530.56	1371.02
530.91	1375.12
531.27	1378.67
531.63	1382.48
531.99	1385.48
532.35	1388.24
532.71	1391.10
533.07	1395.12
533.42	1400.00
533.78	1402.60
534.14	1405.93
534.50	1408.31
534.86	1411.52
535.21	1413.21
535.57	1415.83
535.93	1419.14
536.29	1422.90
536.65	1426.55
537.00	1428.40
537.36	1431.74
537.72	1435.29
538.08	1437.14
538.44	1438.64
538.79	1440.57
539.15	1441.57
539.51	1444.76
539.87	1448.14
540.22	1449.36
540.58	1450.57
540.94	1450.76
541.29	1452.50
541.65	1453.12
542.01	1454.88
542.37	1455.33
542.72	1454.33
543.08	1454.29
543.44	1455.10
543.79	1453.38
544.15	1453.02
544.51	1453.60
544.87	1454.17
545.22	1453.90
545.58	1453.33
545.94	1452.79
546.29	1452.55
546.65	1452.71
547.01	1451.33
547.36	1450.26
547.72	1450.43
548.07	1449.62
548.43	1448.45
548.79	1446.69
549.14	1445.45
549.50	1444.62
549.86	1442.52
550.21	1442.60
550.57	1441.93
550.92	1439.76
551.28	1439.45
551.64	1437.29
551.99	1435.76
552.35	1433.98
552.70	1432.29
553.06	1430.24
553.41	1429.24
553.77	1429.43
554.13	1428.24
554.48	1427.52
554.84	1426.48
555.19	1424.81
555.55	1424.86
555.90	1422.90
556.26	1422.50
556.61	1421.93
556.97	1420.40
557.32	1419.79
557.68	1418.36
558.03	1416.26
558.39	1415.10
558.74	1414.02
559.10	1412.83
559.45	1411.48
559.81	1409.45
560.16	1407.24
560.52	1406.52
560.87	1404.48
561.23	1401.36
561.58	1400.71
561.94	1397.76
562.29	1395.26
562.64	1394.00
563.00	1390.36
563.35	1388.95
563.71	1386.55
564.06	1384.36
564.42	1382.36
564.77	1381.05
565.12	1380.02
565.48	1380.88
565.83	1380.69
566.19	1379.29
566.54	1377.43
566.89	1376.05
567.25	1375.81
567.60	1375.98
567.96	1376.21
568.31	1375.98
568.66	1374.60
569.02	1371.93
569.37	1370.38
569.72	1368.81
570.08	1366.33
570.43	1364.93
570.78	1363.26
571.14	1361.33
571.49	1359.69
571.84	1358.14
572.20	1356.00
572.55	1353.52
572.90	1348.93
573.26	1345.81
573.61	1343.07
573.96	1340.45
574.31	1338.02
574.67	1333.90
575.02	1329.57
575.37	1325.24
575.72	1321.55
576.08	1318.40
576.43	1315.14
576.78	1311.98
577.13	1309.81
577.49	1306.07
577.84	1302.69
578.19	1298.29
578.54	1295.76
578.90	1291.24
579.25	1286.93
579.60	1282.64
579.95	1278.05
580.30	1273.74
580.66	1270.33
581.01	1266.29
581.36	1262.40
581.71	1257.86
582.06	1254.36
582.42	1250.76
582.77	1246.10
583.12	1241.76
583.47	1237.88
583.82	1234.14
584.17	1230.62
584.53	1226.79
584.88	1223.10
585.23	1219.36
585.58	1215.62
585.93	1210.36
586.28	1206.71
586.63	1202.79
586.98	1198.64
587.34	1195.52
587.69	1191.38
588.04	1186.55
588.39	1182.55
588.74	1177.55
589.09	1172.98
589.44	1168.33
589.79	1164.02
590.14	1160.17
590.49	1155.71
590.84	1150.43
591.19	1145.93
591.54	1141.50
591.89	1135.86
592.25	1132.79
592.60	1127.93
592.95	1123.79
593.30	1120.45
593.65	1116.29
594.00	1111.98
594.35	1113.24
594.70	1108.10
595.05	1104.67
595.40	1100.17
595.75	1094.88
596.10	1091.21
596.45	1087.40
596.80	1083.36
597.15	1078.67
597.50	1073.38
597.85	1069.83
598.19	1066.10
598.54	1061.76
598.89	1056.95
599.24	1053.33
599.59	1048.07
599.94	1043.74
600.29	1038.90
600.64	1033.50
600.99	1028.81
601.34	1025.31
601.69	1015.48
602.04	1011.31
602.39	1006.12
602.74	1001.74
603.08	997.40
603.43	994.02
603.78	989.48
604.13	985.31
604.48	980.74
604.83	976.69
605.18	972.05
605.53	967.45
605.87	962.79
606.22	958.71
606.57	954.00
606.92	949.31
607.27	944.83
607.62	941.07
607.96	937.57
608.31	933.67
608.66	929.31
609.01	924.60
609.36	920.43
609.70	917.02
610.05	912.86
610.40	909.38
610.75	903.93
611.10	899.67
611.44	894.88
611.79	890.33
612.14	886.33
612.49	881.45
612.83	877.19
613.18	872.88
613.53	868.14
613.88	862.86
614.22	858.33
614.57	853.76
614.92	849.02
615.27	844.33
615.61	839.64
615.96	834.05
616.31	830.33
616.65	826.83
617.00	821.76
617.35	817.12
617.70	812.17
618.04	807.88
618.39	803.29
618.74	799.26
619.08	795.38
619.43	790.88
619.78	787.07
620.12	782.98
620.47	779.21
620.82	774.74
621.16	771.07
621.51	768.21
621.85	764.00
622.20	760.31
622.55	755.79
622.89	751.38
623.24	748.29
623.59	743.76
623.93	739.24
624.28	736.31
624.62	735.29
624.97	733.14
625.32	729.52
625.66	725.79
626.01	721.74
626.35	718.57
626.70	714.83
627.04	710.95
627.39	707.19
627.73	704.29
628.08	701.45
628.43	697.74
628.77	693.17
629.12	689.98
629.46	686.76
629.81	684.21
630.15	681.02
630.50	676.79
630.84	673.24
631.19	669.38
631.53	665.02
631.88	658.88
632.22	653.45
632.57	650.38
632.91	647.10
633.26	644.12
633.60	639.98
633.95	636.62
634.29	632.88
634.64	629.86
634.98	625.64
635.32	622.93
635.67	620.02
636.01	616.67
636.36	613.36
636.70	610.29
637.05	606.50
637.39	603.62
637.73	601.12
638.08	599.19
638.42	596.21
638.77	593.74
639.11	590.93
639.45	588.33
639.80	584.74
640.14	581.38
640.49	578.17
640.83	574.95
641.17	572.29
641.52	569.64
641.86	566.40
642.20	564.29
642.55	560.71
642.89	557.88
643.23	555.31
643.58	553.07
643.92	548.95
644.26	546.48
644.61	543.48
644.95	540.79
645.29	537.07
645.64	534.57
645.98	531.26
646.32	528.76
646.66	525.98
647.01	523.29
647.35	521.02
647.69	518.38
648.04	515.95
648.38	513.57
648.72	511.17
649.06	508.38
649.41	505.02
649.75	502.12
650.09	499.67
650.43	496.74
650.78	493.52
651.12	491.33
651.46	488.29
651.80	485.45
652.14	482.29
652.49	480.31
652.83	477.36
653.17	474.83
653.51	471.90
653.85	469.76
654.20	467.69
654.54	465.05
654.88	462.26
655.22	460.76
655.56	457.50
655.90	454.60
656.25	453.21
656.59	450.95
656.93	448.50
657.27	446.83
657.61	444.45
657.95	442.93
658.29	441.05
658.64	439.62
658.98	437.55
659.32	435.24
659.66	432.52
660.00	431.12
660.34	429.21
660.68	427.26
661.02	424.95
661.36	422.40
661.70	420.36
662.05	418.43
662.39	416.24
662.73	415.57
663.07	415.26
663.41	412.52
663.75	410.60
664.09	409.19
664.43	406.43
664.77	404.71
665.11	402.60
665.45	400.93
665.79	399.19
666.13	397.43
666.47	395.98
666.81	394.76
667.15	392.52
667.49	391.00
667.83	390.02
668.17	388.64
668.51	387.29
668.85	385.93
669.19	385.19
669.53	383.10
669.87	380.79
670.21	378.48
670.55	377.07
670.89	376.52
671.23	375.14
671.57	373.98
671.91	372.95
672.25	371.36
672.58	370.74
672.92	368.62
673.26	367.36
673.60	366.26
673.94	364.62
674.28	363.26
674.62	362.12
674.96	360.50
675.30	359.38
675.64	358.21
675.97	356.88
676.31	355.07
676.65	353.79
676.99	353.57
677.33	352.05
677.67	350.76
678.01	348.57
678.34	347.14
678.68	346.12
679.02	344.43
679.36	343.26
679.70	341.26
680.04	340.12
680.37	338.95
680.71	337.67
681.05	336.81
681.39	336.05
681.73	335.00
682.06	333.69
682.40	332.38
682.74	331.36
683.08	331.12
683.42	329.76
683.75	328.98
684.09	327.05
684.43	325.64
684.77	324.33
685.10	323.38
685.44	322.50
685.78	321.24
686.12	320.55
686.45	319.29
686.79	318.29
687.13	317.79
687.46	316.88
687.80	316.10
688.14	314.93
688.48	313.76
688.81	312.43
689.15	312.31
689.49	311.19
689.82	310.14
690.16	308.26
690.50	307.26
690.83	305.93
691.17	304.69
691.51	304.07
691.84	303.79
692.18	302.52
692.52	301.33
692.85	300.81
693.19	300.21
693.52	299.40
693.86	298.29
694.20	297.00
694.53	296.10
694.87	295.33
695.21	294.14
695.54	292.93
695.88	291.93
696.21	289.83
696.55	289.14
696.88	288.36
697.22	287.31
697.56	286.88
697.89	286.05
698.23	286.05
698.56	285.07
698.90	284.55
699.23	283.83
699.57	283.29
699.90	282.24
700.24	281.07
700.58	280.52
700.91	280.24
701.25	281.17
701.58	281.00
701.92	280.55
702.25	280.02
702.59	279.26
702.92	279.02
703.26	279.00
703.59	278.24
703.93	279.17
704.26	278.90
704.60	278.76
704.93	278.14
705.26	277.02
705.60	276.88
705.93	275.57
706.27	275.74
706.60	275.45
706.94	275.52
707.27	274.83
707.61	274.17
707.94	273.52
708.27	271.29
708.61	270.05
708.94	269.36
709.28	269.00
709.61	268.43
709.94	267.86
710.28	266.98
710.61	266.43
710.95	264.10
711.28	264.86
711.61	263.76
711.95	263.74
712.28	263.12
712.61	262.24
712.95	262.81
713.28	263.05
713.61	262.38
713.95	261.45
714.28	261.24
714.61	260.95
714.95	260.52
715.28	259.93
715.61	259.57
715.95	259.14
716.28	258.57
716.61	258.74
716.95	257.90
717.28	257.55
717.61	257.19
717.94	256.90
718.28	254.93
718.61	254.69
718.94	253.71
719.27	253.26
719.61	252.95
719.94	251.95
720.27	250.36
720.60	250.00
720.94	249.57
721.27	249.33
721.60	249.07
721.93	248.24
722.27	248.62
722.60	248.33
722.93	247.81
723.26	247.40
723.59	246.64
723.93	246.71
724.26	246.48
724.59	246.05
724.92	245.93
725.25	246.40
725.59	245.86
725.92	245.90
726.25	245.55
726.58	245.21
726.91	244.74
727.24	244.83
727.57	244.40
727.91	243.64
728.24	243.38
728.57	242.64
728.90	242.81
729.23	242.00
729.56	242.98
729.89	242.52
730.22	242.17
730.55	241.95
730.89	241.60
731.22	241.29
731.55	241.12
731.88	240.93
732.21	240.19
732.54	239.74
732.87	239.55
733.20	239.71
733.53	239.67
733.86	239.74
734.19	239.05
734.52	238.95
734.85	240.48
735.18	239.79
735.51	240.55
735.84	240.40
736.17	240.67
736.50	238.98
736.83	241.12
737.16	240.98
737.49	240.69
737.82	240.64
738.15	240.50
738.48	239.95
738.81	239.79
739.14	239.31
739.47	238.95
739.80	238.69
740.13	238.31
740.46	237.71
740.79	237.10
741.12	237.02
741.45	236.76
741.78	235.29
742.11	235.90
742.44	235.19
742.77	235.26
743.10	234.62
743.43	234.50
743.75	232.33
744.08	234.90
744.41	234.57
744.74	234.19
745.07	233.60
745.40	234.02
745.73	234.52
746.06	234.60
746.39	234.98
746.71	234.74
747.04	234.31
747.37	234.07
747.70	234.26
748.03	234.07
748.36	234.21
748.68	233.88
749.01	232.98
749.34	232.81
749.67	232.55
750.00	232.86
750.33	234.33
750.65	234.24
750.98	231.29
751.31	231.12
751.64	231.05
751.97	232.48
752.29	231.98
752.62	230.79
752.95	230.50
753.28	229.98
753.60	229.62
753.93	230.02
754.26	230.31
754.59	229.71
754.91	229.45
755.24	229.10
755.57	228.86
755.90	228.69
756.22	228.29
756.55	227.74
756.88	227.29
757.20	225.74
757.53	225.10
757.86	225.07
758.19	225.40
758.51	225.36
758.84	223.83
759.17	223.50
759.49	223.50
759.82	224.67
760.15	224.67
760.47	224.45
760.80	223.86
761.13	224.05
761.45	224.00
761.78	223.62
762.11	223.43
762.43	223.17
762.76	223.07
763.08	223.17
763.41	223.38
763.74	223.57
764.06	223.19
764.39	223.31
764.71	223.17
765.04	222.81
765.37	222.36
765.69	222.29
766.02	222.21
766.34	222.02
766.67	220.86
767.00	221.43
767.32	222.81
767.65	224.00
767.97	223.45
768.30	223.48
768.62	223.74
768.95	223.62
769.27	223.50
769.60	223.67
769.92	223.21
770.25	222.81
770.57	222.05
770.90	222.02
771.22	221.76
771.55	221.79
771.87	221.57
772.20	221.43
772.52	223.17
772.85	225.64
773.17	225.62
773.50	225.36
773.82	224.71
774.15	223.64
774.47	222.19
774.80	222.10
775.12	222.02
775.45	221.88
775.77	221.79
776.09	222.07
776.42	222.17
776.74	222.67
777.07	222.57
777.39	222.76
777.72	222.62
778.04	222.88
778.36	222.52
778.69	222.69
779.01	222.64
779.33	220.83
779.66	218.40
779.98	218.33
780.31	218.57
780.63	219.36
780.95	219.43
781.28	219.45
781.60	219.17
781.92	219.24
782.25	219.07
782.57	219.02
782.89	218.52
783.22	218.17
783.54	217.93
783.86	217.83
784.19	217.71
784.51	218.40
784.83	217.83
785.16	217.83
785.48	217.74
785.80	218.02
786.12	218.17
786.45	218.36
786.77	218.36
787.09	218.07
787.42	217.33
787.74	217.69
788.06	217.71
