SpectraSuite Data File
++++++++++++++++++++++++++++++++++++
Date: Tue Apr 02 18:40:13 EDT 2013
User: group
Dark Spectrum Present: No
Reference Spectrum Present: No
Number of Sampled Component Spectra: 1
Spectrometers: USB2E7196
Integration Time (usec): 580000 (USB2E7196)
Spectra Averaged: 2 (USB2E7196)
Boxcar Smoothing: 10 (USB2E7196)
Correct for Electrical Dark: No (USB2E7196)
Strobe/Lamp Enabled: No (USB2E7196)
Correct for Detector Non-linearity: No (USB2E7196)
Correct for Stray Light: No (USB2E7196)
Number of Pixels in Processed Spectrum: 2048
>>>>>Begin Processed Spectral Data<<<<<
339.09	0.00
339.48	192.00
339.86	193.00
340.24	193.50
340.63	199.00
341.01	227.50
341.39	198.50
341.78	205.00
342.16	213.50
342.54	207.50
342.93	195.74
343.31	205.38
343.69	206.00
344.07	206.64
344.46	207.26
344.84	207.76
345.22	206.81
345.60	207.31
345.99	207.55
346.37	207.24
346.75	207.14
347.13	207.19
347.52	207.48
347.90	208.14
348.28	208.48
348.66	209.17
349.05	208.57
349.43	208.88
349.81	209.19
350.19	209.29
350.57	209.33
350.96	209.55
351.34	210.02
351.72	210.33
352.10	210.50
352.48	210.62
352.87	210.50
353.25	210.50
353.63	210.45
354.01	210.48
354.39	210.88
354.77	210.79
355.15	211.50
355.54	211.36
355.92	210.76
356.30	210.81
356.68	211.93
357.06	212.10
357.44	212.07
357.82	212.24
358.20	213.38
358.58	213.52
358.97	214.05
359.35	214.36
359.73	214.71
360.11	214.83
360.49	214.90
360.87	215.31
361.25	215.88
361.63	216.74
362.01	216.98
362.39	216.62
362.77	217.21
363.15	217.21
363.53	217.38
363.91	217.83
364.29	217.86
364.67	216.12
365.05	216.33
365.43	216.76
365.81	216.93
366.19	216.79
366.57	217.38
366.95	217.21
367.33	216.76
367.71	216.69
368.09	217.10
368.47	217.38
368.85	217.19
369.23	217.33
369.61	216.38
369.99	216.95
370.37	217.31
370.75	218.12
371.13	217.71
371.51	217.69
371.89	217.81
372.27	217.95
372.65	218.05
373.03	218.07
373.41	217.55
373.78	217.36
374.16	216.64
374.54	216.14
374.92	216.00
375.30	216.07
375.68	215.74
376.06	215.60
376.44	215.43
376.82	215.67
377.19	215.74
377.57	215.81
377.95	215.21
378.33	215.14
378.71	214.12
379.09	214.31
379.47	214.43
379.84	214.12
380.22	213.90
380.60	213.60
380.98	213.38
381.36	213.52
381.73	213.24
382.11	213.43
382.49	213.40
382.87	213.24
383.25	213.45
383.62	215.86
384.00	215.40
384.38	215.17
384.76	215.38
385.13	216.12
385.51	216.19
385.89	215.64
386.27	215.71
386.64	215.88
387.02	215.64
387.40	215.43
387.78	215.55
388.15	215.86
388.53	215.83
388.91	216.12
389.29	215.88
389.66	216.31
390.04	216.19
390.42	216.60
390.79	216.71
391.17	216.55
391.55	214.10
391.92	214.21
392.30	214.76
392.68	214.26
393.05	213.93
393.43	214.00
393.81	214.33
394.18	213.88
394.56	213.86
394.94	214.36
395.31	214.26
395.69	215.07
396.06	215.24
396.44	215.55
396.82	215.45
397.19	216.79
397.57	216.62
397.95	216.88
398.32	216.31
398.70	216.40
399.07	216.74
399.45	216.67
399.82	216.79
400.20	216.40
400.58	216.57
400.95	215.79
401.33	216.26
401.70	217.83
402.08	218.24
402.45	218.38
402.83	218.71
403.20	218.88
403.58	218.55
403.95	219.00
404.33	219.52
404.71	219.74
405.08	220.64
405.46	221.00
405.83	221.33
406.21	221.62
406.58	222.07
406.96	222.64
407.33	223.55
407.70	224.21
408.08	226.57
408.45	227.21
408.83	228.43
409.20	228.83
409.58	228.43
409.95	229.33
410.33	230.79
410.70	231.24
411.08	232.62
411.45	233.98
411.82	234.64
412.20	236.17
412.57	238.71
412.95	238.38
413.32	240.45
413.69	241.88
414.07	243.81
414.44	245.76
414.82	247.64
415.19	250.21
415.56	252.69
415.94	253.98
416.31	257.14
416.68	260.00
417.06	263.55
417.43	267.14
417.81	271.36
418.18	274.74
418.55	278.81
418.93	283.02
419.30	287.52
419.67	292.64
420.04	297.12
420.42	301.19
420.79	308.69
421.16	314.40
421.54	321.74
421.91	328.19
422.28	334.74
422.66	341.69
423.03	349.76
423.40	356.81
423.77	364.43
424.15	372.17
424.52	380.24
424.89	389.43
425.26	398.14
425.64	405.98
426.01	414.69
426.38	424.48
426.75	434.62
427.13	444.33
427.50	454.74
427.87	465.24
428.24	476.07
428.61	485.48
428.99	497.43
429.36	508.31
429.73	520.69
430.10	533.57
430.47	546.79
430.85	558.21
431.22	571.95
431.59	587.69
431.96	601.12
432.33	616.76
432.70	631.45
433.08	648.07
433.45	664.26
433.82	681.12
434.19	698.74
434.56	716.79
434.93	733.26
435.30	750.24
435.68	770.17
436.05	788.71
436.42	806.76
436.79	823.45
437.16	842.33
437.53	861.98
437.90	879.79
438.27	898.36
438.64	917.38
439.01	936.07
439.38	951.45
439.75	967.36
440.13	984.83
440.50	1001.52
440.87	1015.83
441.24	1030.14
441.61	1045.31
441.98	1057.50
442.35	1070.33
442.72	1085.36
443.09	1099.71
443.46	1107.21
443.83	1113.62
444.20	1118.98
444.57	1125.98
444.94	1129.05
445.31	1132.19
445.68	1139.14
446.05	1140.90
446.42	1140.38
446.79	1138.60
447.16	1136.26
447.53	1135.83
447.90	1129.00
448.27	1122.50
448.64	1112.83
449.01	1106.57
449.37	1095.00
449.74	1082.81
450.11	1070.36
450.48	1053.69
450.85	1036.88
451.22	1022.81
451.59	1009.12
451.96	996.71
452.33	979.64
452.70	964.83
453.07	946.48
453.43	924.86
453.80	906.69
454.17	889.60
454.54	873.38
454.91	855.76
455.28	838.21
455.65	822.33
456.02	809.69
456.38	795.98
456.75	778.86
457.12	764.83
457.49	751.48
457.86	736.33
458.23	725.79
458.59	712.76
458.96	700.26
459.33	689.33
459.70	677.55
460.07	669.00
460.43	658.36
460.80	649.21
461.17	642.26
461.54	633.57
461.91	624.50
462.27	615.31
462.64	607.79
463.01	599.76
463.38	592.62
463.74	580.90
464.11	573.64
464.48	567.52
464.85	560.17
465.21	555.36
465.58	549.71
465.95	542.43
466.32	536.69
466.68	531.26
467.05	525.36
467.42	519.93
467.78	513.79
468.15	508.62
468.52	504.40
468.88	497.81
469.25	492.69
469.62	489.45
469.98	485.48
470.35	481.90
470.72	477.62
471.08	472.81
471.45	470.17
471.82	467.29
472.18	463.83
472.55	461.26
472.92	457.26
473.28	454.48
473.65	451.55
474.02	449.02
474.38	446.90
474.75	445.02
475.11	442.81
475.48	441.05
475.85	439.26
476.21	437.52
476.58	436.31
476.94	435.48
477.31	433.74
477.67	432.45
478.04	431.02
478.41	430.60
478.77	432.02
479.14	430.64
479.50	430.33
479.87	430.00
480.23	429.55
480.60	429.19
480.96	429.10
481.33	429.81
481.69	429.55
482.06	429.64
482.42	430.19
482.79	430.19
483.15	430.88
483.52	431.79
483.88	432.07
484.25	432.71
484.61	433.33
484.98	434.29
485.34	435.93
485.71	437.76
486.07	438.71
486.44	438.00
486.80	439.40
487.17	440.62
487.53	443.17
487.90	445.45
488.26	448.48
488.62	451.36
488.99	453.14
489.35	456.62
489.72	459.43
490.08	462.36
490.44	465.71
490.81	469.14
491.17	472.31
491.54	476.26
491.90	480.36
492.26	484.33
492.63	488.69
492.99	492.12
493.36	496.52
493.72	501.40
494.08	506.19
494.45	511.95
494.81	517.52
495.17	522.38
495.54	528.29
495.90	533.24
496.26	537.90
496.63	543.86
496.99	549.17
497.35	555.48
497.72	561.62
498.08	567.81
498.44	574.43
498.80	581.60
499.17	588.43
499.53	594.74
499.89	601.93
500.26	608.93
500.62	616.43
500.98	623.95
501.34	631.52
501.71	639.88
502.07	647.26
502.43	655.24
502.79	662.64
503.16	670.00
503.52	678.07
503.88	685.90
504.24	694.33
504.60	702.79
504.97	711.29
505.33	719.62
505.69	729.60
506.05	738.00
506.41	746.31
506.78	754.38
507.14	762.90
507.50	771.76
507.86	780.31
508.22	789.05
508.59	797.19
508.95	806.17
509.31	815.69
509.67	824.67
510.03	832.67
510.39	841.26
510.75	849.90
511.12	858.79
511.48	867.86
511.84	876.14
512.20	884.26
512.56	891.93
512.92	899.81
513.28	907.10
513.64	915.10
514.00	923.14
514.37	931.24
514.73	939.74
515.09	947.90
515.45	955.36
515.81	962.86
516.17	970.74
516.53	977.26
516.89	983.19
517.25	989.79
517.61	997.76
517.97	1005.43
518.33	1013.33
518.69	1020.50
519.05	1027.88
519.41	1035.40
519.77	1043.83
520.13	1050.86
520.49	1057.21
520.85	1064.31
521.21	1071.67
521.57	1078.33
521.93	1085.21
522.29	1092.31
522.65	1098.10
523.01	1105.10
523.37	1111.88
523.73	1118.29
524.09	1124.71
524.45	1130.88
524.81	1137.02
525.17	1143.07
525.53	1148.36
525.89	1153.60
526.25	1159.48
526.61	1164.81
526.97	1169.55
527.33	1174.19
527.68	1180.90
528.04	1187.14
528.40	1192.14
528.76	1196.26
529.12	1201.17
529.48	1206.57
529.84	1210.79
530.20	1216.12
530.56	1221.64
530.91	1227.33
531.27	1232.31
531.63	1237.29
531.99	1242.31
532.35	1247.57
532.71	1252.64
533.07	1258.48
533.42	1265.71
533.78	1270.79
534.14	1276.64
534.50	1281.93
534.86	1287.81
535.21	1292.64
535.57	1298.21
535.93	1302.71
536.29	1309.19
536.65	1314.88
537.00	1318.95
537.36	1323.52
537.72	1327.31
538.08	1330.62
538.44	1334.57
538.79	1339.00
539.15	1343.19
539.51	1347.67
539.87	1352.40
540.22	1355.88
540.58	1359.21
540.94	1361.21
541.29	1364.83
541.65	1368.29
542.01	1373.19
542.37	1375.90
542.72	1379.07
543.08	1382.00
543.44	1386.33
543.79	1388.57
544.15	1392.00
544.51	1397.00
544.87	1400.31
545.22	1405.45
545.58	1410.38
545.94	1412.86
546.29	1416.05
546.65	1420.26
547.01	1424.19
547.36	1427.57
547.72	1430.90
548.07	1435.29
548.43	1439.12
548.79	1442.33
549.14	1445.79
549.50	1448.60
549.86	1451.64
550.21	1454.60
550.57	1459.00
550.92	1462.17
551.28	1466.36
551.64	1470.19
551.99	1473.79
552.35	1478.81
552.70	1481.69
553.06	1485.26
553.41	1489.88
553.77	1495.07
554.13	1499.67
554.48	1504.31
554.84	1509.76
555.19	1515.19
555.55	1521.19
555.90	1525.38
556.26	1530.14
556.61	1534.19
556.97	1538.26
557.32	1543.79
557.68	1548.14
558.03	1552.45
558.39	1556.76
558.74	1561.02
559.10	1565.86
559.45	1570.55
559.81	1575.52
560.16	1580.50
560.52	1585.05
560.87	1590.43
561.23	1594.88
561.58	1600.76
561.94	1604.60
562.29	1607.43
562.64	1611.76
563.00	1615.10
563.35	1619.55
563.71	1624.07
564.06	1629.48
564.42	1634.74
564.77	1640.55
565.12	1647.19
565.48	1652.95
565.83	1659.14
566.19	1665.31
566.54	1669.98
566.89	1674.48
567.25	1680.00
567.60	1686.90
567.96	1693.81
568.31	1700.07
568.66	1705.71
569.02	1709.74
569.37	1714.05
569.72	1720.12
570.08	1724.52
570.43	1729.26
570.78	1734.19
571.14	1738.90
571.49	1743.05
571.84	1748.05
572.20	1751.40
572.55	1754.95
572.90	1757.64
573.26	1760.62
573.61	1763.19
573.96	1767.52
574.31	1770.88
574.67	1773.21
575.02	1774.64
575.37	1776.38
575.72	1777.21
576.08	1779.24
576.43	1781.24
576.78	1783.86
577.13	1785.71
577.49	1788.12
577.84	1790.21
578.19	1792.69
578.54	1795.14
578.90	1797.50
579.25	1799.31
579.60	1800.38
579.95	1801.24
580.30	1803.55
580.66	1806.12
581.01	1808.81
581.36	1809.60
581.71	1810.40
582.06	1813.57
582.42	1815.17
582.77	1815.71
583.12	1816.62
583.47	1817.00
583.82	1818.71
584.17	1820.33
584.53	1822.07
584.88	1822.52
585.23	1824.62
585.58	1825.00
585.93	1824.29
586.28	1825.40
586.63	1826.24
586.98	1827.69
587.34	1829.17
587.69	1829.26
588.04	1828.19
588.39	1828.62
588.74	1827.33
589.09	1827.36
589.44	1824.31
589.79	1824.17
590.14	1824.33
590.49	1824.62
590.84	1824.36
591.19	1823.36
591.54	1823.10
591.89	1821.50
592.25	1822.55
592.60	1820.62
592.95	1819.67
593.30	1820.10
593.65	1818.14
594.00	1815.12
594.35	1819.36
594.70	1817.31
595.05	1815.71
595.40	1815.19
595.75	1812.79
596.10	1812.93
596.45	1812.36
596.80	1811.21
597.15	1809.29
597.50	1807.05
597.85	1806.29
598.19	1805.64
598.54	1804.33
598.89	1802.45
599.24	1800.88
599.59	1798.00
599.94	1795.62
600.29	1793.74
600.64	1791.67
600.99	1790.40
601.34	1790.02
601.69	1782.48
602.04	1779.69
602.39	1777.38
602.74	1774.93
603.08	1772.93
603.43	1772.43
603.78	1769.93
604.13	1768.60
604.48	1767.24
604.83	1765.38
605.18	1762.62
605.53	1759.33
605.87	1756.00
606.22	1753.07
606.57	1750.00
606.92	1746.71
607.27	1744.07
607.62	1742.00
607.96	1740.02
608.31	1736.67
608.66	1732.86
609.01	1727.69
609.36	1725.10
609.70	1721.60
610.05	1718.29
610.40	1714.83
610.75	1708.71
611.10	1704.90
611.44	1701.10
611.79	1695.79
612.14	1691.55
612.49	1685.74
612.83	1680.57
613.18	1675.43
613.53	1670.64
613.88	1665.90
614.22	1661.48
614.57	1655.48
614.92	1649.43
615.27	1643.36
615.61	1637.24
615.96	1631.55
616.31	1627.71
616.65	1623.10
617.00	1617.98
617.35	1612.43
617.70	1606.57
618.04	1601.33
618.39	1594.40
618.74	1587.50
619.08	1581.95
619.43	1575.00
619.78	1570.05
620.12	1565.50
620.47	1561.02
620.82	1554.69
621.16	1548.31
621.51	1542.93
621.85	1537.88
622.20	1531.98
622.55	1525.67
622.89	1520.24
623.24	1515.48
623.59	1509.48
623.93	1503.69
624.28	1498.90
624.62	1495.60
624.97	1491.07
625.32	1485.50
625.66	1481.55
626.01	1476.81
626.35	1471.67
626.70	1467.67
627.04	1463.10
627.39	1457.02
627.73	1452.21
628.08	1447.50
628.43	1442.60
628.77	1436.98
629.12	1431.24
629.46	1426.50
629.81	1421.21
630.15	1415.74
630.50	1410.71
630.84	1405.43
631.19	1398.67
631.53	1392.48
631.88	1383.79
632.22	1376.07
632.57	1370.67
632.91	1364.60
633.26	1359.02
633.60	1353.00
633.95	1346.33
634.29	1340.10
634.64	1334.69
634.98	1328.40
635.32	1323.24
635.67	1318.60
636.01	1313.21
636.36	1306.74
636.70	1301.69
637.05	1295.74
637.39	1290.33
637.73	1283.71
638.08	1278.71
638.42	1273.76
638.77	1268.02
639.11	1262.48
639.45	1257.43
639.80	1251.43
640.14	1244.98
640.49	1238.40
640.83	1231.55
641.17	1226.24
641.52	1219.50
641.86	1213.19
642.20	1207.21
642.55	1199.62
642.89	1191.93
643.23	1184.50
643.58	1179.62
643.92	1171.69
644.26	1165.10
644.61	1158.48
644.95	1151.48
645.29	1144.17
645.64	1138.26
645.98	1131.33
646.32	1125.26
646.66	1117.74
647.01	1110.57
647.35	1104.55
647.69	1097.98
648.04	1092.14
648.38	1085.24
648.72	1079.10
649.06	1072.38
649.41	1065.00
649.75	1059.07
650.09	1053.00
650.43	1046.48
650.78	1038.76
651.12	1032.14
651.46	1025.24
651.80	1018.40
652.14	1012.12
652.49	1006.21
652.83	998.33
653.17	991.81
653.51	985.10
653.85	979.74
654.20	973.00
654.54	965.60
654.88	958.67
655.22	952.79
655.56	945.88
655.90	938.90
656.25	932.38
656.59	926.10
656.93	919.98
657.27	914.83
657.61	908.81
657.95	903.55
658.29	897.93
658.64	892.71
658.98	885.90
659.32	879.93
659.66	873.31
660.00	868.38
660.34	862.38
660.68	856.43
661.02	850.00
661.36	844.60
661.70	839.21
662.05	834.19
662.39	828.40
662.73	823.76
663.07	819.60
663.41	814.07
663.75	808.60
664.09	802.95
664.43	795.74
664.77	789.86
665.11	783.83
665.45	778.05
665.79	772.81
666.13	768.10
666.47	762.31
666.81	756.71
667.15	750.93
667.49	746.19
667.83	741.38
668.17	736.43
668.51	731.31
668.85	726.86
669.19	722.62
669.53	717.05
669.87	711.64
670.21	706.05
670.55	701.02
670.89	696.90
671.23	691.79
671.57	687.60
671.91	683.40
672.25	679.10
672.58	675.62
672.92	670.60
673.26	666.10
673.60	661.81
673.94	657.95
674.28	653.50
674.62	649.33
674.96	644.93
675.30	640.62
675.64	636.40
675.97	631.93
676.31	627.12
676.65	622.38
676.99	618.79
677.33	614.45
677.67	610.83
678.01	605.88
678.34	602.19
678.68	598.26
679.02	594.19
679.36	589.62
679.70	584.98
680.04	580.95
680.37	576.57
680.71	572.31
681.05	568.31
681.39	564.45
681.73	559.88
682.06	556.02
682.40	551.67
682.74	547.69
683.08	544.52
683.42	540.33
683.75	537.29
684.09	532.86
684.43	529.21
684.77	525.17
685.10	521.60
685.44	517.88
685.78	514.02
686.12	510.43
686.45	507.21
686.79	503.36
687.13	500.12
687.46	497.29
687.80	495.07
688.14	491.55
688.48	488.26
688.81	485.12
689.15	482.12
689.49	479.02
689.82	476.12
690.16	472.14
690.50	469.10
690.83	465.43
691.17	461.93
691.51	458.64
691.84	455.81
692.18	452.98
692.52	449.88
692.85	447.33
693.19	444.95
693.52	442.05
693.86	439.02
694.20	436.43
694.53	433.67
694.87	430.29
695.21	427.21
695.54	424.31
695.88	421.26
696.21	418.05
696.55	415.88
696.88	413.26
697.22	410.45
697.56	408.10
697.89	405.81
698.23	404.12
698.56	401.67
698.90	399.60
699.23	396.95
699.57	394.60
699.90	391.90
700.24	389.05
700.58	387.00
700.91	384.98
701.25	384.31
701.58	383.00
701.92	381.19
702.25	379.14
702.59	377.07
702.92	375.60
703.26	373.40
703.59	371.24
703.93	370.76
704.26	369.17
704.60	367.33
704.93	365.26
705.26	363.05
705.60	361.74
705.93	359.19
706.27	357.98
706.60	356.62
706.94	356.17
707.27	354.67
707.61	352.76
707.94	350.95
708.27	347.43
708.61	344.67
708.94	342.95
709.28	341.48
709.61	339.79
709.94	338.21
710.28	336.74
710.61	335.24
710.95	331.71
711.28	331.31
711.61	329.67
711.95	328.90
712.28	327.26
712.61	325.52
712.95	325.29
713.28	324.62
713.61	323.00
713.95	320.62
714.28	319.31
714.61	318.00
714.95	316.48
715.28	315.14
715.61	314.00
715.95	312.79
716.28	311.45
716.61	310.48
716.95	308.60
717.28	307.31
717.61	305.98
717.94	305.02
718.28	302.36
718.61	301.14
718.94	299.36
719.27	298.21
719.61	297.24
719.94	295.64
720.27	293.29
720.60	292.17
720.94	291.05
721.27	290.10
721.60	289.31
721.93	288.57
722.27	288.26
722.60	287.83
722.93	286.60
723.26	285.60
723.59	284.10
723.93	283.67
724.26	283.02
724.59	282.12
724.92	281.64
725.25	281.76
725.59	280.79
725.92	280.36
726.25	279.81
726.58	278.90
726.91	277.95
727.24	277.52
727.57	276.88
727.91	276.10
728.24	275.26
728.57	274.45
728.90	274.10
729.23	272.79
729.56	272.67
729.89	272.05
730.22	271.55
730.55	271.05
730.89	270.45
731.22	269.60
731.55	269.10
731.88	268.55
732.21	267.31
732.54	266.93
732.87	266.19
733.20	265.67
733.53	265.45
733.86	264.88
734.19	264.12
734.52	263.81
734.85	264.45
735.18	263.55
735.51	263.62
735.84	263.36
736.17	263.38
736.50	261.69
736.83	263.62
737.16	263.14
737.49	262.93
737.82	262.21
738.15	262.12
738.48	261.40
738.81	260.26
739.14	259.55
739.47	258.79
739.80	258.12
740.13	257.83
740.46	256.83
740.79	256.29
741.12	255.79
741.45	255.07
741.78	253.74
742.11	253.81
742.44	252.83
742.77	252.52
743.10	251.52
743.43	251.19
743.75	248.71
744.08	250.76
744.41	250.05
744.74	249.48
745.07	248.62
745.40	248.55
745.73	249.43
746.06	249.40
746.39	249.50
746.71	248.86
747.04	247.90
747.37	247.52
747.70	247.36
748.03	247.12
748.36	246.86
748.68	246.45
749.01	245.93
749.34	245.50
749.67	245.00
750.00	245.02
750.33	246.19
750.65	245.88
750.98	243.07
751.31	243.12
751.64	243.05
751.97	243.79
752.29	243.36
752.62	242.07
752.95	241.50
753.28	240.74
753.60	240.40
753.93	240.69
754.26	240.33
754.59	239.36
754.91	238.88
755.24	238.48
755.57	238.33
755.90	237.60
756.22	237.29
756.55	236.50
756.88	235.79
757.20	234.14
757.53	233.05
757.86	232.93
758.19	232.67
758.51	232.33
758.84	231.33
759.17	230.74
759.49	230.50
759.82	231.24
760.15	231.29
760.47	231.50
760.80	230.95
761.13	231.33
761.45	231.07
761.78	230.81
762.11	230.52
762.43	229.69
762.76	229.43
763.08	229.55
763.41	229.81
763.74	229.69
764.06	229.55
764.39	229.81
764.71	229.40
765.04	229.00
765.37	228.57
765.69	228.17
766.02	228.02
766.34	227.81
766.67	226.95
767.00	227.00
767.32	227.76
767.65	228.62
767.97	228.00
768.30	228.21
768.62	228.07
768.95	227.83
769.27	227.95
769.60	228.48
769.92	227.81
770.25	227.17
770.57	226.90
770.90	226.67
771.22	226.02
771.55	226.21
771.87	226.21
772.20	226.19
772.52	227.69
772.85	230.24
773.17	230.00
773.50	229.79
773.82	229.29
774.15	228.12
774.47	226.90
774.80	226.60
775.12	226.45
775.45	226.24
775.77	226.43
776.09	226.24
776.42	225.90
776.74	226.40
777.07	226.10
777.39	226.10
777.72	225.86
778.04	226.29
778.36	225.76
778.69	225.79
779.01	225.88
779.33	224.07
779.66	221.76
779.98	221.48
780.31	221.48
780.63	222.43
780.95	222.83
781.28	222.67
781.60	222.55
781.92	222.50
782.25	222.52
782.57	222.48
782.89	222.38
783.22	222.07
783.54	221.71
783.86	222.19
784.19	221.83
784.51	222.29
784.83	221.83
785.16	221.71
785.48	221.67
