SpectraSuite Data File
++++++++++++++++++++++++++++++++++++
Date: Tue Apr 02 18:45:50 EDT 2013
User: group
Dark Spectrum Present: No
Reference Spectrum Present: No
Number of Sampled Component Spectra: 1
Spectrometers: USB2E7196
Integration Time (usec): 580000 (USB2E7196)
Spectra Averaged: 2 (USB2E7196)
Boxcar Smoothing: 10 (USB2E7196)
Correct for Electrical Dark: No (USB2E7196)
Strobe/Lamp Enabled: No (USB2E7196)
Correct for Detector Non-linearity: No (USB2E7196)
Correct for Stray Light: No (USB2E7196)
Number of Pixels in Processed Spectrum: 2048
>>>>>Begin Processed Spectral Data<<<<<
339.09	0.00
339.48	194.00
339.86	191.00
340.24	196.50
340.63	202.50
341.01	232.50
341.39	204.00
341.78	208.50
342.16	213.50
342.54	206.00
342.93	199.14
343.31	208.93
343.69	209.52
344.07	210.17
344.46	210.93
344.84	211.31
345.22	210.19
345.60	210.62
345.99	210.76
346.37	210.62
346.75	210.86
347.13	211.14
347.52	211.45
347.90	212.00
348.28	211.98
348.66	212.36
349.05	211.76
349.43	211.93
349.81	212.48
350.19	212.60
350.57	212.76
350.96	212.90
351.34	213.31
351.72	213.43
352.10	213.60
352.48	213.43
352.87	213.50
353.25	213.55
353.63	213.57
354.01	213.67
354.39	213.79
354.77	213.64
355.15	214.17
355.54	213.60
355.92	212.95
356.30	212.83
356.68	214.17
357.06	214.24
357.44	214.00
357.82	213.64
358.20	214.50
358.58	214.31
358.97	214.48
359.35	214.62
359.73	214.98
360.11	215.05
360.49	215.24
360.87	215.24
361.25	215.64
361.63	216.31
362.01	216.40
362.39	216.21
362.77	216.55
363.15	216.38
363.53	216.76
363.91	216.79
364.29	216.79
364.67	214.79
365.05	214.90
365.43	214.98
365.81	215.31
366.19	215.38
366.57	216.05
366.95	215.74
367.33	215.52
367.71	215.48
368.09	215.90
368.47	215.83
368.85	215.64
369.23	215.98
369.61	215.02
369.99	215.50
370.37	215.88
370.75	216.74
371.13	216.33
371.51	215.93
371.89	216.19
372.27	216.50
372.65	216.71
373.03	216.79
373.41	216.62
373.78	216.64
374.16	215.52
374.54	215.19
374.92	215.05
375.30	214.93
375.68	214.48
376.06	214.64
376.44	214.38
376.82	214.74
377.19	214.33
377.57	214.36
377.95	213.57
378.33	213.40
378.71	212.26
379.09	212.55
379.47	212.74
379.84	212.60
380.22	212.33
380.60	211.93
380.98	211.48
381.36	211.71
381.73	211.21
382.11	211.55
382.49	211.40
382.87	211.10
383.25	211.14
383.62	213.86
384.00	213.36
384.38	213.74
384.76	213.86
385.13	214.76
385.51	214.95
385.89	214.90
386.27	215.00
386.64	215.24
387.02	215.19
387.40	215.40
387.78	215.60
388.15	215.83
388.53	215.74
388.91	215.88
389.29	215.79
389.66	216.17
390.04	216.07
390.42	216.50
390.79	216.67
391.17	216.60
391.55	214.19
391.92	214.21
392.30	214.14
392.68	213.71
393.05	213.48
393.43	213.29
393.81	213.40
394.18	213.14
394.56	213.12
394.94	213.45
395.31	213.43
395.69	214.05
396.06	214.19
396.44	214.55
396.82	214.45
397.19	215.40
397.57	215.12
397.95	215.36
398.32	214.81
398.70	215.31
399.07	215.79
399.45	215.62
399.82	215.55
400.20	215.48
400.58	215.64
400.95	214.71
401.33	215.17
401.70	216.67
402.08	216.64
402.45	216.83
402.83	217.21
403.20	217.26
403.58	216.81
403.95	217.29
404.33	217.79
404.71	218.12
405.08	219.36
405.46	219.69
405.83	219.95
406.21	220.57
406.58	220.86
406.96	221.14
407.33	221.86
407.70	222.55
408.08	224.71
408.45	225.57
408.83	226.57
409.20	227.05
409.58	226.55
409.95	227.74
410.33	228.62
410.70	229.07
411.08	230.24
411.45	231.40
411.82	232.21
412.20	233.43
412.57	235.76
412.95	235.40
413.32	237.38
413.69	239.07
414.07	240.24
414.44	241.83
414.82	243.76
415.19	246.21
415.56	248.48
415.94	249.79
416.31	252.43
416.68	255.43
417.06	258.74
417.43	262.24
417.81	265.69
418.18	269.31
418.55	273.02
418.93	276.64
419.30	280.81
419.67	285.48
420.04	289.62
420.42	293.98
420.79	300.88
421.16	306.14
421.54	312.88
421.91	319.24
422.28	325.50
422.66	332.29
423.03	339.90
423.40	346.93
423.77	353.95
424.15	360.93
424.52	368.31
424.89	376.57
425.26	384.19
425.64	391.71
426.01	399.95
426.38	408.64
426.75	418.31
427.13	427.48
427.50	436.62
427.87	447.02
428.24	456.81
428.61	465.19
428.99	476.36
429.36	486.40
429.73	497.55
430.10	509.17
430.47	520.67
430.85	531.38
431.22	543.98
431.59	558.98
431.96	571.79
432.33	585.98
432.70	600.05
433.08	615.64
433.45	631.14
433.82	646.52
434.19	663.50
434.56	679.79
434.93	695.12
435.30	710.88
435.68	727.90
436.05	745.40
436.42	762.55
436.79	778.55
437.16	796.24
437.53	814.00
437.90	831.76
438.27	849.62
438.64	867.69
439.01	884.12
439.38	897.40
439.75	912.14
440.13	928.86
440.50	943.48
440.87	956.86
441.24	969.90
441.61	984.05
441.98	994.62
442.35	1007.50
442.72	1021.29
443.09	1034.64
443.46	1042.40
443.83	1047.31
444.20	1051.71
444.57	1057.48
444.94	1059.95
445.31	1063.81
445.68	1069.00
446.05	1070.74
446.42	1069.64
446.79	1068.64
447.16	1066.86
447.53	1065.48
447.90	1058.90
448.27	1053.07
448.64	1044.14
449.01	1037.55
449.37	1026.86
449.74	1016.02
450.11	1004.26
450.48	988.88
450.85	973.19
451.22	960.76
451.59	948.76
451.96	937.50
452.33	922.52
452.70	909.12
453.07	892.17
453.43	873.07
453.80	855.76
454.17	839.62
454.54	824.45
454.91	808.43
455.28	792.88
455.65	778.40
456.02	767.57
456.38	755.19
456.75	739.67
457.12	725.95
457.49	713.17
457.86	699.00
458.23	689.45
458.59	677.86
458.96	666.31
459.33	655.98
459.70	645.57
460.07	636.90
460.43	627.07
460.80	618.29
461.17	611.14
461.54	603.67
461.91	595.62
462.27	587.38
462.64	580.21
463.01	572.71
463.38	566.33
463.74	555.10
464.11	548.52
464.48	543.19
464.85	537.45
465.21	533.02
465.58	527.93
465.95	521.19
466.32	516.31
466.68	510.83
467.05	505.60
467.42	500.71
467.78	495.29
468.15	490.21
468.52	486.31
468.88	480.21
469.25	475.29
469.62	472.07
469.98	468.07
470.35	464.57
470.72	461.33
471.08	456.57
471.45	454.14
471.82	451.60
472.18	448.55
472.55	446.10
472.92	442.50
473.28	439.71
473.65	437.12
474.02	434.60
474.38	432.52
474.75	430.76
475.11	428.19
475.48	426.50
475.85	425.00
476.21	422.86
476.58	421.81
476.94	420.60
477.31	419.43
477.67	418.40
478.04	417.14
478.41	416.36
478.77	417.69
479.14	416.55
479.50	415.93
479.87	415.50
480.23	414.74
480.60	414.50
480.96	414.31
481.33	415.10
481.69	415.00
482.06	415.43
482.42	415.76
482.79	415.95
483.15	416.17
483.52	416.95
483.88	417.69
484.25	418.19
484.61	419.10
484.98	419.57
485.34	421.31
485.71	423.14
486.07	424.62
486.44	424.24
486.80	425.71
487.17	427.07
487.53	429.57
487.90	432.31
488.26	435.38
488.62	438.24
488.99	439.76
489.35	442.69
489.72	445.12
490.08	447.69
490.44	450.55
490.81	454.02
491.17	456.81
491.54	460.67
491.90	464.64
492.26	467.98
492.63	471.90
492.99	475.05
493.36	478.93
493.72	483.17
494.08	487.69
494.45	492.31
494.81	497.12
495.17	501.38
495.54	506.29
495.90	510.71
496.26	515.64
496.63	521.24
496.99	526.50
497.35	532.14
497.72	538.29
498.08	544.12
498.44	550.29
498.80	556.76
499.17	562.81
499.53	568.90
499.89	576.00
500.26	583.21
500.62	590.02
500.98	597.62
501.34	604.33
501.71	611.83
502.07	619.17
502.43	626.07
502.79	632.71
503.16	639.93
503.52	647.36
503.88	654.55
504.24	661.83
504.60	669.52
504.97	677.40
505.33	684.98
505.69	693.83
506.05	701.57
506.41	709.33
506.78	716.88
507.14	724.17
507.50	732.02
507.86	740.00
508.22	748.19
508.59	755.36
508.95	763.76
509.31	771.83
509.67	779.90
510.03	787.38
510.39	794.98
510.75	802.64
511.12	810.19
511.48	817.71
511.84	825.17
512.20	833.07
512.56	840.26
512.92	847.79
513.28	854.40
513.64	861.31
514.00	869.21
514.37	876.88
514.73	884.74
515.09	891.90
515.45	898.26
515.81	904.86
516.17	911.98
516.53	918.33
516.89	924.00
517.25	930.57
517.61	937.24
517.97	943.33
518.33	949.79
518.69	956.31
519.05	962.64
519.41	969.07
519.77	975.93
520.13	981.86
520.49	986.90
520.85	993.02
521.21	999.24
521.57	1004.71
521.93	1009.52
522.29	1014.50
522.65	1019.19
523.01	1024.83
523.37	1029.38
523.73	1034.62
524.09	1039.31
524.45	1043.69
524.81	1048.14
525.17	1053.55
525.53	1059.55
525.89	1063.95
526.25	1068.90
526.61	1073.02
526.97	1077.50
527.33	1081.24
527.68	1087.31
528.04	1091.86
528.40	1095.81
528.76	1100.33
529.12	1104.88
529.48	1110.17
529.84	1114.64
530.20	1119.69
530.56	1123.88
530.91	1128.60
531.27	1132.60
531.63	1137.19
531.99	1141.60
532.35	1145.43
532.71	1148.55
533.07	1152.69
533.42	1159.05
533.78	1163.33
534.14	1168.24
534.50	1172.64
534.86	1176.33
535.21	1179.17
535.57	1183.81
535.93	1187.67
536.29	1192.64
536.65	1195.79
537.00	1198.40
537.36	1202.33
537.72	1205.12
538.08	1208.55
538.44	1211.71
538.79	1215.02
539.15	1217.90
539.51	1222.07
539.87	1225.62
540.22	1229.02
540.58	1231.52
540.94	1232.21
541.29	1234.60
541.65	1237.07
542.01	1239.57
542.37	1241.81
542.72	1244.07
543.08	1246.00
543.44	1248.83
543.79	1250.36
544.15	1253.74
544.51	1257.55
544.87	1260.05
545.22	1263.74
545.58	1266.40
545.94	1268.79
546.29	1271.74
546.65	1274.05
547.01	1275.52
547.36	1278.31
547.72	1281.38
548.07	1284.67
548.43	1287.24
548.79	1289.33
549.14	1291.60
549.50	1294.29
549.86	1296.64
550.21	1299.48
550.57	1302.24
550.92	1304.69
551.28	1306.83
551.64	1308.86
551.99	1311.67
552.35	1314.33
552.70	1315.98
553.06	1318.60
553.41	1321.93
553.77	1325.83
554.13	1329.43
554.48	1334.21
554.84	1337.90
555.19	1341.90
555.55	1346.64
555.90	1350.57
556.26	1353.90
556.61	1357.31
556.97	1360.00
557.32	1363.90
557.68	1367.17
558.03	1370.81
558.39	1374.93
558.74	1378.40
559.10	1382.26
559.45	1386.02
559.81	1389.86
560.16	1394.12
560.52	1397.95
560.87	1401.90
561.23	1404.67
561.58	1410.48
561.94	1413.60
562.29	1416.76
562.64	1421.00
563.00	1424.38
563.35	1428.62
563.71	1434.29
564.06	1438.95
564.42	1444.26
564.77	1450.19
565.12	1455.81
565.48	1464.05
565.83	1469.81
566.19	1476.26
566.54	1481.90
566.89	1487.38
567.25	1493.36
567.60	1499.95
567.96	1508.40
568.31	1514.95
568.66	1522.14
569.02	1525.95
569.37	1531.62
569.72	1537.90
570.08	1543.14
570.43	1547.67
570.78	1553.67
571.14	1559.14
571.49	1564.88
571.84	1571.02
572.20	1576.31
572.55	1581.00
572.90	1582.86
573.26	1587.48
573.61	1591.26
573.96	1595.98
574.31	1599.93
574.67	1604.17
575.02	1607.07
575.37	1608.98
575.72	1612.74
576.08	1616.07
576.43	1620.67
576.78	1623.95
577.13	1627.29
577.49	1631.24
577.84	1635.38
578.19	1639.26
578.54	1643.14
578.90	1647.29
579.25	1650.69
579.60	1652.81
579.95	1656.29
580.30	1661.19
580.66	1664.81
581.01	1669.45
581.36	1672.05
581.71	1676.50
582.06	1681.31
582.42	1685.31
582.77	1688.31
583.12	1691.52
583.47	1694.74
583.82	1697.57
584.17	1700.88
584.53	1704.40
584.88	1707.17
585.23	1711.10
585.58	1713.21
585.93	1716.05
586.28	1718.62
586.63	1721.57
586.98	1725.14
587.34	1729.21
587.69	1730.95
588.04	1733.71
588.39	1735.26
588.74	1737.71
589.09	1739.60
589.44	1739.40
589.79	1741.50
590.14	1744.45
590.49	1746.67
590.84	1747.40
591.19	1749.40
591.54	1752.48
591.89	1755.10
592.25	1758.26
592.60	1758.07
592.95	1760.21
593.30	1761.38
593.65	1763.07
594.00	1763.00
594.35	1770.45
594.70	1769.93
595.05	1772.00
595.40	1772.74
595.75	1774.07
596.10	1775.60
596.45	1777.21
596.80	1779.95
597.15	1781.29
597.50	1781.88
597.85	1782.45
598.19	1783.81
598.54	1783.95
598.89	1783.31
599.24	1783.79
599.59	1783.57
599.94	1784.45
600.29	1784.74
600.64	1785.10
600.99	1785.26
601.34	1787.40
601.69	1781.10
602.04	1781.74
602.39	1780.76
602.74	1780.31
603.08	1779.64
603.43	1780.52
603.78	1778.64
604.13	1778.00
604.48	1777.48
604.83	1776.71
605.18	1776.62
605.53	1775.83
605.87	1775.83
606.22	1775.79
606.57	1774.38
606.92	1772.57
607.27	1772.19
607.62	1771.81
607.96	1771.10
608.31	1769.93
608.66	1767.24
609.01	1766.10
609.36	1765.36
609.70	1764.45
610.05	1762.60
610.40	1761.14
610.75	1758.31
611.10	1757.57
611.44	1754.74
611.79	1752.21
612.14	1749.90
612.49	1745.98
612.83	1743.07
613.18	1739.40
613.53	1736.05
613.88	1733.26
614.22	1730.26
614.57	1725.88
614.92	1721.26
615.27	1718.02
615.61	1714.38
615.96	1711.48
616.31	1707.95
616.65	1705.26
617.00	1701.95
617.35	1699.21
617.70	1696.14
618.04	1692.86
618.39	1688.83
618.74	1686.45
619.08	1683.52
619.43	1680.24
619.78	1677.93
620.12	1675.57
620.47	1672.81
620.82	1669.50
621.16	1665.05
621.51	1662.40
621.85	1659.48
622.20	1656.76
622.55	1652.81
622.89	1649.48
623.24	1647.86
623.59	1644.69
623.93	1639.62
624.28	1635.26
624.62	1632.98
624.97	1630.69
625.32	1626.81
625.66	1623.14
626.01	1618.57
626.35	1614.76
626.70	1610.57
627.04	1607.21
627.39	1602.90
627.73	1600.07
628.08	1596.33
628.43	1592.76
628.77	1588.43
629.12	1584.98
629.46	1581.02
629.81	1576.83
630.15	1572.55
630.50	1566.40
630.84	1561.40
631.19	1556.62
631.53	1552.48
631.88	1545.98
632.22	1539.17
632.57	1534.55
632.91	1529.64
633.26	1525.19
633.60	1519.90
633.95	1514.57
634.29	1509.81
634.64	1505.76
634.98	1500.31
635.32	1496.79
635.67	1493.05
636.01	1488.55
636.36	1484.00
636.70	1479.55
637.05	1474.62
637.39	1469.60
637.73	1465.88
638.08	1462.79
638.42	1458.76
638.77	1454.05
639.11	1449.60
639.45	1445.50
639.80	1440.48
640.14	1435.36
640.49	1430.86
640.83	1425.98
641.17	1422.48
641.52	1416.79
641.86	1410.83
642.20	1406.36
642.55	1400.14
642.89	1394.14
643.23	1388.60
643.58	1384.36
643.92	1378.45
644.26	1373.29
644.61	1368.76
644.95	1362.86
645.29	1355.95
645.64	1351.38
645.98	1344.90
646.32	1339.74
646.66	1333.29
647.01	1327.83
647.35	1322.67
647.69	1316.10
648.04	1310.38
648.38	1303.71
648.72	1298.62
649.06	1293.36
649.41	1286.83
649.75	1281.05
650.09	1275.55
650.43	1269.07
650.78	1261.95
651.12	1255.50
651.46	1249.26
651.80	1243.24
652.14	1236.50
652.49	1231.17
652.83	1223.86
653.17	1218.43
653.51	1212.10
653.85	1206.43
654.20	1199.50
654.54	1192.33
654.88	1186.02
655.22	1180.76
655.56	1174.50
655.90	1168.67
656.25	1162.40
656.59	1155.86
656.93	1149.64
657.27	1144.38
657.61	1138.24
657.95	1132.21
658.29	1126.52
658.64	1120.88
658.98	1113.81
659.32	1108.19
659.66	1101.38
660.00	1095.55
660.34	1089.67
660.68	1083.48
661.02	1077.57
661.36	1072.55
661.70	1067.24
662.05	1061.76
662.39	1055.81
662.73	1051.36
663.07	1045.60
663.41	1038.98
663.75	1033.81
664.09	1028.40
664.43	1021.17
664.77	1016.19
665.11	1010.00
665.45	1004.36
665.79	998.86
666.13	992.71
666.47	986.57
666.81	981.50
667.15	975.76
667.49	969.86
667.83	964.71
668.17	959.48
668.51	953.60
668.85	948.40
669.19	943.98
669.53	937.57
669.87	931.00
670.21	924.93
670.55	919.69
670.89	914.93
671.23	909.24
671.57	904.40
671.91	898.24
672.25	893.79
672.58	889.64
672.92	883.81
673.26	879.29
673.60	874.45
673.94	868.86
674.28	863.90
674.62	859.52
674.96	853.95
675.30	848.76
675.64	843.62
675.97	838.62
676.31	832.50
676.65	827.48
676.99	823.62
677.33	818.26
677.67	814.00
678.01	808.64
678.34	804.21
678.68	800.40
679.02	795.71
679.36	789.98
679.70	783.64
680.04	778.76
680.37	773.95
680.71	768.52
681.05	764.31
681.39	759.64
681.73	754.71
682.06	750.64
682.40	746.10
682.74	741.45
683.08	736.83
683.42	732.07
683.75	727.55
684.09	721.81
684.43	717.36
684.77	711.86
685.10	706.45
685.44	701.60
685.78	696.00
686.12	691.76
686.45	687.36
686.79	682.90
687.13	678.45
687.46	673.88
687.80	670.62
688.14	665.81
688.48	661.48
688.81	656.67
689.15	651.98
689.49	647.19
689.82	643.02
690.16	638.21
690.50	633.93
690.83	629.52
691.17	624.83
691.51	620.31
691.84	616.19
692.18	612.07
692.52	607.74
692.85	604.33
693.19	600.74
693.52	596.71
693.86	592.57
694.20	588.69
694.53	584.52
694.87	579.62
695.21	575.52
695.54	571.14
695.88	566.95
696.21	562.33
696.55	558.38
696.88	554.10
697.22	550.29
697.56	547.02
697.89	543.57
698.23	540.52
698.56	537.10
698.90	533.74
699.23	529.74
699.57	526.05
699.90	521.24
700.24	516.93
700.58	513.36
700.91	509.90
701.25	507.93
701.58	505.38
701.92	502.62
702.25	498.98
702.59	495.57
702.92	492.40
703.26	489.31
703.59	486.50
703.93	485.50
704.26	482.71
704.60	479.57
704.93	476.21
705.26	472.38
705.60	469.60
705.93	466.52
706.27	464.50
706.60	461.86
706.94	460.05
707.27	456.90
707.61	454.14
707.94	451.31
708.27	446.93
708.61	443.33
708.94	440.14
709.28	438.05
709.61	435.38
709.94	433.12
710.28	430.48
710.61	427.69
710.95	422.74
711.28	421.57
711.61	418.55
711.95	416.50
712.28	414.00
712.61	411.43
712.95	409.83
713.28	408.02
713.61	405.17
713.95	402.02
714.28	400.05
714.61	397.86
714.95	395.79
715.28	393.33
715.61	391.14
715.95	389.14
716.28	386.14
716.61	384.21
716.95	381.38
717.28	379.48
717.61	377.33
717.94	375.67
718.28	372.05
718.61	370.05
718.94	367.43
719.27	365.81
719.61	363.79
719.94	361.17
720.27	358.33
720.60	356.62
720.94	354.79
721.27	353.29
721.60	351.83
721.93	350.05
722.27	349.31
722.60	348.07
722.93	346.31
723.26	345.14
723.59	343.33
723.93	342.60
724.26	341.10
724.59	339.26
724.92	338.31
725.25	337.26
725.59	335.62
725.92	334.69
726.25	333.29
726.58	331.95
726.91	330.95
727.24	329.95
727.57	328.88
727.91	327.33
728.24	326.07
728.57	324.00
728.90	323.00
729.23	320.64
729.56	319.95
729.89	318.64
730.22	317.40
730.55	316.10
730.89	314.62
731.22	313.33
731.55	312.33
731.88	310.81
732.21	309.64
732.54	308.86
732.87	307.43
733.20	306.69
733.53	305.88
733.86	304.74
734.19	303.21
734.52	302.07
734.85	302.64
735.18	301.10
735.51	300.98
735.84	299.98
736.17	299.57
736.50	297.79
736.83	299.26
737.16	298.21
737.49	297.45
737.82	296.48
738.15	295.74
738.48	294.93
738.81	293.88
739.14	292.45
739.47	291.07
739.80	290.24
740.13	289.14
740.46	287.79
740.79	286.71
741.12	285.79
741.45	284.88
741.78	282.62
742.11	282.48
742.44	281.10
742.77	280.36
743.10	279.43
743.43	278.21
743.75	275.12
744.08	276.83
744.41	275.98
744.74	274.90
745.07	273.60
745.40	273.05
745.73	273.29
746.06	272.88
746.39	272.45
746.71	271.74
747.04	270.64
747.37	270.02
747.70	269.60
748.03	268.98
748.36	268.52
748.68	267.79
749.01	266.45
749.34	266.00
749.67	265.38
750.00	265.19
750.33	266.43
750.65	266.14
750.98	263.38
751.31	262.81
751.64	262.43
751.97	263.36
752.29	262.71
752.62	261.26
752.95	260.43
753.28	259.60
753.60	258.95
753.93	259.38
754.26	259.05
754.59	257.90
754.91	257.36
755.24	256.57
755.57	256.21
755.90	255.88
756.22	255.26
756.55	254.52
756.88	253.33
757.20	251.29
757.53	250.05
757.86	249.17
758.19	248.74
758.51	248.21
758.84	246.48
759.17	245.88
759.49	245.57
759.82	246.10
760.15	246.17
760.47	245.71
760.80	244.43
761.13	244.33
761.45	243.86
761.78	243.60
762.11	243.19
762.43	242.86
762.76	242.38
763.08	242.19
763.41	241.86
763.74	241.79
764.06	241.62
764.39	241.33
764.71	241.36
765.04	240.98
765.37	240.26
765.69	240.24
766.02	239.95
766.34	239.29
766.67	238.26
767.00	238.02
767.32	238.88
767.65	239.57
767.97	239.07
768.30	238.93
768.62	238.55
768.95	238.07
769.27	237.40
769.60	237.36
769.92	236.69
770.25	236.14
770.57	235.29
770.90	234.95
771.22	234.74
771.55	234.33
771.87	234.07
772.20	234.12
772.52	235.33
772.85	237.45
773.17	237.57
773.50	237.19
773.82	237.07
774.15	235.67
774.47	234.50
774.80	233.95
775.12	233.98
775.45	233.62
775.77	233.64
776.09	233.79
776.42	233.38
776.74	233.86
777.07	233.79
777.39	233.69
777.72	233.21
778.04	233.17
778.36	232.69
778.69	232.50
779.01	232.19
779.33	230.33
779.66	227.93
779.98	227.36
780.31	227.31
780.63	227.67
780.95	228.00
781.28	227.60
781.60	227.33
781.92	227.02
782.25	226.98
782.57	226.79
782.89	226.57
783.22	226.33
783.54	225.79
783.86	225.50
784.19	225.43
784.51	226.21
784.83	225.71
