SpectraSuite Data File
++++++++++++++++++++++++++++++++++++
Date: Tue Apr 02 18:39:40 EDT 2013
User: group
Dark Spectrum Present: No
Reference Spectrum Present: No
Number of Sampled Component Spectra: 1
Spectrometers: USB2E7196
Integration Time (usec): 580000 (USB2E7196)
Spectra Averaged: 2 (USB2E7196)
Boxcar Smoothing: 10 (USB2E7196)
Correct for Electrical Dark: No (USB2E7196)
Strobe/Lamp Enabled: No (USB2E7196)
Correct for Detector Non-linearity: No (USB2E7196)
Correct for Stray Light: No (USB2E7196)
Number of Pixels in Processed Spectrum: 2048
>>>>>Begin Processed Spectral Data<<<<<
339.09	0.00
339.48	196.00
339.86	194.50
340.24	198.00
340.63	198.50
341.01	235.00
341.39	203.50
341.78	205.50
342.16	211.50
342.54	206.50
342.93	199.31
343.31	209.31
343.69	210.05
344.07	210.71
344.46	211.52
344.84	212.26
345.22	210.90
345.60	211.40
345.99	211.64
346.37	211.79
346.75	212.05
347.13	211.90
347.52	211.93
347.90	212.50
348.28	212.76
348.66	213.26
349.05	212.93
349.43	213.05
349.81	213.26
350.19	213.14
350.57	212.79
350.96	212.83
351.34	212.98
351.72	212.95
352.10	213.07
352.48	212.81
352.87	212.74
353.25	212.93
353.63	212.74
354.01	212.74
354.39	212.62
354.77	212.62
355.15	213.31
355.54	213.14
355.92	212.79
356.30	212.79
356.68	213.79
357.06	213.83
357.44	213.57
357.82	213.57
358.20	214.57
358.58	214.57
358.97	214.60
359.35	215.05
359.73	215.31
360.11	215.17
360.49	215.52
360.87	215.26
361.25	215.43
361.63	216.05
362.01	216.12
362.39	216.10
362.77	216.17
363.15	215.95
363.53	215.86
363.91	216.05
364.29	216.00
364.67	214.21
365.05	214.36
365.43	214.55
365.81	214.74
366.19	214.62
366.57	215.38
366.95	215.48
367.33	214.90
367.71	214.81
368.09	215.19
368.47	214.95
368.85	215.00
369.23	215.33
369.61	214.60
369.99	215.31
370.37	215.43
370.75	216.29
371.13	215.79
371.51	215.55
371.89	215.62
372.27	215.57
372.65	215.98
373.03	215.74
373.41	215.55
373.78	215.33
374.16	214.50
374.54	213.69
374.92	213.40
375.30	213.52
375.68	213.36
376.06	213.62
376.44	213.36
376.82	213.45
377.19	213.31
377.57	213.17
377.95	212.31
378.33	212.19
378.71	211.00
379.09	211.57
379.47	211.95
379.84	211.67
380.22	211.45
380.60	210.86
380.98	210.83
381.36	210.88
381.73	210.71
382.11	211.07
382.49	211.43
382.87	211.12
383.25	211.02
383.62	213.24
384.00	212.67
384.38	212.83
384.76	213.45
385.13	214.19
385.51	214.33
385.89	214.31
386.27	214.52
386.64	215.05
387.02	214.67
387.40	214.38
387.78	214.50
388.15	214.93
388.53	214.83
388.91	215.10
389.29	215.05
389.66	215.43
390.04	214.98
390.42	215.26
390.79	215.62
391.17	215.76
391.55	213.62
391.92	213.83
392.30	214.12
392.68	213.64
393.05	213.52
393.43	213.57
393.81	213.60
394.18	213.14
394.56	213.05
394.94	213.55
395.31	213.69
395.69	214.45
396.06	214.57
396.44	214.81
396.82	214.62
397.19	215.71
397.57	215.48
397.95	216.24
398.32	215.76
398.70	216.07
399.07	216.52
399.45	216.43
399.82	216.24
400.20	215.93
400.58	215.81
400.95	215.21
401.33	215.76
401.70	217.38
402.08	217.76
402.45	217.83
402.83	218.40
403.20	218.57
403.58	218.67
403.95	219.02
404.33	219.64
404.71	219.79
405.08	221.00
405.46	221.36
405.83	221.64
406.21	221.90
406.58	222.19
406.96	222.36
407.33	223.12
407.70	223.98
408.08	226.45
408.45	227.50
408.83	228.74
409.20	229.31
409.58	228.83
409.95	230.05
410.33	231.02
410.70	231.24
411.08	232.55
411.45	233.29
411.82	234.14
412.20	235.98
412.57	238.52
412.95	238.17
413.32	240.10
413.69	241.69
414.07	243.64
414.44	245.50
414.82	247.86
415.19	250.55
415.56	252.90
415.94	254.26
416.31	257.55
416.68	260.36
417.06	264.14
417.43	268.17
417.81	271.95
418.18	276.07
418.55	280.31
418.93	284.52
419.30	289.24
419.67	294.43
420.04	299.14
420.42	304.00
420.79	311.69
421.16	317.83
421.54	325.36
421.91	331.90
422.28	338.83
422.66	345.90
423.03	354.17
423.40	361.29
423.77	368.81
424.15	376.31
424.52	384.62
424.89	393.71
425.26	401.76
425.64	410.05
426.01	419.17
426.38	428.50
426.75	439.17
427.13	449.14
427.50	459.36
427.87	470.26
428.24	481.31
428.61	490.86
428.99	502.76
429.36	513.86
429.73	526.88
430.10	539.17
430.47	552.02
430.85	564.21
431.22	579.10
431.59	595.64
431.96	609.74
432.33	625.52
432.70	640.64
433.08	658.88
433.45	675.19
433.82	691.90
434.19	710.98
434.56	729.36
434.93	746.81
435.30	764.55
435.68	783.86
436.05	802.52
436.42	820.90
436.79	838.95
437.16	858.45
437.53	877.64
437.90	897.14
438.27	917.12
438.64	936.55
439.01	954.95
439.38	970.00
439.75	986.31
440.13	1004.33
440.50	1021.38
440.87	1035.79
441.24	1050.86
441.61	1066.95
441.98	1078.38
442.35	1091.64
442.72	1105.33
443.09	1119.76
443.46	1127.71
443.83	1133.57
444.20	1138.95
444.57	1145.29
444.94	1148.05
445.31	1152.14
445.68	1158.98
446.05	1160.31
446.42	1158.62
446.79	1157.05
447.16	1154.67
447.53	1153.45
447.90	1146.29
448.27	1139.60
448.64	1129.52
449.01	1122.40
449.37	1109.83
449.74	1098.38
450.11	1085.33
450.48	1069.64
450.85	1051.98
451.22	1038.36
451.59	1025.45
451.96	1013.21
452.33	995.98
452.70	980.90
453.07	961.79
453.43	940.10
453.80	921.45
454.17	904.86
454.54	888.02
454.91	870.36
455.28	852.62
455.65	836.62
456.02	823.76
456.38	809.48
456.75	792.67
457.12	778.24
457.49	763.69
457.86	748.19
458.23	736.93
458.59	724.10
458.96	711.14
459.33	699.14
459.70	686.95
460.07	677.74
460.43	666.88
460.80	657.60
461.17	649.05
461.54	640.07
461.91	630.81
462.27	621.52
462.64	614.40
463.01	606.07
463.38	598.93
463.74	587.00
464.11	579.98
464.48	573.45
464.85	566.62
465.21	561.67
465.58	556.40
465.95	549.36
466.32	544.14
466.68	538.29
467.05	532.60
467.42	527.29
467.78	521.64
468.15	516.24
468.52	511.83
468.88	505.93
469.25	500.69
469.62	497.00
469.98	492.48
470.35	488.31
470.72	484.60
471.08	479.26
471.45	476.14
471.82	473.10
472.18	469.33
472.55	467.00
472.92	463.52
473.28	460.40
473.65	457.38
474.02	454.95
474.38	452.79
474.75	451.12
475.11	448.62
475.48	446.60
475.85	444.93
476.21	442.90
476.58	441.64
476.94	440.57
477.31	439.17
477.67	438.05
478.04	436.74
478.41	435.98
478.77	437.48
479.14	436.26
479.50	435.83
479.87	436.14
480.23	435.48
480.60	435.38
480.96	435.19
481.33	436.02
481.69	435.88
482.06	436.26
482.42	436.43
482.79	436.67
483.15	437.12
483.52	438.21
483.88	439.05
484.25	439.45
484.61	440.24
484.98	440.88
485.34	442.74
485.71	444.48
486.07	445.62
486.44	445.55
486.80	447.00
487.17	448.38
487.53	450.33
487.90	452.81
488.26	455.67
488.62	458.52
488.99	460.60
489.35	463.57
489.72	466.62
490.08	469.29
490.44	472.67
490.81	476.45
491.17	479.48
491.54	482.86
491.90	486.90
492.26	490.60
492.63	495.12
492.99	498.95
493.36	503.38
493.72	508.64
494.08	513.12
494.45	518.52
494.81	523.67
495.17	529.00
495.54	534.55
495.90	539.52
496.26	545.19
496.63	551.12
496.99	556.60
497.35	562.76
497.72	569.74
498.08	576.19
498.44	582.60
498.80	589.45
499.17	596.95
499.53	604.00
499.89	612.17
500.26	619.40
500.62	626.76
500.98	634.48
501.34	642.24
501.71	650.79
502.07	659.43
502.43	668.02
502.79	675.67
503.16	683.64
503.52	691.86
503.88	699.38
504.24	708.62
504.60	717.43
504.97	726.24
505.33	734.38
505.69	744.26
506.05	753.10
506.41	762.40
506.78	771.14
507.14	780.14
507.50	788.83
507.86	798.07
508.22	806.95
508.59	815.93
508.95	825.33
509.31	834.64
509.67	843.24
510.03	851.74
510.39	861.10
510.75	869.88
511.12	878.64
511.48	887.98
511.84	895.95
512.20	905.29
512.56	913.31
512.92	922.69
513.28	930.14
513.64	939.24
514.00	947.62
514.37	956.05
514.73	965.07
515.09	973.98
515.45	981.88
515.81	990.33
516.17	998.10
516.53	1005.55
516.89	1012.76
517.25	1021.00
517.61	1028.98
517.97	1036.43
518.33	1044.31
518.69	1052.60
519.05	1061.10
519.41	1069.29
519.77	1077.33
520.13	1085.07
520.49	1091.26
520.85	1099.55
521.21	1107.05
521.57	1114.14
521.93	1120.93
522.29	1127.64
522.65	1133.71
523.01	1141.57
523.37	1148.74
523.73	1156.48
524.09	1162.33
524.45	1169.31
524.81	1175.50
525.17	1182.64
525.53	1188.52
525.89	1194.40
526.25	1200.76
526.61	1206.12
526.97	1211.86
527.33	1217.40
527.68	1224.60
528.04	1230.83
528.40	1236.19
528.76	1241.62
529.12	1248.12
529.48	1254.62
529.84	1260.38
530.20	1267.07
530.56	1272.45
530.91	1278.12
531.27	1283.19
531.63	1289.81
531.99	1294.79
532.35	1299.40
532.71	1303.55
533.07	1310.76
533.42	1319.26
533.78	1324.38
534.14	1330.60
534.50	1335.79
534.86	1341.79
535.21	1346.67
535.57	1353.64
535.93	1359.14
536.29	1365.19
536.65	1370.50
537.00	1374.60
537.36	1379.81
537.72	1383.98
538.08	1389.02
538.44	1393.67
538.79	1398.86
539.15	1403.31
539.51	1408.21
539.87	1414.02
540.22	1419.33
540.58	1423.21
540.94	1425.14
541.29	1430.02
541.65	1433.24
542.01	1437.76
542.37	1441.36
542.72	1443.83
543.08	1446.62
543.44	1450.48
543.79	1453.12
544.15	1456.67
544.51	1462.52
544.87	1466.81
545.22	1471.57
545.58	1474.86
545.94	1478.95
546.29	1482.45
546.65	1486.79
547.01	1491.10
547.36	1494.10
547.72	1497.57
548.07	1501.48
548.43	1505.21
548.79	1507.88
549.14	1511.76
549.50	1516.07
549.86	1519.36
550.21	1523.98
550.57	1527.98
550.92	1530.79
551.28	1534.98
551.64	1538.69
551.99	1541.31
552.35	1544.31
552.70	1547.24
553.06	1552.05
553.41	1555.69
553.77	1561.05
554.13	1565.83
554.48	1569.81
554.84	1575.64
555.19	1580.33
555.55	1585.48
555.90	1590.36
556.26	1595.05
556.61	1599.17
556.97	1602.52
557.32	1606.93
557.68	1611.71
558.03	1616.43
558.39	1621.05
558.74	1624.71
559.10	1628.48
559.45	1633.02
559.81	1637.69
560.16	1641.64
560.52	1644.74
560.87	1649.50
561.23	1652.38
561.58	1656.86
561.94	1660.67
562.29	1663.74
562.64	1668.36
563.00	1671.31
563.35	1674.60
563.71	1679.86
564.06	1684.33
564.42	1688.90
564.77	1694.31
565.12	1699.50
565.48	1706.07
565.83	1711.67
566.19	1717.31
566.54	1722.93
566.89	1727.29
567.25	1732.98
567.60	1740.05
567.96	1746.83
568.31	1752.81
568.66	1758.29
569.02	1761.02
569.37	1765.26
569.72	1770.14
570.08	1773.74
570.43	1777.69
570.78	1781.64
571.14	1785.19
571.49	1789.24
571.84	1793.00
572.20	1794.43
572.55	1796.83
572.90	1797.10
573.26	1798.98
573.61	1801.19
573.96	1803.55
574.31	1805.88
574.67	1807.29
575.02	1807.64
575.37	1808.24
575.72	1808.50
576.08	1809.90
576.43	1811.57
576.78	1813.00
577.13	1813.52
577.49	1815.07
577.84	1816.60
578.19	1818.19
578.54	1818.95
578.90	1820.57
579.25	1821.24
579.60	1823.00
579.95	1823.12
580.30	1824.02
580.66	1826.07
581.01	1826.86
581.36	1827.50
581.71	1828.81
582.06	1830.57
582.42	1831.71
582.77	1831.29
583.12	1831.74
583.47	1831.07
583.82	1831.36
584.17	1831.52
584.53	1832.57
584.88	1831.64
585.23	1832.12
585.58	1831.45
585.93	1830.43
586.28	1829.07
586.63	1828.76
586.98	1827.98
587.34	1828.40
587.69	1828.12
588.04	1825.93
588.39	1825.31
588.74	1822.93
589.09	1821.02
589.44	1817.29
589.79	1815.36
590.14	1814.50
590.49	1812.00
590.84	1810.93
591.19	1809.45
591.54	1807.98
591.89	1805.45
592.25	1805.90
592.60	1803.21
592.95	1802.67
593.30	1801.86
593.65	1800.45
594.00	1797.17
594.35	1800.57
594.70	1796.76
595.05	1793.74
595.40	1791.21
595.75	1788.31
596.10	1786.93
596.45	1784.69
596.80	1783.07
597.15	1780.74
597.50	1777.52
597.85	1776.24
598.19	1773.36
598.54	1771.26
598.89	1768.45
599.24	1765.86
599.59	1761.93
599.94	1758.17
600.29	1754.60
600.64	1751.17
600.99	1748.36
601.34	1746.83
601.69	1738.50
602.04	1735.76
602.39	1732.67
602.74	1730.64
603.08	1727.86
603.43	1726.02
603.78	1723.55
604.13	1721.38
604.48	1717.67
604.83	1715.17
605.18	1712.05
605.53	1708.74
605.87	1704.52
606.22	1700.57
606.57	1697.36
606.92	1693.76
607.27	1690.95
607.62	1687.48
607.96	1684.79
608.31	1681.38
608.66	1677.57
609.01	1673.88
609.36	1671.10
609.70	1666.74
610.05	1661.38
610.40	1657.24
610.75	1650.86
611.10	1645.81
611.44	1640.33
611.79	1634.95
612.14	1629.98
612.49	1624.36
612.83	1618.98
613.18	1614.00
613.53	1609.74
613.88	1603.40
614.22	1598.02
614.57	1592.36
614.92	1586.48
615.27	1580.19
615.61	1573.33
615.96	1566.93
616.31	1561.36
616.65	1555.76
617.00	1551.43
617.35	1546.48
617.70	1540.36
618.04	1535.14
618.39	1528.33
618.74	1522.83
619.08	1517.81
619.43	1512.76
619.78	1506.93
620.12	1501.67
620.47	1496.29
620.82	1489.62
621.16	1483.60
621.51	1478.33
621.85	1472.26
622.20	1466.24
622.55	1459.62
622.89	1453.79
623.24	1448.40
623.59	1442.29
623.93	1435.81
624.28	1429.79
624.62	1426.79
624.97	1422.95
625.32	1417.19
625.66	1412.74
626.01	1407.00
626.35	1400.93
626.70	1393.81
627.04	1388.93
627.39	1381.67
627.73	1376.29
628.08	1371.17
628.43	1365.83
628.77	1359.21
629.12	1353.69
629.46	1348.31
629.81	1343.24
630.15	1337.79
630.50	1331.43
630.84	1325.24
631.19	1318.52
631.53	1312.74
631.88	1303.19
632.22	1294.95
632.57	1288.81
632.91	1281.24
633.26	1274.14
633.60	1268.45
633.95	1262.38
634.29	1255.17
634.64	1249.57
634.98	1242.55
635.32	1236.83
635.67	1230.90
636.01	1225.00
636.36	1218.55
636.70	1213.17
637.05	1207.21
637.39	1200.69
637.73	1195.07
638.08	1188.52
638.42	1182.86
638.77	1176.71
639.11	1171.12
639.45	1164.74
639.80	1158.31
640.14	1152.90
640.49	1146.83
640.83	1140.40
641.17	1134.57
641.52	1128.83
641.86	1123.88
642.20	1118.86
642.55	1111.88
642.89	1105.69
643.23	1099.07
643.58	1093.12
643.92	1085.33
644.26	1077.90
644.61	1071.93
644.95	1064.95
645.29	1059.00
645.64	1053.29
645.98	1046.31
646.32	1039.83
646.66	1033.05
647.01	1026.38
647.35	1020.38
647.69	1013.93
648.04	1008.24
648.38	1002.19
648.72	995.19
649.06	987.76
649.41	980.57
649.75	973.60
650.09	967.64
650.43	961.43
650.78	955.14
651.12	948.81
651.46	942.43
651.80	935.81
652.14	929.98
652.49	924.24
652.83	918.00
653.17	911.76
653.51	905.50
653.85	899.90
654.20	893.93
654.54	886.93
654.88	880.79
655.22	874.64
655.56	868.40
655.90	862.60
656.25	856.33
656.59	850.38
656.93	845.24
657.27	839.71
657.61	833.43
657.95	828.10
658.29	822.50
658.64	817.60
658.98	811.45
659.32	805.48
659.66	799.81
660.00	794.24
660.34	788.14
660.68	782.38
661.02	777.19
661.36	771.31
661.70	766.05
662.05	761.07
662.39	755.88
662.73	751.14
663.07	747.21
663.41	742.55
663.75	736.86
664.09	731.36
664.43	725.02
664.77	720.02
665.11	714.43
665.45	709.52
665.79	704.19
666.13	699.17
666.47	694.31
666.81	689.24
667.15	683.86
667.49	679.98
667.83	676.45
668.17	671.36
668.51	666.81
668.85	662.57
669.19	658.69
669.53	653.19
669.87	647.76
670.21	641.95
670.55	637.12
670.89	633.50
671.23	629.31
671.57	625.57
671.91	621.64
672.25	617.67
672.58	613.69
672.92	609.57
673.26	605.90
673.60	601.83
673.94	597.88
674.28	594.02
674.62	590.02
674.96	585.38
675.30	581.83
675.64	578.36
675.97	574.50
676.31	570.07
676.65	566.50
676.99	563.74
677.33	559.93
677.67	556.64
678.01	552.10
678.34	548.26
678.68	545.02
679.02	541.00
679.36	537.33
679.70	533.48
680.04	529.55
680.37	526.05
680.71	522.17
681.05	518.71
681.39	514.95
681.73	511.12
682.06	507.45
682.40	504.02
682.74	500.93
683.08	498.26
683.42	494.50
683.75	491.17
684.09	486.86
684.43	483.62
684.77	480.36
685.10	477.64
685.44	474.57
685.78	471.02
686.12	467.71
686.45	464.43
686.79	461.31
687.13	458.86
687.46	455.48
687.80	453.10
688.14	449.98
688.48	447.50
688.81	444.95
689.15	442.40
689.49	439.17
689.82	436.40
690.16	432.67
690.50	429.86
690.83	427.26
691.17	424.48
691.51	421.71
691.84	419.12
692.18	416.31
692.52	414.43
692.85	412.26
693.19	410.69
693.52	408.10
693.86	405.48
694.20	402.76
694.53	400.95
694.87	398.48
695.21	395.64
695.54	393.36
695.88	390.43
696.21	387.74
696.55	385.88
696.88	383.71
697.22	381.55
697.56	379.98
697.89	377.45
698.23	375.81
698.56	373.83
698.90	371.86
699.23	369.76
699.57	367.24
699.90	364.83
700.24	362.12
700.58	360.52
700.91	359.07
701.25	358.74
701.58	357.50
701.92	356.02
702.25	354.60
702.59	352.60
702.92	350.88
703.26	349.21
703.59	347.14
703.93	346.90
704.26	345.71
704.60	344.00
704.93	342.71
705.26	340.64
705.60	339.17
705.93	337.24
706.27	336.05
706.60	334.83
706.94	334.24
707.27	332.50
707.61	330.95
707.94	329.14
708.27	326.21
708.61	324.02
708.94	322.50
709.28	321.29
709.61	319.69
709.94	318.21
710.28	317.07
710.61	316.00
710.95	312.76
711.28	312.95
711.61	311.67
711.95	310.64
712.28	309.50
712.61	308.38
712.95	308.48
713.28	308.19
713.61	306.71
713.95	305.07
714.28	304.48
714.61	303.50
714.95	302.26
715.28	300.83
715.61	299.86
715.95	299.00
716.28	297.74
716.61	297.19
716.95	296.33
717.28	295.29
717.61	294.07
717.94	293.31
718.28	290.57
718.61	289.40
718.94	288.00
719.27	287.02
719.61	286.19
719.94	284.62
720.27	282.38
720.60	281.07
720.94	279.86
721.27	278.93
721.60	278.07
721.93	277.38
722.27	277.67
722.60	276.90
722.93	275.60
723.26	274.86
723.59	273.57
723.93	273.14
724.26	272.57
724.59	271.76
724.92	271.17
725.25	271.12
725.59	270.64
725.92	270.29
726.25	269.64
726.58	268.83
726.91	267.98
727.24	267.98
727.57	267.69
727.91	266.86
728.24	266.52
728.57	265.69
728.90	265.45
729.23	263.90
729.56	264.36
729.89	264.05
730.22	263.45
730.55	263.07
730.89	262.43
731.22	261.64
731.55	261.29
731.88	260.98
732.21	260.14
732.54	259.52
732.87	259.12
733.20	258.52
733.53	258.12
733.86	258.00
734.19	257.14
734.52	256.95
734.85	258.21
735.18	257.21
735.51	257.43
735.84	257.10
736.17	257.00
736.50	255.45
736.83	257.43
737.16	257.10
737.49	256.71
737.82	256.14
738.15	256.00
738.48	255.55
738.81	254.81
739.14	254.10
739.47	253.64
739.80	252.98
740.13	253.02
740.46	252.12
740.79	251.14
741.12	250.83
741.45	250.31
741.78	248.26
742.11	248.69
742.44	247.90
742.77	247.79
743.10	247.48
743.43	247.14
743.75	244.45
744.08	246.57
744.41	246.21
744.74	245.69
745.07	244.95
745.40	245.02
745.73	245.52
746.06	245.17
746.39	245.26
746.71	244.95
747.04	244.12
747.37	243.98
747.70	244.07
748.03	243.98
748.36	243.79
748.68	243.79
749.01	242.86
749.34	242.52
749.67	242.12
750.00	242.19
750.33	243.40
750.65	243.38
750.98	240.79
751.31	240.43
751.64	240.57
751.97	241.45
752.29	240.79
752.62	239.74
752.95	239.36
753.28	238.60
753.60	238.33
753.93	238.95
754.26	238.52
754.59	237.76
754.91	237.10
755.24	236.64
755.57	236.21
755.90	235.95
756.22	235.57
756.55	234.90
756.88	234.07
757.20	232.38
757.53	231.57
757.86	231.05
758.19	231.14
758.51	230.71
758.84	229.62
759.17	229.31
759.49	228.98
759.82	229.76
760.15	229.83
760.47	229.31
760.80	228.48
761.13	228.88
761.45	228.71
761.78	228.17
762.11	228.21
762.43	228.00
762.76	227.76
763.08	227.69
763.41	227.67
763.74	227.74
764.06	227.55
764.39	227.36
764.71	227.48
765.04	227.10
765.37	226.88
765.69	226.50
766.02	226.36
766.34	226.14
766.67	225.36
767.00	225.55
767.32	226.79
767.65	227.67
767.97	227.48
768.30	227.55
768.62	227.83
768.95	227.12
769.27	226.88
769.60	227.07
769.92	226.88
770.25	226.48
770.57	226.10
770.90	225.95
771.22	225.76
771.55	225.45
771.87	225.36
772.20	225.10
772.52	226.86
772.85	229.38
773.17	229.52
773.50	229.45
773.82	228.95
774.15	227.81
774.47	226.43
774.80	226.21
775.12	225.98
775.45	225.86
775.77	226.21
776.09	226.21
776.42	226.26
776.74	226.76
777.07	226.81
777.39	226.67
777.72	226.55
778.04	226.88
778.36	226.64
778.69	226.69
779.01	226.88
779.33	224.93
779.66	222.29
779.98	221.90
780.31	221.64
780.63	222.36
780.95	222.43
781.28	222.60
781.60	222.38
781.92	222.45
782.25	222.40
782.57	222.17
782.89	222.05
783.22	221.57
783.54	220.86
783.86	220.69
784.19	220.57
784.51	221.02
784.83	220.57
785.16	220.62
785.48	220.40
