SpectraSuite Data File
++++++++++++++++++++++++++++++++++++
Date: Tue Apr 02 18:38:36 EDT 2013
User: group
Dark Spectrum Present: No
Reference Spectrum Present: No
Number of Sampled Component Spectra: 1
Spectrometers: USB2E7196
Integration Time (usec): 580000 (USB2E7196)
Spectra Averaged: 2 (USB2E7196)
Boxcar Smoothing: 10 (USB2E7196)
Correct for Electrical Dark: No (USB2E7196)
Strobe/Lamp Enabled: No (USB2E7196)
Correct for Detector Non-linearity: No (USB2E7196)
Correct for Stray Light: No (USB2E7196)
Number of Pixels in Processed Spectrum: 2048
>>>>>Begin Processed Spectral Data<<<<<
339.09	0.00
339.48	191.50
339.86	198.50
340.24	193.50
340.63	195.50
341.01	232.50
341.39	201.00
341.78	205.00
342.16	210.00
342.54	208.00
342.93	197.81
343.31	207.50
343.69	208.07
344.07	208.38
344.46	209.38
344.84	210.02
345.22	208.95
345.60	209.24
345.99	209.43
346.37	209.31
346.75	209.31
347.13	209.24
347.52	209.26
347.90	210.00
348.28	209.98
348.66	210.38
349.05	209.74
349.43	210.17
349.81	210.57
350.19	210.67
350.57	210.67
350.96	211.00
351.34	211.43
351.72	211.79
352.10	211.90
352.48	211.57
352.87	211.74
353.25	211.90
353.63	211.86
354.01	211.93
354.39	212.14
354.77	212.29
355.15	213.02
355.54	212.69
355.92	212.17
356.30	212.29
356.68	213.43
357.06	213.57
357.44	213.05
357.82	212.98
358.20	213.71
358.58	213.60
358.97	213.76
359.35	214.19
359.73	214.62
360.11	214.62
360.49	214.90
360.87	214.74
361.25	214.71
361.63	215.86
362.01	215.76
362.39	215.79
362.77	216.02
363.15	215.79
363.53	216.31
363.91	216.31
364.29	216.50
364.67	214.71
365.05	215.00
365.43	215.36
365.81	215.57
366.19	215.95
366.57	217.00
366.95	216.95
367.33	216.33
367.71	216.17
368.09	216.57
368.47	216.50
368.85	216.50
369.23	217.02
369.61	216.07
369.99	216.98
370.37	217.40
370.75	218.38
371.13	218.05
371.51	217.62
371.89	217.83
372.27	217.93
372.65	218.02
373.03	217.76
373.41	217.69
373.78	217.60
374.16	216.50
374.54	215.81
374.92	215.62
375.30	215.69
375.68	215.29
376.06	215.29
376.44	215.21
376.82	215.45
377.19	215.43
377.57	215.36
377.95	214.60
378.33	214.10
378.71	212.67
379.09	213.00
379.47	213.33
379.84	213.24
380.22	212.95
380.60	212.79
380.98	212.86
381.36	212.71
381.73	212.40
382.11	212.83
382.49	212.79
382.87	212.55
383.25	212.55
383.62	215.14
384.00	214.62
384.38	214.83
384.76	215.07
385.13	215.45
385.51	215.57
385.89	215.52
386.27	215.48
386.64	215.88
387.02	215.71
387.40	215.45
387.78	215.52
388.15	215.55
388.53	215.45
388.91	215.64
389.29	215.57
389.66	215.88
390.04	215.67
390.42	216.14
390.79	216.33
391.17	216.45
391.55	214.31
391.92	214.55
392.30	214.64
392.68	214.14
393.05	214.17
393.43	214.31
393.81	214.24
394.18	214.19
394.56	214.29
394.94	214.67
395.31	214.60
395.69	215.19
396.06	215.50
396.44	215.60
396.82	215.19
397.19	216.50
397.57	216.40
397.95	216.67
398.32	215.98
398.70	216.07
399.07	216.40
399.45	216.17
399.82	216.21
400.20	216.02
400.58	216.02
400.95	215.40
401.33	215.76
401.70	217.43
402.08	217.62
402.45	217.81
402.83	218.26
403.20	218.52
403.58	218.24
403.95	218.74
404.33	219.31
404.71	219.83
405.08	220.95
405.46	221.19
405.83	221.69
406.21	222.21
406.58	222.71
406.96	223.07
407.33	224.00
407.70	225.02
408.08	227.17
408.45	228.55
408.83	229.55
409.20	230.05
409.58	229.69
409.95	230.98
410.33	231.88
410.70	232.21
411.08	233.48
411.45	234.98
411.82	235.88
412.20	237.64
412.57	240.43
412.95	240.19
413.32	242.55
413.69	244.19
414.07	246.05
414.44	248.19
414.82	250.60
415.19	252.86
415.56	255.36
415.94	257.05
416.31	260.36
416.68	263.60
417.06	267.55
417.43	271.57
417.81	275.57
418.18	279.88
418.55	284.40
418.93	289.40
419.30	294.12
419.67	299.55
420.04	304.90
420.42	309.93
420.79	318.02
421.16	324.26
421.54	332.36
421.91	339.76
422.28	347.19
422.66	354.83
423.03	364.07
423.40	372.24
423.77	380.79
424.15	388.86
424.52	397.83
424.89	407.55
425.26	417.12
425.64	425.95
426.01	435.40
426.38	445.74
426.75	456.48
427.13	467.38
427.50	478.98
427.87	490.55
428.24	502.07
428.61	512.62
428.99	526.24
429.36	538.50
429.73	551.57
430.10	565.24
430.47	579.31
430.85	592.52
431.22	607.21
431.59	624.69
431.96	640.55
432.33	657.50
432.70	673.33
433.08	691.67
433.45	710.10
433.82	728.55
434.19	749.05
434.56	768.50
434.93	787.00
435.30	806.36
435.68	827.57
436.05	848.26
436.42	868.10
436.79	886.10
437.16	906.17
437.53	927.67
437.90	949.19
438.27	969.64
438.64	990.64
439.01	1010.98
439.38	1027.19
439.75	1043.93
440.13	1063.71
440.50	1082.69
440.87	1098.79
441.24	1114.60
441.61	1131.79
441.98	1144.48
442.35	1159.38
442.72	1175.33
443.09	1189.55
443.46	1198.38
443.83	1204.86
444.20	1210.10
444.57	1217.98
444.94	1222.38
445.31	1227.14
445.68	1232.83
446.05	1234.52
446.42	1233.29
446.79	1231.88
447.16	1229.79
447.53	1228.79
447.90	1221.88
448.27	1214.43
448.64	1203.83
449.01	1196.79
449.37	1183.69
449.74	1170.31
450.11	1156.69
450.48	1138.83
450.85	1121.24
451.22	1105.93
451.59	1091.76
451.96	1078.67
452.33	1060.02
452.70	1043.12
453.07	1022.33
453.43	999.76
453.80	980.98
454.17	961.74
454.54	943.45
454.91	924.79
455.28	905.69
455.65	887.64
456.02	873.40
456.38	858.36
456.75	839.57
457.12	824.50
457.49	810.00
457.86	793.24
458.23	780.79
458.59	766.43
458.96	752.55
459.33	739.36
459.70	726.55
460.07	716.64
460.43	705.33
460.80	695.29
461.17	686.05
461.54	675.83
461.91	666.71
462.27	656.90
462.64	648.10
463.01	639.07
463.38	630.86
463.74	618.83
464.11	610.48
464.48	603.24
464.85	595.48
465.21	589.62
465.58	583.64
465.95	576.60
466.32	570.86
466.68	564.83
467.05	559.05
467.42	552.90
467.78	546.48
468.15	540.48
468.52	535.86
468.88	529.98
469.25	524.57
469.62	520.62
469.98	516.31
470.35	512.21
470.72	508.52
471.08	503.52
471.45	500.02
471.82	497.02
472.18	493.24
472.55	490.02
472.92	485.83
473.28	482.64
473.65	479.21
474.02	476.05
474.38	473.19
474.75	471.05
475.11	468.81
475.48	467.05
475.85	465.10
476.21	462.83
476.58	460.81
476.94	459.74
477.31	457.98
477.67	456.48
478.04	455.31
478.41	454.21
478.77	455.69
479.14	454.67
479.50	453.86
479.87	453.98
480.23	453.90
480.60	453.57
480.96	453.26
481.33	454.02
481.69	453.98
482.06	454.29
482.42	454.83
482.79	455.57
483.15	456.00
483.52	457.19
483.88	457.98
484.25	458.90
484.61	459.55
484.98	460.81
485.34	462.74
485.71	464.57
486.07	466.26
486.44	466.14
486.80	468.38
487.17	470.45
487.53	472.93
487.90	475.55
488.26	479.05
488.62	482.83
488.99	485.62
489.35	489.02
489.72	492.57
490.08	495.74
490.44	498.95
490.81	503.00
491.17	506.81
491.54	511.21
491.90	515.69
492.26	520.60
492.63	525.29
492.99	529.71
493.36	534.64
493.72	540.12
494.08	545.57
494.45	551.36
494.81	557.95
495.17	563.90
495.54	570.98
495.90	577.40
496.26	583.14
496.63	590.05
496.99	597.40
497.35	605.05
497.72	612.81
498.08	620.36
498.44	628.83
498.80	637.14
499.17	645.10
499.53	653.52
499.89	662.52
500.26	671.21
500.62	679.52
500.98	688.64
501.34	697.93
501.71	706.98
502.07	715.83
502.43	724.38
502.79	733.12
503.16	741.52
503.52	750.31
503.88	759.83
504.24	770.24
504.60	779.86
504.97	789.62
505.33	799.29
505.69	810.07
506.05	819.31
506.41	828.93
506.78	839.21
507.14	848.69
507.50	859.19
507.86	869.45
508.22	880.60
508.59	890.67
508.95	901.40
509.31	912.74
509.67	923.62
510.03	934.14
510.39	944.83
510.75	955.29
511.12	966.76
511.48	977.69
511.84	987.83
512.20	998.81
512.56	1009.76
512.92	1021.14
513.28	1032.50
513.64	1043.55
514.00	1054.69
514.37	1065.36
514.73	1077.24
515.09	1087.79
515.45	1098.36
515.81	1109.33
516.17	1119.86
516.53	1128.71
516.89	1138.86
517.25	1148.95
517.61	1160.60
517.97	1171.07
518.33	1181.40
518.69	1191.17
519.05	1201.07
519.41	1211.26
519.77	1221.43
520.13	1230.40
520.49	1239.33
520.85	1248.29
521.21	1258.12
521.57	1267.19
521.93	1275.21
522.29	1284.69
522.65	1293.17
523.01	1302.79
523.37	1310.67
523.73	1319.67
524.09	1329.21
524.45	1336.69
524.81	1344.67
525.17	1351.52
525.53	1358.86
525.89	1366.69
526.25	1374.64
526.61	1381.19
526.97	1387.95
527.33	1395.81
527.68	1405.50
528.04	1412.95
528.40	1419.33
528.76	1425.26
529.12	1433.14
529.48	1441.90
529.84	1447.55
530.20	1454.86
530.56	1461.60
530.91	1468.67
531.27	1475.43
531.63	1481.90
531.99	1488.98
532.35	1495.76
532.71	1502.19
533.07	1509.74
533.42	1518.38
533.78	1524.74
534.14	1532.29
534.50	1539.12
534.86	1546.21
535.21	1550.36
535.57	1557.50
535.93	1564.55
536.29	1572.88
536.65	1578.60
537.00	1583.57
537.36	1590.10
537.72	1594.98
538.08	1601.02
538.44	1606.33
538.79	1611.74
539.15	1617.24
539.51	1622.19
539.87	1627.52
540.22	1632.79
540.58	1638.14
540.94	1641.31
541.29	1645.69
541.65	1649.57
542.01	1654.55
542.37	1657.17
542.72	1661.64
543.08	1663.69
543.44	1667.07
543.79	1668.38
544.15	1672.67
544.51	1677.52
544.87	1680.07
545.22	1684.24
545.58	1686.88
545.94	1690.48
546.29	1694.12
546.65	1696.67
547.01	1699.76
547.36	1702.24
547.72	1705.36
548.07	1708.38
548.43	1710.81
548.79	1713.86
549.14	1716.86
549.50	1719.14
549.86	1722.00
550.21	1723.24
550.57	1726.95
550.92	1728.60
551.28	1731.62
551.64	1732.76
551.99	1734.62
552.35	1737.40
552.70	1738.98
553.06	1741.26
553.41	1743.07
553.77	1745.43
554.13	1748.21
554.48	1750.98
554.84	1754.14
555.19	1756.19
555.55	1758.81
555.90	1761.02
556.26	1763.48
556.61	1765.26
556.97	1766.10
557.32	1767.60
557.68	1770.38
558.03	1771.83
558.39	1773.50
558.74	1775.17
559.10	1777.57
559.45	1778.74
559.81	1779.95
560.16	1781.33
560.52	1782.50
560.87	1783.62
561.23	1783.33
561.58	1785.00
561.94	1785.76
562.29	1786.07
562.64	1788.00
563.00	1787.33
563.35	1787.93
563.71	1788.48
564.06	1789.31
564.42	1790.76
564.77	1791.86
565.12	1793.95
565.48	1797.90
565.83	1799.45
566.19	1800.19
566.54	1800.48
566.89	1801.10
567.25	1803.64
567.60	1806.12
567.96	1809.02
568.31	1811.33
568.66	1813.71
569.02	1814.07
569.37	1814.07
569.72	1814.86
570.08	1815.00
570.43	1814.93
570.78	1815.33
571.14	1815.40
571.49	1815.40
571.84	1815.95
572.20	1816.26
572.55	1814.90
572.90	1811.62
573.26	1811.93
573.61	1811.00
573.96	1810.88
574.31	1810.55
574.67	1808.55
575.02	1806.71
575.37	1803.62
575.72	1800.62
576.08	1797.83
576.43	1795.00
576.78	1792.55
577.13	1791.07
577.49	1788.29
577.84	1786.90
578.19	1784.64
578.54	1782.36
578.90	1780.05
579.25	1776.86
579.60	1772.93
579.95	1768.88
580.30	1765.98
580.66	1762.60
581.01	1760.29
581.36	1755.67
581.71	1752.07
582.06	1749.10
582.42	1744.83
582.77	1739.74
583.12	1735.74
583.47	1731.64
583.82	1728.74
584.17	1725.36
584.53	1721.21
584.88	1716.50
585.23	1712.21
585.58	1707.38
585.93	1702.48
586.28	1698.57
586.63	1693.95
586.98	1689.67
587.34	1686.50
587.69	1681.64
588.04	1676.24
588.39	1672.19
588.74	1666.50
589.09	1661.64
589.44	1654.88
589.79	1650.05
590.14	1645.93
590.49	1641.05
590.84	1635.57
591.19	1630.02
591.54	1625.29
591.89	1619.52
592.25	1616.21
592.60	1610.26
592.95	1606.50
593.30	1601.43
593.65	1595.69
594.00	1589.81
594.35	1589.81
594.70	1583.19
595.05	1577.48
595.40	1571.83
595.75	1565.24
596.10	1561.33
596.45	1555.24
596.80	1551.00
597.15	1545.64
597.50	1539.36
597.85	1534.43
598.19	1529.76
598.54	1524.26
598.89	1518.00
599.24	1513.05
599.59	1506.21
599.94	1501.43
600.29	1494.98
600.64	1489.45
600.99	1484.48
601.34	1480.29
601.69	1469.74
602.04	1464.40
602.39	1458.95
602.74	1454.62
603.08	1449.05
603.43	1444.05
603.78	1439.02
604.13	1432.55
604.48	1426.62
604.83	1421.81
605.18	1416.40
605.53	1411.10
605.87	1405.10
606.22	1400.00
606.57	1393.74
606.92	1387.81
607.27	1383.21
607.62	1378.14
607.96	1372.57
608.31	1366.93
608.66	1359.90
609.01	1353.81
609.36	1349.50
609.70	1343.60
610.05	1336.90
610.40	1331.14
610.75	1324.83
611.10	1318.74
611.44	1313.14
611.79	1306.76
612.14	1300.95
612.49	1293.81
612.83	1287.33
613.18	1281.14
613.53	1274.81
613.88	1268.79
614.22	1262.33
614.57	1254.52
614.92	1246.88
615.27	1240.40
615.61	1233.40
615.96	1228.00
616.31	1221.48
616.65	1214.62
617.00	1208.60
617.35	1202.24
617.70	1196.17
618.04	1189.88
618.39	1183.50
618.74	1177.93
619.08	1171.98
619.43	1165.36
619.78	1159.21
620.12	1152.83
620.47	1147.48
620.82	1141.50
621.16	1134.95
621.51	1130.21
621.85	1123.88
622.20	1118.71
622.55	1112.57
622.89	1106.29
623.24	1100.24
623.59	1094.17
623.93	1088.50
624.28	1082.62
624.62	1079.12
624.97	1075.12
625.32	1069.07
625.66	1063.57
626.01	1057.50
626.35	1052.36
626.70	1047.33
627.04	1042.19
627.39	1037.17
627.73	1032.17
628.08	1026.79
628.43	1021.40
628.77	1014.52
629.12	1010.14
629.46	1005.36
629.81	1000.43
630.15	995.02
630.50	989.17
630.84	983.74
631.19	978.12
631.53	972.57
631.88	963.95
632.22	956.33
632.57	951.52
632.91	945.67
633.26	940.02
633.60	933.81
633.95	927.74
634.29	921.45
634.64	915.50
634.98	909.43
635.32	903.79
635.67	898.74
636.01	893.67
636.36	887.31
636.70	881.81
637.05	875.48
637.39	870.05
637.73	864.57
638.08	859.83
638.42	853.98
638.77	849.12
639.11	844.45
639.45	839.43
639.80	833.31
640.14	828.33
640.49	822.90
640.83	817.48
641.17	812.43
641.52	807.55
641.86	802.67
642.20	798.02
642.55	792.79
642.89	787.81
643.23	782.69
643.58	778.57
643.92	772.60
644.26	767.95
644.61	763.69
644.95	759.00
645.29	753.62
645.64	749.38
645.98	743.60
646.32	738.81
646.66	733.31
647.01	728.36
647.35	723.62
647.69	718.71
648.04	714.60
648.38	709.76
648.72	705.74
649.06	700.98
649.41	695.60
649.75	690.64
650.09	685.64
650.43	681.24
650.78	676.12
651.12	671.00
651.46	666.19
651.80	661.21
652.14	656.74
652.49	653.26
652.83	647.98
653.17	644.14
653.51	639.55
653.85	635.79
654.20	631.12
654.54	626.48
654.88	621.93
655.22	617.74
655.56	613.26
655.90	608.71
656.25	604.05
656.59	600.07
656.93	596.31
657.27	593.07
657.61	588.43
657.95	584.05
658.29	580.52
658.64	577.12
658.98	572.52
659.32	568.52
659.66	564.00
660.00	560.60
660.34	556.55
660.68	552.64
661.02	548.48
661.36	544.79
661.70	540.95
662.05	537.45
662.39	533.95
662.73	530.90
663.07	528.48
663.41	525.64
663.75	521.79
664.09	518.45
664.43	514.21
664.77	510.86
665.11	507.26
665.45	504.14
665.79	501.29
666.13	498.50
666.47	494.38
666.81	491.69
667.15	488.38
667.49	485.45
667.83	483.55
668.17	480.52
668.51	477.62
668.85	475.17
669.19	473.52
669.53	470.45
669.87	467.36
670.21	463.50
670.55	460.55
670.89	458.88
671.23	456.05
671.57	453.57
671.91	451.52
672.25	449.19
672.58	447.60
672.92	444.29
673.26	442.10
673.60	440.76
673.94	438.05
674.28	436.00
674.62	433.95
674.96	431.07
675.30	429.26
675.64	427.40
675.97	425.10
676.31	422.29
676.65	419.76
676.99	418.33
677.33	416.10
677.67	413.81
678.01	410.67
678.34	408.62
678.68	407.05
679.02	404.57
679.36	402.62
679.70	399.12
680.04	397.62
680.37	395.62
680.71	393.17
681.05	391.31
681.39	389.26
681.73	387.12
682.06	385.14
682.40	382.67
682.74	381.24
683.08	380.29
683.42	378.21
683.75	376.86
684.09	374.38
684.43	372.79
684.77	370.93
685.10	369.17
685.44	367.71
685.78	365.57
686.12	363.81
686.45	362.21
686.79	361.00
687.13	359.29
687.46	357.33
687.80	356.14
688.14	354.00
688.48	352.50
688.81	351.10
689.15	349.98
689.49	348.29
689.82	346.50
690.16	343.88
690.50	342.24
690.83	340.07
691.17	338.26
691.51	336.71
691.84	335.52
692.18	334.31
692.52	332.43
692.85	331.29
693.19	330.86
693.52	329.50
693.86	327.98
694.20	326.62
694.53	325.45
694.87	323.88
695.21	322.45
695.54	321.07
695.88	319.19
696.21	317.38
696.55	316.50
696.88	315.36
697.22	313.79
697.56	312.98
697.89	312.02
698.23	311.45
698.56	310.24
698.90	309.02
699.23	307.95
699.57	307.17
699.90	305.52
700.24	303.81
700.58	302.86
700.91	302.38
701.25	302.88
701.58	302.67
701.92	302.33
702.25	301.52
702.59	300.33
702.92	299.74
703.26	298.88
703.59	298.02
703.93	298.79
704.26	298.43
704.60	297.43
704.93	296.31
705.26	295.21
705.60	294.69
705.93	293.69
706.27	293.40
706.60	293.07
706.94	293.24
707.27	292.21
707.61	291.38
707.94	290.43
708.27	288.02
708.61	286.50
708.94	285.19
709.28	284.67
709.61	283.90
709.94	283.12
710.28	282.43
710.61	281.71
710.95	279.05
711.28	279.31
711.61	278.38
711.95	278.33
712.28	277.38
712.61	276.60
712.95	276.98
713.28	276.98
713.61	275.93
713.95	274.67
714.28	274.07
714.61	273.19
714.95	272.17
715.28	271.21
715.61	270.55
715.95	270.17
716.28	269.33
716.61	269.21
716.95	268.36
717.28	267.69
717.61	267.02
717.94	266.31
718.28	264.45
718.61	263.98
718.94	262.93
719.27	262.29
719.61	261.71
719.94	260.67
720.27	258.93
720.60	258.12
720.94	257.45
721.27	257.29
721.60	257.21
721.93	256.62
722.27	256.86
722.60	256.55
722.93	255.90
723.26	255.69
723.59	254.81
723.93	254.76
724.26	254.43
724.59	253.81
724.92	253.57
725.25	253.86
725.59	253.26
725.92	253.38
726.25	253.24
726.58	253.19
726.91	252.40
727.24	252.43
727.57	251.98
727.91	251.43
728.24	251.12
728.57	250.29
728.90	250.26
729.23	249.26
729.56	249.93
729.89	249.67
730.22	249.12
730.55	248.50
730.89	248.17
731.22	247.62
731.55	247.21
731.88	247.17
732.21	246.43
732.54	246.05
732.87	245.40
733.20	244.90
733.53	244.52
733.86	244.50
734.19	243.76
734.52	243.69
734.85	244.93
735.18	244.26
735.51	244.95
735.84	245.07
736.17	245.36
736.50	243.93
736.83	245.90
737.16	245.52
737.49	245.48
737.82	244.90
738.15	245.02
738.48	244.83
738.81	244.12
739.14	243.67
739.47	243.48
739.80	243.31
740.13	243.36
740.46	242.50
740.79	241.90
741.12	241.52
741.45	241.26
741.78	239.57
742.11	239.90
742.44	238.86
742.77	238.69
743.10	238.07
743.43	237.74
743.75	235.38
744.08	237.74
744.41	237.38
744.74	237.24
745.07	236.83
745.40	236.90
745.73	237.69
746.06	237.57
746.39	237.52
746.71	236.90
747.04	236.33
747.37	236.40
747.70	236.71
748.03	236.90
748.36	237.02
748.68	236.86
749.01	236.21
749.34	236.07
749.67	235.57
750.00	235.64
750.33	236.93
750.65	236.95
750.98	234.52
751.31	234.33
751.64	234.12
751.97	234.93
752.29	234.55
752.62	233.40
752.95	233.19
753.28	232.67
753.60	232.43
753.93	233.00
754.26	232.79
754.59	232.00
754.91	231.43
755.24	231.02
755.57	230.90
755.90	230.50
756.22	230.24
756.55	229.81
756.88	229.31
757.20	227.86
757.53	226.76
757.86	226.33
758.19	226.36
758.51	226.07
758.84	224.69
759.17	224.43
759.49	224.48
759.82	225.40
760.15	225.52
760.47	225.57
760.80	224.79
761.13	224.98
761.45	224.69
761.78	224.60
762.11	224.48
762.43	224.17
762.76	224.02
763.08	224.14
763.41	224.17
763.74	224.14
764.06	224.21
764.39	224.17
764.71	224.17
765.04	223.98
765.37	223.83
765.69	223.52
766.02	223.40
766.34	223.10
766.67	222.12
767.00	222.55
767.32	223.45
767.65	224.60
767.97	224.43
768.30	224.36
768.62	224.29
768.95	223.79
769.27	223.67
769.60	224.05
769.92	223.67
770.25	223.26
770.57	223.00
770.90	222.74
771.22	223.07
771.55	223.07
771.87	223.12
772.20	222.90
772.52	224.90
772.85	227.33
773.17	227.21
773.50	227.12
773.82	226.60
774.15	225.50
774.47	224.05
774.80	223.83
775.12	223.90
775.45	223.71
775.77	223.76
776.09	224.00
776.42	223.88
776.74	224.50
777.07	224.31
777.39	224.21
777.72	224.07
778.04	223.98
778.36	223.64
778.69	223.50
779.01	223.74
779.33	221.83
779.66	219.62
779.98	219.62
780.31	219.48
780.63	220.14
780.95	220.62
781.28	220.79
781.60	220.36
781.92	220.19
782.25	220.05
782.57	220.10
782.89	219.60
783.22	219.45
783.54	219.00
783.86	219.19
784.19	219.19
784.51	219.57
784.83	219.21
785.16	219.14
785.48	219.24
785.80	219.12
786.12	219.19
786.45	218.86
