SpectraSuite Data File
++++++++++++++++++++++++++++++++++++
Date: Tue Apr 02 18:44:59 EDT 2013
User: group
Dark Spectrum Present: No
Reference Spectrum Present: No
Number of Sampled Component Spectra: 1
Spectrometers: USB2E7196
Integration Time (usec): 580000 (USB2E7196)
Spectra Averaged: 2 (USB2E7196)
Boxcar Smoothing: 10 (USB2E7196)
Correct for Electrical Dark: No (USB2E7196)
Strobe/Lamp Enabled: No (USB2E7196)
Correct for Detector Non-linearity: No (USB2E7196)
Correct for Stray Light: No (USB2E7196)
Number of Pixels in Processed Spectrum: 2048
>>>>>Begin Processed Spectral Data<<<<<
339.09	0.00
339.48	187.50
339.86	197.00
340.24	193.50
340.63	200.00
341.01	227.00
341.39	200.00
341.78	203.00
342.16	211.50
342.54	199.00
342.93	196.19
343.31	206.14
343.69	206.93
344.07	207.40
344.46	208.26
344.84	208.52
345.22	207.57
345.60	207.93
345.99	208.14
346.37	208.07
346.75	208.43
347.13	208.60
347.52	208.52
347.90	209.12
348.28	209.10
348.66	209.60
349.05	209.02
349.43	209.33
349.81	209.71
350.19	209.81
350.57	210.05
350.96	210.40
351.34	210.45
351.72	210.69
352.10	210.62
352.48	210.31
352.87	210.45
353.25	210.38
353.63	210.43
354.01	210.52
354.39	210.60
354.77	210.71
355.15	211.31
355.54	211.19
355.92	210.76
356.30	211.07
356.68	212.31
357.06	212.45
357.44	212.40
357.82	212.19
358.20	213.26
358.58	213.26
358.97	213.19
359.35	213.67
359.73	214.07
360.11	214.31
360.49	214.57
360.87	214.81
361.25	215.36
361.63	216.14
362.01	216.26
362.39	216.19
362.77	216.33
363.15	216.33
363.53	216.36
363.91	216.21
364.29	216.10
364.67	214.21
365.05	214.33
365.43	214.64
365.81	214.95
366.19	215.19
366.57	216.00
366.95	215.93
367.33	215.45
367.71	215.36
368.09	215.57
368.47	215.50
368.85	215.07
369.23	215.69
369.61	215.17
369.99	216.02
370.37	216.50
370.75	217.69
371.13	217.10
371.51	217.00
371.89	217.33
372.27	217.43
372.65	217.57
373.03	217.48
373.41	217.14
373.78	217.21
374.16	216.26
374.54	215.67
374.92	215.29
375.30	215.43
375.68	215.12
376.06	215.33
376.44	215.29
376.82	215.52
377.19	215.38
377.57	215.14
377.95	214.12
378.33	213.86
378.71	212.62
379.09	213.00
379.47	213.29
379.84	213.19
380.22	213.00
380.60	212.52
380.98	212.64
381.36	212.62
381.73	212.45
382.11	212.45
382.49	212.62
382.87	212.71
383.25	212.67
383.62	214.98
384.00	214.64
384.38	214.81
384.76	215.33
385.13	215.81
385.51	215.83
385.89	215.93
386.27	216.19
386.64	216.57
387.02	216.48
387.40	216.48
387.78	216.62
388.15	216.88
388.53	217.10
388.91	217.00
389.29	217.05
389.66	216.95
390.04	216.88
390.42	217.29
390.79	217.45
391.17	217.33
391.55	215.21
391.92	215.31
392.30	215.50
392.68	215.14
393.05	214.95
393.43	214.83
393.81	214.95
394.18	214.60
394.56	214.57
394.94	214.81
395.31	214.48
395.69	215.10
396.06	215.19
396.44	215.48
396.82	215.36
397.19	216.55
397.57	216.60
397.95	216.86
398.32	216.07
398.70	216.24
399.07	216.83
399.45	216.79
399.82	216.57
400.20	216.29
400.58	216.29
400.95	215.48
401.33	216.24
401.70	217.71
402.08	217.64
402.45	217.40
402.83	217.95
403.20	218.14
403.58	218.00
403.95	218.29
404.33	218.71
404.71	218.95
405.08	219.93
405.46	220.05
405.83	220.55
406.21	221.00
406.58	221.48
406.96	221.60
407.33	222.14
407.70	222.79
408.08	224.95
408.45	225.81
408.83	226.93
409.20	227.19
409.58	226.62
409.95	227.83
410.33	228.74
410.70	229.02
411.08	230.17
411.45	231.02
411.82	231.90
412.20	233.38
412.57	235.98
412.95	235.31
413.32	237.33
413.69	238.43
414.07	240.05
414.44	241.88
414.82	243.98
415.19	246.36
415.56	248.57
415.94	249.71
416.31	252.40
416.68	255.07
417.06	258.33
417.43	261.83
417.81	265.00
418.18	268.98
418.55	272.76
418.93	276.90
419.30	280.74
419.67	285.29
420.04	289.52
420.42	293.38
420.79	300.57
421.16	306.02
421.54	313.38
421.91	319.43
422.28	325.55
422.66	332.24
423.03	340.21
423.40	347.40
423.77	354.81
424.15	362.12
424.52	369.71
424.89	378.40
425.26	385.90
425.64	393.98
426.01	402.26
426.38	411.21
426.75	421.02
427.13	430.90
427.50	440.50
427.87	450.71
428.24	460.79
428.61	469.52
428.99	480.90
429.36	491.21
429.73	502.19
430.10	513.60
430.47	524.71
430.85	535.29
431.22	547.60
431.59	562.29
431.96	574.60
432.33	588.43
432.70	601.64
433.08	617.55
433.45	632.62
433.82	647.67
434.19	664.76
434.56	680.86
434.93	696.26
435.30	712.00
435.68	728.86
436.05	746.12
436.42	763.45
436.79	779.07
437.16	796.33
437.53	814.29
437.90	831.55
438.27	849.95
438.64	867.71
439.01	884.60
439.38	898.19
439.75	912.95
440.13	929.81
440.50	944.93
440.87	958.00
441.24	971.71
441.61	986.17
441.98	996.62
442.35	1008.33
442.72	1021.81
443.09	1034.98
443.46	1042.67
443.83	1047.95
444.20	1052.31
444.57	1057.69
444.94	1060.55
445.31	1064.52
445.68	1069.76
446.05	1070.40
446.42	1069.36
446.79	1068.57
447.16	1066.88
447.53	1065.86
447.90	1059.26
448.27	1053.74
448.64	1044.95
449.01	1038.64
449.37	1027.71
449.74	1017.02
450.11	1006.21
450.48	990.48
450.85	974.52
451.22	962.31
451.59	950.74
451.96	939.45
452.33	924.19
452.70	910.24
453.07	893.17
453.43	874.36
453.80	858.00
454.17	841.79
454.54	826.05
454.91	809.71
455.28	794.31
455.65	779.74
456.02	767.88
456.38	755.19
456.75	739.50
457.12	726.31
457.49	713.12
457.86	699.00
458.23	689.86
458.59	678.45
458.96	666.45
459.33	655.29
459.70	644.45
460.07	636.55
460.43	626.90
460.80	618.02
461.17	611.10
461.54	603.24
461.91	595.69
462.27	587.38
462.64	580.02
463.01	572.19
463.38	566.10
463.74	555.43
464.11	549.26
464.48	543.26
464.85	537.36
465.21	533.38
465.58	528.48
465.95	521.55
466.32	516.62
466.68	511.52
467.05	506.71
467.42	501.45
467.78	495.81
468.15	490.88
468.52	487.29
468.88	481.43
469.25	476.57
469.62	473.31
469.98	469.74
470.35	466.62
470.72	463.43
471.08	458.81
471.45	456.64
471.82	453.90
472.18	450.71
472.55	447.93
472.92	443.98
473.28	440.83
473.65	438.14
474.02	435.69
474.38	433.86
474.75	431.83
475.11	429.38
475.48	427.74
475.85	425.95
476.21	423.95
476.58	422.57
476.94	421.69
477.31	419.83
477.67	418.50
478.04	417.19
478.41	415.98
478.77	417.07
479.14	415.52
479.50	414.67
479.87	414.26
480.23	413.76
480.60	413.38
480.96	413.33
481.33	413.81
481.69	414.00
482.06	413.95
482.42	414.50
482.79	415.33
483.15	416.05
483.52	417.40
483.88	418.05
484.25	418.90
484.61	419.76
484.98	420.86
485.34	422.43
485.71	424.48
486.07	425.76
486.44	425.00
486.80	426.38
487.17	427.64
487.53	429.71
487.90	431.93
488.26	434.83
488.62	437.50
488.99	439.52
489.35	441.76
489.72	444.17
490.08	446.31
490.44	448.98
490.81	452.07
491.17	454.81
491.54	458.31
491.90	461.88
492.26	465.55
492.63	468.98
492.99	472.19
493.36	475.81
493.72	480.17
494.08	484.40
494.45	489.29
494.81	494.57
495.17	499.05
495.54	503.86
495.90	508.36
496.26	513.19
496.63	518.67
496.99	524.60
497.35	530.48
497.72	536.52
498.08	542.24
498.44	547.93
498.80	554.48
499.17	560.40
499.53	566.36
499.89	572.90
500.26	580.12
500.62	587.55
500.98	594.88
501.34	601.76
501.71	609.69
502.07	616.88
502.43	624.24
502.79	631.24
503.16	638.36
503.52	645.52
503.88	652.38
504.24	659.81
504.60	667.10
504.97	674.95
505.33	682.43
505.69	690.90
506.05	699.24
506.41	706.48
506.78	714.43
507.14	721.95
507.50	729.74
507.86	737.48
508.22	745.14
508.59	752.50
508.95	760.17
509.31	769.21
509.67	777.33
510.03	784.00
510.39	791.60
510.75	800.10
511.12	807.76
511.48	816.05
511.84	823.10
512.20	830.38
512.56	837.33
512.92	845.31
513.28	852.52
513.64	858.95
514.00	866.24
514.37	873.21
514.73	881.05
515.09	888.26
515.45	895.33
515.81	901.38
516.17	907.69
516.53	914.52
516.89	919.50
517.25	925.67
517.61	932.74
517.97	939.05
518.33	944.33
518.69	950.60
519.05	956.81
519.41	964.12
519.77	971.00
520.13	977.67
520.49	982.62
520.85	988.19
521.21	995.60
521.57	1001.60
521.93	1007.10
522.29	1011.98
522.65	1017.33
523.01	1022.07
523.37	1027.52
523.73	1033.38
524.09	1038.07
524.45	1043.88
524.81	1048.71
525.17	1053.69
525.53	1058.60
525.89	1064.05
526.25	1069.17
526.61	1073.31
526.97	1077.60
527.33	1082.00
527.68	1087.67
528.04	1093.17
528.40	1096.81
528.76	1099.67
529.12	1103.60
529.48	1108.60
529.84	1113.05
530.20	1117.17
530.56	1122.24
530.91	1127.21
531.27	1130.88
531.63	1135.81
531.99	1138.57
532.35	1141.76
532.71	1144.79
533.07	1149.21
533.42	1155.14
533.78	1158.88
534.14	1163.36
534.50	1166.52
534.86	1171.12
535.21	1173.74
535.57	1177.48
535.93	1181.62
536.29	1186.90
536.65	1191.02
537.00	1193.71
537.36	1196.95
537.72	1200.36
538.08	1203.29
538.44	1205.40
538.79	1209.52
539.15	1211.71
539.51	1216.00
539.87	1220.19
540.22	1224.62
540.58	1227.45
540.94	1228.69
541.29	1232.43
541.65	1234.71
542.01	1238.57
542.37	1240.43
542.72	1241.67
543.08	1243.55
543.44	1246.45
543.79	1248.17
544.15	1251.02
544.51	1254.19
544.87	1258.02
545.22	1260.24
545.58	1263.14
545.94	1266.21
546.29	1268.60
546.65	1271.86
547.01	1273.38
547.36	1276.52
547.72	1279.05
548.07	1283.12
548.43	1284.60
548.79	1286.02
549.14	1288.76
549.50	1290.55
549.86	1292.55
550.21	1295.98
550.57	1299.14
550.92	1300.98
551.28	1303.93
551.64	1306.71
551.99	1309.29
552.35	1311.88
552.70	1315.71
553.06	1319.12
553.41	1323.05
553.77	1327.05
554.13	1331.10
554.48	1335.74
554.84	1338.81
555.19	1342.33
555.55	1346.26
555.90	1350.29
556.26	1355.24
556.61	1358.57
556.97	1362.07
557.32	1365.88
557.68	1370.12
558.03	1374.10
558.39	1379.19
558.74	1382.29
559.10	1385.88
559.45	1390.36
559.81	1394.40
560.16	1398.14
560.52	1401.79
560.87	1405.90
561.23	1409.12
561.58	1414.74
561.94	1418.02
562.29	1421.62
562.64	1426.40
563.00	1430.17
563.35	1435.19
563.71	1439.26
564.06	1445.00
564.42	1450.88
564.77	1457.02
565.12	1462.67
565.48	1469.64
565.83	1475.52
566.19	1481.40
566.54	1487.10
566.89	1492.05
567.25	1498.19
567.60	1504.50
567.96	1512.02
568.31	1518.26
568.66	1524.67
569.02	1528.33
569.37	1534.14
569.72	1540.48
570.08	1545.33
570.43	1549.55
570.78	1555.76
571.14	1562.12
571.49	1566.69
571.84	1571.55
572.20	1576.45
572.55	1581.29
572.90	1584.05
573.26	1587.64
573.61	1592.33
573.96	1597.24
574.31	1602.48
574.67	1606.43
575.02	1609.79
575.37	1612.00
575.72	1615.79
576.08	1619.26
576.43	1623.24
576.78	1628.05
577.13	1632.24
577.49	1636.45
577.84	1641.14
578.19	1644.71
578.54	1647.45
578.90	1651.10
579.25	1654.38
579.60	1657.88
579.95	1660.74
580.30	1664.86
580.66	1669.10
581.01	1672.31
581.36	1675.02
581.71	1677.90
582.06	1682.21
582.42	1686.60
582.77	1689.50
583.12	1693.07
583.47	1696.81
583.82	1700.17
584.17	1702.36
584.53	1705.57
584.88	1709.12
585.23	1712.55
585.58	1714.81
585.93	1718.36
586.28	1722.33
586.63	1725.71
586.98	1728.48
587.34	1732.26
587.69	1734.36
588.04	1737.07
588.39	1740.05
588.74	1741.71
589.09	1744.52
589.44	1744.74
589.79	1745.71
590.14	1748.43
590.49	1749.07
590.84	1751.02
591.19	1752.86
591.54	1754.93
591.89	1755.55
592.25	1758.50
592.60	1759.60
592.95	1761.57
593.30	1763.17
593.65	1762.98
594.00	1763.43
594.35	1769.71
594.70	1769.81
595.05	1771.81
595.40	1771.67
595.75	1771.69
596.10	1772.95
596.45	1773.57
596.80	1775.86
597.15	1777.62
597.50	1778.12
597.85	1779.64
598.19	1779.36
598.54	1780.19
598.89	1780.33
599.24	1781.57
599.59	1779.81
599.94	1780.07
600.29	1779.60
600.64	1779.12
600.99	1780.17
601.34	1780.71
601.69	1774.98
602.04	1774.57
602.39	1773.17
602.74	1774.00
603.08	1773.48
603.43	1774.50
603.78	1773.38
604.13	1772.69
604.48	1771.26
604.83	1771.81
605.18	1771.69
605.53	1771.48
605.87	1770.45
606.22	1768.71
606.57	1767.31
606.92	1766.19
607.27	1764.83
607.62	1764.79
607.96	1764.19
608.31	1763.83
608.66	1762.95
609.01	1761.36
609.36	1760.76
609.70	1759.90
610.05	1757.64
610.40	1756.81
610.75	1753.62
611.10	1752.67
611.44	1749.31
611.79	1747.57
612.14	1744.88
612.49	1740.88
612.83	1737.57
613.18	1735.10
613.53	1732.64
613.88	1729.26
614.22	1726.12
614.57	1722.52
614.92	1718.05
615.27	1714.43
615.61	1709.86
615.96	1705.60
616.31	1703.38
616.65	1701.60
617.00	1698.55
617.35	1695.69
617.70	1692.24
618.04	1689.98
618.39	1686.29
618.74	1682.67
619.08	1679.17
619.43	1675.40
619.78	1672.98
620.12	1670.81
620.47	1666.71
620.82	1663.29
621.16	1659.24
621.51	1655.60
621.85	1652.71
622.20	1649.62
622.55	1645.24
622.89	1642.05
623.24	1639.24
623.59	1634.67
623.93	1629.33
624.28	1625.00
624.62	1623.33
624.97	1620.48
625.32	1616.05
625.66	1611.98
626.01	1609.24
626.35	1605.71
626.70	1600.40
627.04	1596.86
627.39	1592.50
627.73	1590.17
628.08	1588.10
628.43	1585.14
628.77	1582.21
629.12	1578.29
629.46	1575.29
629.81	1571.86
630.15	1567.69
630.50	1563.31
630.84	1559.17
631.19	1554.76
631.53	1550.29
631.88	1542.29
632.22	1536.48
632.57	1531.93
632.91	1527.21
633.26	1522.81
633.60	1517.71
633.95	1513.88
634.29	1507.71
634.64	1503.36
634.98	1497.45
635.32	1493.19
635.67	1489.76
636.01	1485.31
636.36	1479.95
636.70	1474.74
637.05	1469.67
637.39	1464.79
637.73	1460.55
638.08	1457.14
638.42	1452.69
638.77	1448.74
639.11	1445.55
639.45	1441.21
639.80	1436.88
640.14	1431.86
640.49	1427.38
640.83	1421.26
641.17	1416.19
641.52	1411.57
641.86	1406.19
642.20	1402.26
642.55	1395.33
642.89	1388.64
643.23	1382.21
643.58	1377.88
643.92	1371.95
644.26	1366.90
644.61	1362.00
644.95	1355.67
645.29	1348.74
645.64	1343.31
645.98	1338.07
646.32	1333.02
646.66	1326.67
647.01	1319.76
647.35	1314.55
647.69	1308.07
648.04	1303.74
648.38	1298.38
648.72	1292.98
649.06	1287.57
649.41	1280.93
649.75	1274.86
650.09	1269.71
650.43	1263.45
650.78	1256.93
651.12	1251.00
651.46	1244.50
651.80	1238.05
652.14	1231.76
652.49	1226.50
652.83	1220.02
653.17	1213.19
653.51	1206.31
653.85	1200.62
654.20	1194.69
654.54	1187.26
654.88	1180.69
655.22	1175.43
655.56	1168.86
655.90	1162.90
656.25	1155.83
656.59	1149.98
656.93	1144.57
657.27	1139.14
657.61	1133.50
657.95	1127.71
658.29	1121.67
658.64	1116.50
658.98	1110.00
659.32	1103.93
659.66	1096.98
660.00	1090.81
660.34	1084.83
660.68	1078.19
661.02	1071.52
661.36	1066.10
661.70	1060.48
662.05	1054.50
662.39	1047.14
662.73	1041.48
663.07	1035.76
663.41	1029.69
663.75	1022.64
664.09	1016.10
664.43	1009.26
664.77	1003.26
665.11	996.74
665.45	990.93
665.79	984.83
666.13	978.81
666.47	972.93
666.81	967.45
667.15	961.38
667.49	955.64
667.83	951.29
668.17	945.86
668.51	939.52
668.85	934.07
669.19	929.45
669.53	923.83
669.87	917.67
670.21	911.88
670.55	906.14
670.89	901.95
671.23	896.67
671.57	891.45
671.91	886.12
672.25	881.07
672.58	876.19
672.92	870.26
673.26	865.83
673.60	860.52
673.94	854.67
674.28	849.76
674.62	844.93
674.96	839.05
675.30	834.36
675.64	829.12
675.97	824.43
676.31	818.71
676.65	813.36
676.99	809.45
677.33	804.14
677.67	799.52
678.01	793.74
678.34	788.81
678.68	784.00
679.02	778.83
679.36	773.24
679.70	767.67
680.04	762.81
680.37	757.12
680.71	752.43
681.05	748.14
681.39	743.02
681.73	737.36
682.06	732.74
682.40	728.48
682.74	724.17
683.08	720.38
683.42	714.64
683.75	711.02
684.09	705.67
684.43	701.05
684.77	696.07
685.10	691.26
685.44	686.33
685.78	681.12
686.12	676.52
686.45	671.81
686.79	666.81
687.13	662.50
687.46	658.00
687.80	654.05
688.14	649.69
688.48	645.88
688.81	641.86
689.15	637.29
689.49	632.21
689.82	627.74
690.16	622.38
690.50	618.55
690.83	613.71
691.17	609.10
691.51	604.62
691.84	601.02
692.18	596.74
692.52	592.81
692.85	589.40
693.19	586.29
693.52	582.86
693.86	579.00
694.20	574.86
694.53	571.05
694.87	566.93
695.21	562.02
695.54	557.90
695.88	553.31
696.21	548.88
696.55	545.07
696.88	541.38
697.22	537.74
697.56	534.62
697.89	530.71
698.23	527.64
698.56	523.76
698.90	520.07
699.23	516.50
699.57	513.14
699.90	508.93
700.24	504.43
700.58	500.83
700.91	497.31
701.25	495.76
701.58	493.33
701.92	490.50
702.25	488.00
702.59	484.36
702.92	481.48
703.26	478.67
703.59	475.71
703.93	474.29
704.26	471.38
704.60	468.36
704.93	465.14
705.26	461.81
705.60	459.21
705.93	455.81
706.27	453.29
706.60	450.52
706.94	448.62
707.27	445.62
707.61	442.98
707.94	440.86
708.27	436.48
708.61	433.00
708.94	429.79
709.28	427.40
709.61	424.79
709.94	422.26
710.28	419.55
710.61	416.52
710.95	412.07
711.28	411.12
711.61	408.55
711.95	406.76
712.28	404.38
712.61	402.52
712.95	401.24
713.28	399.83
713.61	397.43
713.95	394.71
714.28	392.98
714.61	390.67
714.95	388.14
715.28	385.62
715.61	383.05
715.95	381.10
716.28	378.69
716.61	377.19
716.95	375.00
717.28	373.00
717.61	371.26
717.94	369.14
718.28	365.62
718.61	363.67
718.94	361.33
719.27	359.50
719.61	357.33
719.94	354.93
720.27	351.76
720.60	349.69
720.94	347.64
721.27	345.67
721.60	344.45
721.93	342.93
722.27	342.02
722.60	341.02
722.93	339.19
723.26	337.83
723.59	335.55
723.93	334.57
724.26	333.29
724.59	331.86
724.92	330.86
725.25	330.14
725.59	328.64
725.92	327.64
726.25	326.33
726.58	325.24
726.91	323.81
727.24	322.98
727.57	321.83
727.91	320.26
728.24	319.69
728.57	318.24
728.90	317.19
729.23	315.33
729.56	315.10
729.89	313.88
730.22	312.48
730.55	311.31
730.89	309.90
731.22	308.74
731.55	307.50
731.88	306.40
732.21	304.43
732.54	303.12
732.87	301.71
733.20	300.76
733.53	299.45
733.86	298.76
734.19	297.48
734.52	297.00
734.85	297.38
735.18	296.02
735.51	295.67
735.84	294.86
736.17	294.81
736.50	292.79
736.83	294.48
737.16	293.71
737.49	293.29
737.82	292.19
738.15	291.60
738.48	290.76
738.81	289.79
739.14	289.14
739.47	288.45
739.80	287.81
740.13	287.12
740.46	286.05
740.79	284.86
741.12	284.00
741.45	282.55
741.78	280.55
742.11	280.19
742.44	278.71
742.77	278.21
743.10	276.79
743.43	275.76
743.75	272.81
744.08	274.52
744.41	273.64
744.74	273.10
745.07	271.93
745.40	271.69
745.73	271.90
746.06	271.40
746.39	271.05
746.71	269.76
747.04	268.86
747.37	268.21
747.70	267.81
748.03	267.31
748.36	266.93
748.68	266.74
749.01	265.52
749.34	265.14
749.67	264.52
750.00	264.29
750.33	265.12
750.65	264.60
750.98	261.62
751.31	261.21
751.64	260.69
751.97	261.21
752.29	260.31
752.62	259.10
752.95	258.36
753.28	257.43
753.60	257.31
753.93	257.10
754.26	256.86
754.59	255.76
754.91	255.00
755.24	254.36
755.57	253.62
755.90	253.31
756.22	252.71
756.55	251.52
756.88	250.33
757.20	248.64
757.53	247.69
757.86	247.07
758.19	246.64
758.51	246.21
758.84	244.67
759.17	244.24
759.49	243.83
759.82	244.10
760.15	244.02
760.47	243.50
760.80	242.86
761.13	242.69
761.45	242.43
761.78	242.12
762.11	241.74
762.43	241.07
762.76	240.62
763.08	240.24
763.41	240.10
763.74	240.43
764.06	240.07
764.39	239.88
764.71	239.40
765.04	238.71
765.37	237.98
765.69	237.74
766.02	237.31
766.34	236.64
766.67	235.67
767.00	235.55
767.32	236.57
767.65	237.45
767.97	237.10
768.30	236.74
768.62	236.52
768.95	236.19
769.27	236.31
769.60	236.26
769.92	235.86
770.25	235.50
770.57	234.62
770.90	234.31
771.22	233.74
771.55	233.69
771.87	233.76
772.20	233.83
772.52	235.40
772.85	237.93
773.17	237.88
773.50	237.69
773.82	237.05
774.15	235.79
774.47	234.33
774.80	233.86
775.12	233.60
775.45	233.40
775.77	233.36
776.09	233.31
776.42	233.19
776.74	233.71
777.07	233.26
777.39	233.21
777.72	232.88
778.04	232.95
778.36	232.67
778.69	232.38
779.01	232.26
779.33	230.38
779.66	227.69
779.98	227.31
780.31	227.31
780.63	228.05
780.95	228.17
781.28	227.83
781.60	227.62
781.92	227.33
782.25	227.07
782.57	226.64
782.89	226.00
783.22	225.71
783.54	225.19
783.86	225.07
784.19	225.05
784.51	225.57
784.83	225.12
785.16	224.98
