SpectraSuite Data File
++++++++++++++++++++++++++++++++++++
Date: Tue Apr 02 18:44:14 EDT 2013
User: group
Dark Spectrum Present: No
Reference Spectrum Present: No
Number of Sampled Component Spectra: 1
Spectrometers: USB2E7196
Integration Time (usec): 580000 (USB2E7196)
Spectra Averaged: 2 (USB2E7196)
Boxcar Smoothing: 10 (USB2E7196)
Correct for Electrical Dark: No (USB2E7196)
Strobe/Lamp Enabled: No (USB2E7196)
Correct for Detector Non-linearity: No (USB2E7196)
Correct for Stray Light: No (USB2E7196)
Number of Pixels in Processed Spectrum: 2048
>>>>>Begin Processed Spectral Data<<<<<
339.09	0.00
339.48	193.50
339.86	195.00
340.24	198.00
340.63	198.50
341.01	232.00
341.39	198.50
341.78	203.50
342.16	212.00
342.54	204.00
342.93	197.33
343.31	207.31
343.69	207.93
344.07	208.55
344.46	209.38
344.84	209.76
345.22	208.57
345.60	209.24
345.99	209.55
346.37	209.57
346.75	209.74
347.13	209.81
347.52	209.90
347.90	210.55
348.28	210.43
348.66	211.19
349.05	210.55
349.43	210.83
349.81	211.21
350.19	211.21
350.57	211.62
350.96	211.83
351.34	211.74
351.72	211.86
352.10	211.76
352.48	211.26
352.87	211.29
353.25	211.64
353.63	211.36
354.01	211.31
354.39	211.40
354.77	211.36
355.15	212.07
355.54	211.76
355.92	211.10
356.30	211.29
356.68	212.31
357.06	212.64
357.44	212.36
357.82	212.17
358.20	212.86
358.58	212.64
358.97	212.71
359.35	213.40
359.73	213.79
360.11	213.93
360.49	214.33
360.87	214.50
361.25	214.31
361.63	215.19
362.01	215.24
362.39	215.10
362.77	215.48
363.15	215.24
363.53	215.29
363.91	215.60
364.29	215.45
364.67	213.55
365.05	213.40
365.43	213.64
365.81	213.88
366.19	214.19
366.57	215.07
366.95	214.90
367.33	214.26
367.71	214.05
368.09	214.48
368.47	214.38
368.85	214.24
369.23	214.86
369.61	214.07
369.99	215.02
370.37	215.07
370.75	216.07
371.13	215.52
371.51	215.43
371.89	215.38
372.27	215.40
372.65	215.50
373.03	215.83
373.41	215.95
373.78	216.02
374.16	214.81
374.54	214.29
374.92	214.26
375.30	214.29
375.68	214.05
376.06	214.02
376.44	214.05
376.82	214.33
377.19	213.95
377.57	213.98
377.95	213.07
378.33	213.07
378.71	211.76
379.09	212.31
379.47	212.64
379.84	212.64
380.22	212.55
380.60	212.43
380.98	212.14
381.36	212.10
381.73	211.67
382.11	212.24
382.49	211.95
382.87	211.98
383.25	212.21
383.62	214.74
384.00	214.38
384.38	214.29
384.76	214.71
385.13	215.74
385.51	215.71
385.89	215.57
386.27	215.60
386.64	215.67
387.02	215.38
387.40	215.14
387.78	215.14
388.15	215.29
388.53	215.10
388.91	215.26
389.29	214.98
389.66	215.38
390.04	215.07
390.42	215.86
390.79	215.74
391.17	215.48
391.55	213.17
391.92	213.26
392.30	213.55
392.68	213.07
393.05	212.83
393.43	213.14
393.81	213.33
394.18	213.00
394.56	213.24
394.94	213.69
395.31	213.76
395.69	214.48
396.06	214.93
396.44	215.02
396.82	214.79
397.19	215.86
397.57	215.55
397.95	215.74
398.32	214.79
398.70	215.12
399.07	215.69
399.45	215.48
399.82	215.50
400.20	215.36
400.58	215.36
400.95	214.50
401.33	214.69
401.70	216.07
402.08	216.48
402.45	216.50
402.83	216.95
403.20	217.00
403.58	216.67
403.95	217.05
404.33	217.60
404.71	218.00
405.08	219.29
405.46	219.45
405.83	219.83
406.21	220.45
406.58	220.88
406.96	221.26
407.33	222.02
407.70	222.83
408.08	224.83
408.45	225.71
408.83	226.88
409.20	227.43
409.58	227.21
409.95	228.43
410.33	229.43
410.70	229.69
411.08	231.07
411.45	232.21
411.82	232.69
412.20	234.48
412.57	236.88
412.95	236.33
413.32	238.48
413.69	239.95
414.07	241.67
414.44	243.50
414.82	245.21
415.19	247.74
415.56	250.02
415.94	251.48
416.31	254.17
416.68	256.81
417.06	260.05
417.43	263.33
417.81	266.40
418.18	270.17
418.55	274.00
418.93	278.26
419.30	282.43
419.67	287.21
420.04	291.38
420.42	295.64
420.79	302.90
421.16	308.14
421.54	314.88
421.91	320.93
422.28	327.00
422.66	333.88
423.03	341.76
423.40	348.71
423.77	355.71
424.15	363.19
424.52	370.98
424.89	379.40
425.26	387.14
425.64	394.67
426.01	402.95
426.38	411.95
426.75	421.17
427.13	430.33
427.50	439.69
427.87	449.67
428.24	459.57
428.61	467.76
428.99	479.07
429.36	489.62
429.73	500.93
430.10	512.10
430.47	523.93
430.85	533.86
431.22	545.86
431.59	560.76
431.96	572.90
432.33	586.81
432.70	600.52
433.08	616.74
433.45	632.36
433.82	647.26
434.19	663.90
434.56	680.45
434.93	696.24
435.30	712.14
435.68	729.64
436.05	746.43
436.42	763.79
436.79	779.50
437.16	796.62
437.53	814.33
437.90	832.45
438.27	849.69
438.64	867.98
439.01	885.43
439.38	899.02
439.75	914.02
440.13	930.83
440.50	946.90
440.87	959.10
441.24	972.24
441.61	986.95
441.98	998.10
442.35	1009.93
442.72	1022.79
443.09	1036.67
443.46	1044.86
443.83	1050.45
444.20	1054.95
444.57	1061.67
444.94	1065.12
445.31	1069.02
445.68	1074.98
446.05	1076.43
446.42	1075.05
446.79	1073.62
447.16	1071.98
447.53	1071.07
447.90	1064.45
448.27	1057.81
448.64	1049.48
449.01	1043.19
449.37	1032.76
449.74	1021.43
450.11	1010.10
450.48	995.12
450.85	978.52
451.22	965.45
451.59	954.07
451.96	942.14
452.33	926.24
452.70	911.50
453.07	894.12
453.43	874.12
453.80	858.10
454.17	842.98
454.54	827.79
454.91	811.36
455.28	795.52
455.65	780.86
456.02	768.48
456.38	755.90
456.75	740.69
457.12	726.45
457.49	713.64
457.86	699.74
458.23	690.31
458.59	678.93
458.96	666.98
459.33	655.76
459.70	645.79
460.07	637.74
460.43	628.12
460.80	619.55
461.17	612.67
461.54	604.19
461.91	595.90
462.27	587.36
462.64	579.98
463.01	572.14
463.38	565.69
463.74	555.43
464.11	548.88
464.48	543.33
464.85	537.50
465.21	533.26
465.58	528.02
465.95	521.19
466.32	516.40
466.68	511.21
467.05	506.19
467.42	501.17
467.78	495.31
468.15	490.81
468.52	487.21
468.88	481.31
469.25	476.76
469.62	473.38
469.98	469.90
470.35	466.76
470.72	463.29
471.08	458.88
471.45	456.67
471.82	454.02
472.18	450.14
472.55	447.76
472.92	444.19
473.28	441.10
473.65	438.24
474.02	435.36
474.38	433.14
474.75	431.33
475.11	428.74
475.48	427.40
475.85	425.83
476.21	424.12
476.58	422.64
476.94	421.29
477.31	420.14
477.67	418.69
478.04	417.38
478.41	416.95
478.77	418.24
479.14	416.90
479.50	416.17
479.87	416.14
480.23	415.76
480.60	415.26
480.96	415.21
481.33	416.26
481.69	416.38
482.06	416.50
482.42	416.64
482.79	417.14
483.15	417.10
483.52	417.71
483.88	417.81
484.25	418.60
484.61	419.81
484.98	420.17
485.34	421.62
485.71	423.38
486.07	424.33
486.44	423.57
486.80	425.26
487.17	426.62
487.53	429.14
487.90	431.21
488.26	434.31
488.62	437.17
488.99	438.86
489.35	441.64
489.72	444.36
490.08	446.98
490.44	449.60
490.81	453.07
491.17	456.10
491.54	459.62
491.90	463.48
492.26	466.67
492.63	470.45
492.99	473.90
493.36	477.98
493.72	482.50
494.08	487.36
494.45	492.00
494.81	496.88
495.17	500.55
495.54	505.57
495.90	510.02
496.26	514.93
496.63	520.38
496.99	525.74
497.35	531.55
497.72	537.74
498.08	543.79
498.44	549.86
498.80	556.62
499.17	562.88
499.53	569.05
499.89	576.26
500.26	583.24
500.62	590.07
500.98	597.38
501.34	604.19
501.71	611.55
502.07	618.21
502.43	625.36
502.79	632.64
503.16	639.62
503.52	646.02
503.88	653.24
504.24	660.74
504.60	668.38
504.97	676.45
505.33	683.74
505.69	692.48
506.05	699.79
506.41	707.36
506.78	714.86
507.14	721.81
507.50	729.31
507.86	737.38
508.22	745.43
508.59	752.17
508.95	760.29
509.31	768.45
509.67	776.26
510.03	783.71
510.39	791.62
510.75	799.40
511.12	808.12
511.48	816.29
511.84	823.86
512.20	831.43
512.56	838.43
512.92	846.21
513.28	853.26
513.64	860.67
514.00	867.55
514.37	875.05
514.73	882.90
515.09	890.05
515.45	896.60
515.81	903.33
516.17	910.55
516.53	916.52
516.89	922.12
517.25	928.88
517.61	936.43
517.97	942.45
518.33	949.00
518.69	955.74
519.05	961.76
519.41	968.19
519.77	975.36
520.13	981.31
520.49	986.55
520.85	992.07
521.21	998.90
521.57	1005.07
521.93	1009.88
522.29	1015.29
522.65	1020.29
523.01	1026.02
523.37	1031.43
523.73	1036.76
524.09	1042.69
524.45	1047.90
524.81	1052.50
525.17	1057.05
525.53	1062.62
525.89	1067.12
526.25	1071.76
526.61	1075.74
526.97	1079.83
527.33	1083.19
527.68	1089.62
528.04	1094.29
528.40	1098.31
528.76	1101.60
529.12	1105.64
529.48	1111.19
529.84	1115.43
530.20	1119.74
530.56	1124.38
530.91	1128.81
531.27	1133.05
531.63	1136.76
531.99	1140.50
532.35	1144.52
532.71	1147.86
533.07	1151.71
533.42	1157.79
533.78	1161.40
534.14	1165.95
534.50	1169.95
534.86	1174.62
535.21	1176.50
535.57	1180.81
535.93	1184.31
536.29	1189.12
536.65	1192.79
537.00	1195.95
537.36	1200.33
537.72	1204.12
538.08	1207.62
538.44	1210.55
538.79	1214.00
539.15	1217.40
539.51	1221.00
539.87	1224.71
540.22	1228.38
540.58	1231.98
540.94	1233.90
541.29	1237.24
541.65	1239.76
542.01	1242.88
542.37	1244.86
542.72	1247.29
543.08	1248.76
543.44	1251.60
543.79	1252.76
544.15	1255.79
544.51	1259.07
544.87	1261.69
545.22	1264.36
545.58	1266.62
545.94	1269.24
546.29	1271.86
546.65	1274.67
547.01	1276.93
547.36	1279.21
547.72	1282.21
548.07	1284.24
548.43	1286.00
548.79	1287.71
549.14	1289.62
549.50	1291.76
549.86	1293.95
550.21	1296.67
550.57	1300.07
550.92	1302.95
551.28	1306.88
551.64	1309.81
551.99	1312.24
552.35	1314.38
552.70	1317.10
553.06	1320.81
553.41	1323.74
553.77	1328.67
554.13	1331.17
554.48	1336.00
554.84	1340.55
555.19	1343.48
555.55	1348.64
555.90	1352.55
556.26	1356.45
556.61	1360.26
556.97	1364.00
557.32	1367.83
557.68	1371.48
558.03	1375.55
558.39	1379.81
558.74	1384.14
559.10	1388.14
559.45	1391.90
559.81	1396.95
560.16	1401.21
560.52	1404.74
560.87	1409.83
561.23	1412.19
561.58	1418.83
561.94	1422.33
562.29	1426.45
562.64	1431.31
563.00	1434.98
563.35	1439.57
563.71	1444.00
564.06	1450.24
564.42	1455.93
564.77	1462.05
565.12	1468.45
565.48	1476.21
565.83	1481.86
566.19	1486.88
566.54	1492.33
566.89	1497.71
567.25	1503.02
567.60	1510.12
567.96	1517.69
568.31	1524.38
568.66	1531.40
569.02	1535.69
569.37	1541.40
569.72	1547.43
570.08	1552.81
570.43	1557.50
570.78	1563.79
571.14	1570.24
571.49	1575.60
571.84	1581.10
572.20	1586.10
572.55	1591.07
572.90	1593.29
573.26	1598.05
573.61	1602.00
573.96	1606.52
574.31	1611.05
574.67	1615.26
575.02	1618.57
575.37	1620.45
575.72	1623.00
576.08	1626.10
576.43	1629.79
576.78	1633.60
577.13	1636.33
577.49	1639.86
577.84	1644.95
578.19	1647.48
578.54	1651.10
578.90	1655.10
579.25	1659.02
579.60	1662.60
579.95	1665.88
580.30	1670.05
580.66	1673.31
581.01	1677.19
581.36	1680.71
581.71	1684.81
582.06	1689.02
582.42	1692.71
582.77	1696.00
583.12	1699.12
583.47	1702.29
583.82	1705.33
584.17	1708.67
584.53	1713.45
584.88	1716.67
585.23	1719.02
585.58	1722.26
585.93	1724.95
586.28	1726.69
586.63	1728.76
586.98	1731.64
587.34	1735.10
587.69	1737.07
588.04	1739.93
588.39	1742.29
588.74	1743.31
589.09	1745.76
589.44	1746.10
589.79	1748.05
590.14	1751.17
590.49	1752.64
590.84	1754.29
591.19	1756.48
591.54	1758.17
591.89	1758.14
592.25	1761.62
592.60	1762.52
592.95	1764.17
593.30	1766.29
593.65	1767.76
594.00	1768.26
594.35	1774.52
594.70	1774.90
595.05	1776.95
595.40	1777.55
595.75	1778.64
596.10	1781.00
596.45	1782.12
596.80	1784.79
597.15	1785.38
597.50	1783.76
597.85	1785.95
598.19	1787.07
598.54	1785.64
598.89	1785.76
599.24	1787.90
599.59	1786.62
599.94	1787.07
600.29	1787.36
600.64	1786.50
600.99	1786.86
601.34	1788.33
601.69	1782.62
602.04	1780.60
602.39	1779.38
602.74	1779.52
603.08	1778.71
603.43	1778.90
603.78	1777.79
604.13	1775.31
604.48	1774.31
604.83	1775.45
605.18	1774.24
605.53	1773.31
605.87	1773.74
606.22	1772.00
606.57	1769.62
606.92	1768.24
607.27	1766.60
607.62	1765.76
607.96	1766.02
608.31	1765.40
608.66	1763.24
609.01	1761.21
609.36	1761.50
609.70	1760.38
610.05	1757.55
610.40	1755.98
610.75	1752.74
611.10	1750.62
611.44	1748.88
611.79	1746.05
612.14	1743.83
612.49	1740.50
612.83	1737.24
613.18	1733.90
613.53	1731.81
613.88	1728.21
614.22	1724.57
614.57	1721.33
614.92	1717.31
615.27	1712.98
615.61	1707.45
615.96	1703.33
616.31	1700.76
616.65	1698.00
617.00	1695.14
617.35	1692.74
617.70	1689.69
618.04	1686.12
618.39	1682.43
618.74	1679.67
619.08	1676.57
619.43	1672.86
619.78	1670.02
620.12	1667.67
620.47	1665.26
620.82	1661.60
621.16	1658.40
621.51	1656.38
621.85	1651.98
622.20	1648.90
622.55	1644.50
622.89	1642.38
623.24	1639.76
623.59	1635.43
623.93	1631.00
624.28	1626.57
624.62	1623.76
624.97	1620.79
625.32	1617.38
625.66	1613.83
626.01	1609.71
626.35	1607.02
626.70	1602.83
627.04	1599.50
627.39	1594.12
627.73	1590.90
628.08	1587.36
628.43	1582.45
628.77	1577.62
629.12	1575.45
629.46	1570.79
629.81	1566.95
630.15	1561.83
630.50	1555.69
630.84	1550.98
631.19	1545.19
631.53	1540.98
631.88	1533.83
632.22	1527.74
632.57	1522.98
632.91	1517.67
633.26	1512.76
633.60	1506.86
633.95	1501.36
634.29	1495.64
634.64	1491.98
634.98	1485.62
635.32	1481.52
635.67	1478.60
636.01	1474.74
636.36	1468.79
636.70	1464.83
637.05	1459.98
637.39	1455.38
637.73	1452.05
638.08	1448.45
638.42	1445.33
638.77	1440.50
639.11	1436.76
639.45	1432.14
639.80	1426.81
640.14	1422.57
640.49	1418.43
640.83	1412.60
641.17	1409.31
641.52	1404.17
641.86	1398.90
642.20	1395.67
642.55	1389.36
642.89	1383.26
643.23	1377.29
643.58	1373.57
643.92	1367.60
644.26	1362.24
644.61	1357.88
644.95	1352.74
645.29	1346.71
645.64	1341.21
645.98	1335.24
646.32	1330.57
646.66	1324.10
647.01	1318.48
647.35	1313.05
647.69	1306.60
648.04	1301.76
648.38	1294.83
648.72	1288.98
649.06	1281.76
649.41	1274.05
649.75	1267.95
650.09	1262.31
650.43	1255.69
650.78	1248.86
651.12	1242.36
651.46	1235.67
651.80	1229.00
652.14	1222.19
652.49	1216.62
652.83	1209.55
653.17	1203.02
653.51	1195.93
653.85	1190.19
654.20	1183.71
654.54	1176.40
654.88	1169.52
655.22	1163.67
655.56	1157.17
655.90	1151.19
656.25	1145.17
656.59	1139.19
656.93	1132.86
657.27	1126.76
657.61	1120.33
657.95	1113.88
658.29	1107.64
658.64	1102.10
658.98	1094.98
659.32	1088.05
659.66	1081.02
660.00	1074.90
660.34	1069.02
660.68	1062.40
661.02	1055.95
661.36	1050.07
661.70	1044.14
662.05	1038.31
662.39	1032.26
662.73	1026.40
663.07	1021.12
663.41	1015.57
663.75	1009.52
664.09	1003.98
664.43	997.10
664.77	991.17
665.11	984.81
665.45	978.98
665.79	973.43
666.13	967.29
666.47	962.36
666.81	956.93
667.15	951.50
667.49	946.02
667.83	940.98
668.17	935.40
668.51	929.40
668.85	923.81
669.19	919.02
669.53	912.43
669.87	906.36
670.21	899.93
670.55	894.00
670.89	889.29
671.23	883.69
671.57	878.86
671.91	873.98
672.25	869.31
672.58	864.45
672.92	858.52
673.26	853.76
673.60	848.14
673.94	842.29
674.28	836.12
674.62	830.45
674.96	824.83
675.30	819.88
675.64	815.14
675.97	809.74
676.31	803.79
676.65	798.38
676.99	794.36
677.33	789.19
677.67	784.83
678.01	779.00
678.34	774.17
678.68	769.40
679.02	764.05
679.36	758.19
679.70	752.74
680.04	747.31
680.37	742.19
680.71	737.83
681.05	733.55
681.39	729.17
681.73	724.48
682.06	719.43
682.40	715.02
682.74	710.43
683.08	707.07
683.42	701.60
683.75	697.38
684.09	692.07
684.43	686.95
684.77	681.76
685.10	677.45
685.44	672.31
685.78	666.83
686.12	662.33
686.45	657.76
686.79	653.14
687.13	649.43
687.46	644.86
687.80	639.62
688.14	635.02
688.48	630.64
688.81	626.12
689.15	622.76
689.49	617.64
689.82	613.36
690.16	607.55
690.50	603.90
690.83	599.64
691.17	595.00
691.51	590.90
691.84	587.17
692.18	582.36
692.52	578.50
692.85	575.21
693.19	571.93
693.52	568.29
693.86	564.24
694.20	559.62
694.53	555.81
694.87	551.74
695.21	547.40
695.54	543.52
695.88	539.29
696.21	534.60
696.55	531.02
696.88	527.24
697.22	523.81
697.56	520.64
697.89	516.88
698.23	513.60
698.56	510.48
698.90	506.76
699.23	503.36
699.57	500.10
699.90	496.12
700.24	491.81
700.58	488.05
700.91	485.10
701.25	484.12
701.58	481.40
701.92	478.95
702.25	475.83
702.59	472.55
702.92	469.74
703.26	467.14
703.59	464.02
703.93	462.57
704.26	460.02
704.60	456.81
704.93	454.12
705.26	451.36
705.60	448.67
705.93	445.55
706.27	443.52
706.60	440.88
706.94	438.95
707.27	436.33
707.61	434.33
707.94	431.60
708.27	426.86
708.61	424.26
708.94	421.60
709.28	419.62
709.61	417.05
709.94	414.52
710.28	411.88
710.61	409.88
710.95	405.43
711.28	404.05
711.61	401.74
711.95	399.48
712.28	396.62
712.61	394.17
712.95	393.07
713.28	391.52
713.61	388.86
713.95	386.12
714.28	384.19
714.61	381.83
714.95	379.57
715.28	377.76
715.61	375.76
715.95	373.76
716.28	371.21
716.61	369.86
716.95	367.93
717.28	365.81
717.61	363.62
717.94	362.00
718.28	358.90
718.61	357.26
718.94	354.83
719.27	353.19
719.61	351.57
719.94	349.26
720.27	346.48
720.60	344.64
720.94	343.10
721.27	341.57
721.60	340.21
721.93	338.64
722.27	337.69
722.60	336.21
722.93	334.29
723.26	333.10
723.59	331.17
723.93	330.10
724.26	328.74
724.59	327.36
724.92	326.24
725.25	325.45
725.59	324.05
725.92	323.31
726.25	322.29
726.58	321.05
726.91	319.79
727.24	318.52
727.57	317.67
727.91	316.29
728.24	314.88
728.57	313.64
728.90	312.50
729.23	310.57
729.56	310.14
729.89	309.50
730.22	308.21
730.55	307.29
730.89	305.95
731.22	304.90
731.55	303.76
731.88	302.57
732.21	301.21
732.54	299.90
732.87	298.79
733.20	297.69
733.53	296.83
733.86	295.71
734.19	294.86
734.52	294.24
734.85	294.67
735.18	293.69
735.51	293.26
735.84	292.83
736.17	292.67
736.50	290.69
736.83	292.05
737.16	291.50
737.49	290.76
737.82	290.00
738.15	289.57
738.48	288.81
738.81	287.98
739.14	286.55
739.47	285.67
739.80	284.93
740.13	284.48
740.46	283.38
740.79	282.71
741.12	281.95
741.45	280.71
741.78	278.71
742.11	278.71
742.44	277.52
742.77	276.60
743.10	275.48
743.43	274.62
743.75	271.60
744.08	273.31
744.41	272.24
744.74	271.38
745.07	270.12
745.40	269.71
745.73	269.88
746.06	269.64
746.39	269.62
746.71	268.81
747.04	267.60
747.37	266.93
747.70	266.38
748.03	265.81
748.36	265.48
748.68	264.81
749.01	263.31
749.34	262.83
749.67	262.33
750.00	262.07
750.33	263.43
750.65	263.12
750.98	260.10
751.31	259.57
751.64	259.24
751.97	259.86
752.29	259.19
752.62	257.69
752.95	257.07
753.28	256.02
753.60	255.43
753.93	255.88
754.26	255.31
754.59	254.38
754.91	253.60
755.24	252.88
755.57	252.43
755.90	252.29
756.22	251.55
756.55	250.93
756.88	249.83
757.20	247.69
757.53	246.93
757.86	246.38
758.19	246.40
758.51	245.86
758.84	244.62
759.17	243.81
759.49	243.52
759.82	244.29
760.15	244.07
760.47	243.55
760.80	242.45
761.13	242.40
761.45	242.07
761.78	241.69
762.11	241.24
762.43	240.62
762.76	239.90
763.08	239.64
763.41	239.38
763.74	239.33
764.06	238.86
764.39	238.45
764.71	238.07
765.04	237.36
765.37	237.05
765.69	236.50
766.02	236.29
766.34	235.71
766.67	234.57
767.00	234.71
767.32	235.71
767.65	236.62
767.97	236.07
768.30	235.79
768.62	235.71
768.95	235.33
769.27	235.14
769.60	235.38
769.92	234.74
770.25	234.40
770.57	233.55
770.90	233.60
771.22	233.29
771.55	233.21
771.87	233.24
772.20	232.83
772.52	234.45
772.85	236.88
773.17	236.76
773.50	236.24
773.82	235.71
774.15	234.48
774.47	232.93
774.80	232.90
775.12	232.62
775.45	232.33
775.77	232.40
776.09	232.43
776.42	232.02
776.74	232.52
777.07	231.93
777.39	232.02
777.72	231.57
778.04	231.52
778.36	230.90
778.69	230.57
779.01	230.36
779.33	228.48
779.66	225.83
779.98	225.62
780.31	225.71
780.63	226.24
780.95	226.60
781.28	226.74
781.60	226.17
781.92	226.12
782.25	226.00
782.57	225.95
782.89	225.38
783.22	225.12
783.54	224.55
783.86	224.83
784.19	224.74
784.51	225.21
784.83	224.86
785.16	224.88
