SpectraSuite Data File
++++++++++++++++++++++++++++++++++++
Date: Tue Apr 02 18:42:57 EDT 2013
User: group
Dark Spectrum Present: No
Reference Spectrum Present: No
Number of Sampled Component Spectra: 1
Spectrometers: USB2E7196
Integration Time (usec): 580000 (USB2E7196)
Spectra Averaged: 2 (USB2E7196)
Boxcar Smoothing: 10 (USB2E7196)
Correct for Electrical Dark: No (USB2E7196)
Strobe/Lamp Enabled: No (USB2E7196)
Correct for Detector Non-linearity: No (USB2E7196)
Correct for Stray Light: No (USB2E7196)
Number of Pixels in Processed Spectrum: 2048
>>>>>Begin Processed Spectral Data<<<<<
339.09	0.00
339.48	195.00
339.86	191.50
340.24	195.50
340.63	197.00
341.01	233.50
341.39	197.00
341.78	206.50
342.16	213.50
342.54	207.00
342.93	198.38
343.31	208.12
343.69	208.57
344.07	209.31
344.46	210.31
344.84	210.93
345.22	209.60
345.60	210.33
345.99	210.57
346.37	210.48
346.75	210.38
347.13	210.26
347.52	210.38
347.90	211.00
348.28	211.12
348.66	211.60
349.05	210.98
349.43	211.29
349.81	211.24
350.19	211.45
350.57	211.45
350.96	211.64
351.34	212.02
351.72	212.31
352.10	212.40
352.48	212.07
352.87	212.10
353.25	212.21
353.63	211.98
354.01	211.93
354.39	212.02
354.77	212.33
355.15	213.10
355.54	213.19
355.92	212.55
356.30	212.83
356.68	213.93
357.06	214.10
357.44	213.45
357.82	213.45
358.20	214.24
358.58	214.43
358.97	214.43
359.35	214.71
359.73	215.12
360.11	215.26
360.49	215.43
360.87	215.38
361.25	215.57
361.63	216.33
362.01	216.38
362.39	216.19
362.77	216.14
363.15	216.02
363.53	215.71
363.91	215.98
364.29	215.81
364.67	214.07
365.05	214.12
365.43	214.83
365.81	214.95
366.19	215.12
366.57	215.95
366.95	215.95
367.33	215.36
367.71	215.31
368.09	215.48
368.47	215.52
368.85	215.71
369.23	216.21
369.61	215.40
369.99	216.21
370.37	216.69
370.75	217.76
371.13	217.24
371.51	217.07
371.89	216.90
372.27	217.07
372.65	217.14
373.03	217.24
373.41	216.95
373.78	216.98
374.16	216.02
374.54	215.24
374.92	215.05
375.30	215.43
375.68	215.19
376.06	215.43
376.44	215.29
376.82	215.19
377.19	215.12
377.57	215.33
377.95	214.50
378.33	214.17
378.71	213.05
379.09	213.45
379.47	213.88
379.84	213.76
380.22	213.55
380.60	213.29
380.98	213.26
381.36	212.95
381.73	212.62
382.11	212.93
382.49	212.98
382.87	212.40
383.25	212.17
383.62	214.24
384.00	213.83
384.38	213.81
384.76	214.33
385.13	214.98
385.51	215.02
385.89	214.76
386.27	214.95
386.64	215.26
387.02	214.81
387.40	214.57
387.78	214.98
388.15	215.14
388.53	214.88
388.91	214.88
389.29	214.79
389.66	215.17
390.04	214.79
390.42	215.17
390.79	215.38
391.17	215.29
391.55	212.95
391.92	212.86
392.30	213.17
392.68	212.69
393.05	212.64
393.43	212.69
393.81	213.02
394.18	212.57
394.56	212.52
394.94	213.10
395.31	212.83
395.69	213.07
396.06	213.21
396.44	213.38
396.82	213.29
397.19	214.62
397.57	214.38
397.95	214.83
398.32	214.36
398.70	214.95
399.07	215.45
399.45	215.60
399.82	215.64
400.20	215.38
400.58	215.26
400.95	214.36
401.33	214.60
401.70	216.05
402.08	216.17
402.45	216.26
402.83	216.57
403.20	216.90
403.58	217.00
403.95	217.38
404.33	218.14
404.71	218.55
405.08	219.71
405.46	219.95
405.83	220.12
406.21	220.62
406.58	220.95
406.96	221.43
407.33	222.17
407.70	223.12
408.08	225.21
408.45	226.29
408.83	227.48
409.20	227.98
409.58	227.57
409.95	229.00
410.33	230.07
410.70	230.45
411.08	231.88
411.45	232.71
411.82	233.52
412.20	234.93
412.57	237.12
412.95	236.62
413.32	238.57
413.69	240.00
414.07	241.45
414.44	243.24
414.82	245.14
415.19	247.29
415.56	249.36
415.94	250.50
416.31	253.21
416.68	255.95
417.06	259.05
417.43	262.67
417.81	266.12
418.18	269.64
418.55	273.48
418.93	277.29
419.30	281.55
419.67	285.95
420.04	290.26
420.42	294.81
420.79	302.36
421.16	307.81
421.54	314.88
421.91	321.26
422.28	327.24
422.66	333.98
423.03	342.29
423.40	349.12
423.77	356.38
424.15	363.57
424.52	371.36
424.89	380.29
425.26	387.83
425.64	395.50
426.01	403.95
426.38	412.86
426.75	422.43
427.13	431.57
427.50	441.48
427.87	451.60
428.24	461.36
428.61	469.14
428.99	480.31
429.36	490.76
429.73	501.95
430.10	513.93
430.47	525.55
430.85	535.88
431.22	548.43
431.59	563.40
431.96	576.29
432.33	590.19
432.70	603.83
433.08	619.67
433.45	634.86
433.82	649.67
434.19	666.83
434.56	683.67
434.93	699.64
435.30	715.74
435.68	733.64
436.05	751.05
436.42	768.48
436.79	784.10
437.16	801.81
437.53	819.83
437.90	836.93
438.27	855.02
438.64	873.71
439.01	890.64
439.38	904.67
439.75	919.07
440.13	935.83
440.50	951.62
440.87	964.17
441.24	977.19
441.61	991.90
441.98	1002.81
442.35	1014.71
442.72	1028.14
443.09	1041.48
443.46	1048.29
443.83	1053.71
444.20	1058.05
444.57	1064.40
444.94	1067.79
445.31	1071.36
445.68	1077.67
446.05	1078.93
446.42	1077.45
446.79	1076.69
447.16	1074.24
447.53	1074.14
447.90	1067.93
448.27	1061.33
448.64	1053.26
449.01	1047.69
449.37	1036.90
449.74	1025.67
450.11	1014.50
450.48	999.17
450.85	983.02
451.22	971.14
451.59	958.90
451.96	948.12
452.33	933.07
452.70	918.10
453.07	900.69
453.43	881.17
453.80	864.74
454.17	848.10
454.54	832.43
454.91	816.55
455.28	799.48
455.65	784.62
456.02	773.38
456.38	760.86
456.75	744.90
457.12	731.21
457.49	718.57
457.86	704.00
458.23	694.14
458.59	682.74
458.96	670.57
459.33	660.10
459.70	648.81
460.07	640.07
460.43	630.40
460.80	622.12
461.17	614.86
461.54	606.57
461.91	599.02
462.27	591.02
462.64	583.71
463.01	576.69
463.38	570.31
463.74	559.40
464.11	552.48
464.48	546.93
464.85	540.86
465.21	536.79
465.58	532.02
465.95	525.24
466.32	520.00
466.68	514.45
467.05	509.38
467.42	504.90
467.78	499.36
468.15	494.69
468.52	490.95
468.88	484.90
469.25	479.95
469.62	476.38
469.98	472.14
470.35	468.69
470.72	465.02
471.08	460.10
471.45	457.40
471.82	454.86
472.18	451.10
472.55	448.76
472.92	444.71
473.28	441.67
473.65	439.07
474.02	436.48
474.38	434.83
474.75	432.81
475.11	430.21
475.48	428.60
475.85	426.64
476.21	424.55
476.58	423.62
476.94	422.50
477.31	421.10
477.67	420.07
478.04	419.12
478.41	418.60
478.77	419.86
479.14	418.67
479.50	417.76
479.87	417.57
480.23	417.26
480.60	416.71
480.96	416.36
481.33	416.83
481.69	416.69
482.06	416.55
482.42	416.76
482.79	417.19
483.15	417.33
483.52	418.19
483.88	418.36
484.25	418.90
484.61	419.95
484.98	420.93
485.34	422.43
485.71	423.67
486.07	424.60
486.44	424.12
486.80	425.83
487.17	427.38
487.53	429.90
487.90	431.88
488.26	434.81
488.62	437.88
488.99	440.00
489.35	442.88
489.72	445.55
490.08	448.17
490.44	451.12
490.81	454.98
491.17	458.12
491.54	462.31
491.90	465.74
492.26	469.05
492.63	472.74
492.99	476.21
493.36	480.40
493.72	484.86
494.08	489.12
494.45	493.76
494.81	498.52
495.17	502.90
495.54	508.21
495.90	512.93
496.26	517.79
496.63	523.07
496.99	528.38
497.35	534.07
497.72	540.26
498.08	545.95
498.44	551.60
498.80	558.19
499.17	564.00
499.53	570.48
499.89	577.67
500.26	584.31
500.62	591.12
500.98	598.45
501.34	604.95
501.71	613.00
502.07	619.62
502.43	626.69
502.79	633.62
503.16	640.62
503.52	647.40
503.88	654.07
504.24	662.02
504.60	669.40
504.97	677.21
505.33	684.67
505.69	693.45
506.05	701.10
506.41	708.26
506.78	715.90
507.14	723.07
507.50	730.52
507.86	738.57
508.22	746.83
508.59	754.07
508.95	762.48
509.31	770.33
509.67	778.74
510.03	786.60
510.39	794.31
510.75	802.26
511.12	810.71
511.48	819.19
511.84	826.14
512.20	833.69
512.56	841.55
512.92	849.14
513.28	856.40
513.64	863.76
514.00	871.07
514.37	878.67
514.73	886.33
515.09	893.90
515.45	900.67
515.81	906.93
516.17	914.45
516.53	920.10
516.89	926.36
517.25	932.69
517.61	939.83
517.97	945.64
518.33	952.02
518.69	958.12
519.05	964.52
519.41	970.81
519.77	978.74
520.13	984.50
520.49	989.57
520.85	994.74
521.21	1001.93
521.57	1008.24
521.93	1013.52
522.29	1019.40
522.65	1024.29
523.01	1030.24
523.37	1035.40
523.73	1040.24
524.09	1046.57
524.45	1051.88
524.81	1057.02
525.17	1061.71
525.53	1067.21
525.89	1071.95
526.25	1077.43
526.61	1081.14
526.97	1085.12
527.33	1088.38
527.68	1094.21
528.04	1099.24
528.40	1103.31
528.76	1106.02
529.12	1110.74
529.48	1115.48
529.84	1119.07
530.20	1123.38
530.56	1127.36
530.91	1131.98
531.27	1135.95
531.63	1140.24
531.99	1144.10
532.35	1147.76
532.71	1151.57
533.07	1156.07
533.42	1161.90
533.78	1165.55
534.14	1170.74
534.50	1175.17
534.86	1179.60
535.21	1181.93
535.57	1186.38
535.93	1190.38
536.29	1195.50
536.65	1198.29
537.00	1201.29
537.36	1205.67
537.72	1209.60
538.08	1213.36
538.44	1216.57
538.79	1220.38
539.15	1223.00
539.51	1226.93
539.87	1230.57
540.22	1234.14
540.58	1237.79
540.94	1239.31
541.29	1241.62
541.65	1243.95
542.01	1248.02
542.37	1251.02
542.72	1253.62
543.08	1255.67
543.44	1259.76
543.79	1261.29
544.15	1264.60
544.51	1269.14
544.87	1272.02
545.22	1274.33
545.58	1277.00
545.94	1280.00
546.29	1282.57
546.65	1285.90
547.01	1287.17
547.36	1290.00
547.72	1293.00
548.07	1295.74
548.43	1298.43
548.79	1301.19
549.14	1303.40
549.50	1306.07
549.86	1308.05
550.21	1311.17
550.57	1314.55
550.92	1315.76
551.28	1319.62
551.64	1323.45
551.99	1324.90
552.35	1327.71
552.70	1330.93
553.06	1334.12
553.41	1337.31
553.77	1341.64
554.13	1345.31
554.48	1350.40
554.84	1354.52
555.19	1358.24
555.55	1363.24
555.90	1366.62
556.26	1370.57
556.61	1374.88
556.97	1377.81
557.32	1381.69
557.68	1385.76
558.03	1389.62
558.39	1394.14
558.74	1397.71
559.10	1400.95
559.45	1405.38
559.81	1409.62
560.16	1412.83
560.52	1417.21
560.87	1422.67
561.23	1425.88
561.58	1431.45
561.94	1435.10
562.29	1439.05
562.64	1443.81
563.00	1446.71
563.35	1452.12
563.71	1458.21
564.06	1463.60
564.42	1469.12
564.77	1474.57
565.12	1480.48
565.48	1487.81
565.83	1494.31
566.19	1500.21
566.54	1506.24
566.89	1512.31
567.25	1519.31
567.60	1528.40
567.96	1536.00
568.31	1542.29
568.66	1548.60
569.02	1553.12
569.37	1559.60
569.72	1565.55
570.08	1570.02
570.43	1575.74
570.78	1581.14
571.14	1586.21
571.49	1591.29
571.84	1597.40
572.20	1602.81
572.55	1608.14
572.90	1611.74
573.26	1616.21
573.61	1620.88
573.96	1625.83
574.31	1630.14
574.67	1633.17
575.02	1635.55
575.37	1637.76
575.72	1640.05
576.08	1643.93
576.43	1647.62
576.78	1650.55
577.13	1654.12
577.49	1658.83
577.84	1663.86
578.19	1667.12
578.54	1671.05
578.90	1675.40
579.25	1678.45
579.60	1681.21
579.95	1683.48
580.30	1686.36
580.66	1689.86
581.01	1693.86
581.36	1695.98
581.71	1699.21
582.06	1703.88
582.42	1707.69
582.77	1711.07
583.12	1713.83
583.47	1717.76
583.82	1720.62
584.17	1723.12
584.53	1727.29
584.88	1730.31
585.23	1732.33
585.58	1735.24
585.93	1737.67
586.28	1740.64
586.63	1743.31
586.98	1746.05
587.34	1749.95
587.69	1752.76
588.04	1754.33
588.39	1755.14
588.74	1756.43
589.09	1758.48
589.44	1758.74
589.79	1759.88
590.14	1761.74
590.49	1763.95
590.84	1764.10
591.19	1767.00
591.54	1768.57
591.89	1768.33
592.25	1770.60
592.60	1770.76
592.95	1771.40
593.30	1772.74
593.65	1772.31
594.00	1771.79
594.35	1779.43
594.70	1778.74
595.05	1779.50
595.40	1780.10
595.75	1780.64
596.10	1783.00
596.45	1784.00
596.80	1784.79
597.15	1785.67
597.50	1786.24
597.85	1787.76
598.19	1788.79
598.54	1787.57
598.89	1787.93
599.24	1789.62
599.59	1789.00
599.94	1790.10
600.29	1791.29
600.64	1790.62
600.99	1790.86
601.34	1792.38
601.69	1786.50
602.04	1786.14
602.39	1784.86
602.74	1784.98
603.08	1784.50
603.43	1784.31
603.78	1783.88
604.13	1783.74
604.48	1782.60
604.83	1782.24
605.18	1781.90
605.53	1781.50
605.87	1780.64
606.22	1780.05
606.57	1777.67
606.92	1776.10
607.27	1775.21
607.62	1774.26
607.96	1774.14
608.31	1773.95
608.66	1772.05
609.01	1769.29
609.36	1768.81
609.70	1767.26
610.05	1765.67
610.40	1764.71
610.75	1762.24
611.10	1760.14
611.44	1757.83
611.79	1755.43
612.14	1752.64
612.49	1747.71
612.83	1744.90
613.18	1742.29
613.53	1739.31
613.88	1735.98
614.22	1732.31
614.57	1727.79
614.92	1723.64
615.27	1720.02
615.61	1714.69
615.96	1711.14
616.31	1707.02
616.65	1703.19
617.00	1700.88
617.35	1696.64
617.70	1693.29
618.04	1689.52
618.39	1684.52
618.74	1680.64
619.08	1676.55
619.43	1672.74
619.78	1669.62
620.12	1665.88
620.47	1661.95
620.82	1657.48
621.16	1653.07
621.51	1650.14
621.85	1645.90
622.20	1641.57
622.55	1635.79
622.89	1633.12
623.24	1629.86
623.59	1627.40
623.93	1623.50
624.28	1618.64
624.62	1617.43
624.97	1614.33
625.32	1609.88
625.66	1606.71
626.01	1602.10
626.35	1598.76
626.70	1594.93
627.04	1592.40
627.39	1587.05
627.73	1583.88
628.08	1580.71
628.43	1576.60
628.77	1572.05
629.12	1568.76
629.46	1565.21
629.81	1561.69
630.15	1556.74
630.50	1551.50
630.84	1545.93
631.19	1541.36
631.53	1536.79
631.88	1528.95
632.22	1522.29
632.57	1517.86
632.91	1512.05
633.26	1508.19
633.60	1502.50
633.95	1497.00
634.29	1490.60
634.64	1486.14
634.98	1480.60
635.32	1476.07
635.67	1473.17
636.01	1468.76
636.36	1463.57
636.70	1458.83
637.05	1454.07
637.39	1449.19
637.73	1444.55
638.08	1440.55
638.42	1435.71
638.77	1430.71
639.11	1425.55
639.45	1420.45
639.80	1414.36
640.14	1409.88
640.49	1403.62
640.83	1397.93
641.17	1392.86
641.52	1387.52
641.86	1382.43
642.20	1377.93
642.55	1371.62
642.89	1365.21
643.23	1358.67
643.58	1353.86
643.92	1346.55
644.26	1340.81
644.61	1334.71
644.95	1328.81
645.29	1321.62
645.64	1315.50
645.98	1309.21
646.32	1304.02
646.66	1297.29
647.01	1291.29
647.35	1285.69
647.69	1279.50
648.04	1274.05
648.38	1267.69
648.72	1261.40
649.06	1254.69
649.41	1247.21
649.75	1240.38
650.09	1233.86
650.43	1227.76
650.78	1220.86
651.12	1215.26
651.46	1208.07
651.80	1201.29
652.14	1194.69
652.49	1188.90
652.83	1181.86
653.17	1175.62
653.51	1168.57
653.85	1163.05
654.20	1156.57
654.54	1149.12
654.88	1142.71
655.22	1136.52
655.56	1129.48
655.90	1123.36
656.25	1117.07
656.59	1110.86
656.93	1104.48
657.27	1098.64
657.61	1091.79
657.95	1085.64
658.29	1079.02
658.64	1073.45
658.98	1066.95
659.32	1060.07
659.66	1054.17
660.00	1047.36
660.34	1040.57
660.68	1034.43
661.02	1027.31
661.36	1020.93
661.70	1014.67
662.05	1008.83
662.39	1002.86
662.73	997.29
663.07	991.81
663.41	985.95
663.75	979.86
664.09	974.12
664.43	966.95
664.77	961.07
665.11	953.79
665.45	947.98
665.79	942.36
666.13	936.24
666.47	930.45
666.81	923.57
667.15	918.40
667.49	913.43
667.83	908.52
668.17	903.00
668.51	897.12
668.85	892.02
669.19	887.19
669.53	880.50
669.87	874.69
670.21	868.38
670.55	862.17
670.89	856.81
671.23	851.36
671.57	845.88
671.91	840.52
672.25	835.40
672.58	830.64
672.92	824.43
673.26	819.31
673.60	814.26
673.94	809.31
674.28	804.02
674.62	798.45
674.96	792.93
675.30	788.24
675.64	783.62
675.97	778.48
676.31	772.95
676.65	768.05
676.99	764.38
677.33	759.24
677.67	754.60
678.01	749.62
678.34	745.29
678.68	740.90
679.02	735.02
679.36	730.24
679.70	724.43
680.04	719.43
680.37	714.33
680.71	709.31
681.05	704.57
681.39	699.90
681.73	695.17
682.06	689.90
682.40	685.07
682.74	680.45
683.08	676.38
683.42	670.86
683.75	666.62
684.09	660.64
684.43	656.24
684.77	651.40
685.10	646.98
685.44	641.93
685.78	637.21
686.12	633.52
686.45	628.98
686.79	624.57
687.13	621.12
687.46	617.45
687.80	613.71
688.14	609.86
688.48	605.17
688.81	601.17
689.15	597.98
689.49	594.00
689.82	589.90
690.16	584.55
690.50	580.76
690.83	576.55
691.17	572.38
691.51	568.02
691.84	564.79
692.18	560.98
692.52	556.95
692.85	553.62
693.19	551.00
693.52	546.88
693.86	543.12
694.20	538.95
694.53	534.95
694.87	530.43
695.21	526.74
695.54	523.19
695.88	518.90
696.21	514.17
696.55	510.76
696.88	507.67
697.22	504.45
697.56	501.45
697.89	497.62
698.23	494.57
698.56	491.12
698.90	487.60
699.23	483.14
699.57	479.83
699.90	476.05
700.24	471.88
700.58	469.17
700.91	466.48
701.25	464.64
701.58	462.67
701.92	460.60
702.25	457.45
702.59	454.55
702.92	451.79
703.26	449.26
703.59	445.83
703.93	444.86
704.26	442.40
704.60	439.14
704.93	436.90
705.26	433.76
705.60	431.86
705.93	428.64
706.27	427.10
706.60	425.02
706.94	423.67
707.27	420.55
707.61	418.38
707.94	415.83
708.27	412.12
708.61	408.79
708.94	405.95
709.28	403.79
709.61	401.19
709.94	399.10
710.28	396.43
710.61	394.36
710.95	389.93
711.28	389.31
711.61	387.38
711.95	385.48
712.28	383.17
712.61	380.60
712.95	379.76
713.28	378.29
713.61	375.98
713.95	372.95
714.28	371.43
714.61	369.26
714.95	367.40
715.28	365.19
715.61	363.24
715.95	361.45
716.28	359.33
716.61	358.02
716.95	355.90
717.28	354.40
717.61	352.50
717.94	350.57
718.28	347.17
718.61	345.12
718.94	342.95
719.27	341.45
719.61	339.95
719.94	337.95
720.27	335.45
720.60	333.57
720.94	331.83
721.27	330.17
721.60	328.52
721.93	326.81
722.27	325.76
722.60	324.52
722.93	322.93
723.26	321.60
723.59	319.90
723.93	318.88
724.26	317.64
724.59	316.69
724.92	315.67
725.25	314.90
725.59	314.00
725.92	313.33
726.25	312.24
726.58	311.14
726.91	309.64
727.24	308.93
727.57	308.14
727.91	307.24
728.24	306.50
728.57	305.50
728.90	304.83
729.23	303.29
729.56	303.26
729.89	302.26
730.22	301.14
730.55	300.10
730.89	299.12
731.22	297.74
731.55	296.62
731.88	295.67
732.21	294.40
732.54	293.02
732.87	291.93
733.20	291.07
733.53	289.98
733.86	289.26
734.19	287.74
734.52	287.02
734.85	287.45
735.18	286.43
735.51	286.14
735.84	285.38
736.17	285.33
736.50	283.64
736.83	285.07
737.16	284.26
737.49	283.74
737.82	282.60
738.15	282.33
738.48	281.38
738.81	280.76
739.14	279.71
739.47	278.88
739.80	278.24
740.13	277.45
740.46	276.64
740.79	275.45
741.12	274.67
741.45	273.62
741.78	271.90
742.11	271.69
742.44	270.67
742.77	270.17
743.10	269.12
743.43	268.10
743.75	265.29
744.08	267.45
744.41	266.57
744.74	266.05
745.07	264.95
745.40	264.64
745.73	264.69
746.06	264.12
746.39	263.98
746.71	262.88
747.04	262.14
747.37	261.45
747.70	261.31
748.03	260.98
748.36	260.76
748.68	260.05
749.01	258.74
749.34	257.93
749.67	257.36
750.00	257.29
750.33	258.31
750.65	258.02
750.98	254.79
751.31	254.50
751.64	254.10
751.97	255.12
752.29	254.74
752.62	253.33
752.95	252.88
753.28	251.98
753.60	251.57
753.93	251.88
754.26	251.48
754.59	250.50
754.91	249.93
755.24	249.19
755.57	248.62
755.90	248.14
756.22	247.67
756.55	246.88
756.88	245.98
757.20	244.31
757.53	243.29
757.86	242.83
758.19	242.62
758.51	242.31
758.84	240.71
759.17	239.90
759.49	239.81
759.82	240.52
760.15	240.55
760.47	240.21
760.80	239.21
761.13	239.38
761.45	239.14
761.78	238.76
762.11	238.31
762.43	237.95
762.76	237.79
763.08	237.88
763.41	237.86
763.74	237.31
764.06	236.90
764.39	236.76
764.71	236.45
765.04	235.81
765.37	235.02
765.69	234.55
766.02	234.48
766.34	233.88
766.67	232.71
767.00	232.79
767.32	233.60
767.65	234.60
767.97	234.02
768.30	233.90
768.62	233.86
768.95	233.69
769.27	233.57
769.60	233.43
769.92	232.57
770.25	231.90
770.57	231.88
770.90	231.74
771.22	231.40
771.55	231.26
771.87	231.17
772.20	231.19
772.52	232.69
772.85	234.93
773.17	234.69
773.50	234.55
773.82	234.05
774.15	232.79
774.47	231.17
774.80	230.86
775.12	230.50
775.45	230.12
775.77	230.17
776.09	230.07
776.42	229.90
776.74	230.57
777.07	230.24
777.39	229.88
777.72	229.38
778.04	229.36
778.36	229.12
778.69	229.00
779.01	228.98
779.33	227.31
779.66	224.71
779.98	224.60
780.31	224.40
780.63	224.86
780.95	225.36
781.28	225.38
781.60	225.05
781.92	225.10
782.25	225.00
782.57	224.74
782.89	224.36
783.22	223.98
783.54	223.29
783.86	223.62
784.19	223.43
784.51	224.24
784.83	223.74
785.16	223.74
