SpectraSuite Data File
++++++++++++++++++++++++++++++++++++
Date: Tue Apr 02 18:41:19 EDT 2013
User: group
Dark Spectrum Present: No
Reference Spectrum Present: No
Number of Sampled Component Spectra: 1
Spectrometers: USB2E7196
Integration Time (usec): 580000 (USB2E7196)
Spectra Averaged: 2 (USB2E7196)
Boxcar Smoothing: 10 (USB2E7196)
Correct for Electrical Dark: No (USB2E7196)
Strobe/Lamp Enabled: No (USB2E7196)
Correct for Detector Non-linearity: No (USB2E7196)
Correct for Stray Light: No (USB2E7196)
Number of Pixels in Processed Spectrum: 2048
>>>>>Begin Processed Spectral Data<<<<<
339.09	0.00
339.48	191.50
339.86	198.50
340.24	197.00
340.63	196.50
341.01	232.00
341.39	201.50
341.78	207.00
342.16	212.00
342.54	204.00
342.93	198.88
343.31	208.74
343.69	209.50
344.07	209.88
344.46	210.83
344.84	211.40
345.22	210.38
345.60	211.00
345.99	211.31
346.37	211.38
346.75	211.76
347.13	211.86
347.52	211.83
347.90	212.33
348.28	212.33
348.66	212.93
349.05	212.40
349.43	212.57
349.81	212.45
350.19	212.57
350.57	212.79
350.96	212.98
351.34	213.21
351.72	213.26
352.10	213.45
352.48	213.05
352.87	213.12
353.25	213.14
353.63	212.86
354.01	212.83
354.39	212.76
354.77	212.71
355.15	213.12
355.54	213.14
355.92	212.55
356.30	212.55
356.68	213.60
357.06	213.90
357.44	213.43
357.82	213.36
358.20	214.21
358.58	214.26
358.97	214.45
359.35	214.71
359.73	215.07
360.11	214.95
360.49	215.33
360.87	215.26
361.25	215.48
361.63	216.31
362.01	216.26
362.39	216.21
362.77	216.29
363.15	216.40
363.53	216.38
363.91	216.62
364.29	216.52
364.67	214.64
365.05	214.48
365.43	215.00
365.81	215.14
366.19	215.12
366.57	215.86
366.95	215.71
367.33	215.40
367.71	215.48
368.09	215.83
368.47	215.76
368.85	215.79
369.23	215.98
369.61	215.21
369.99	215.90
370.37	216.17
370.75	217.26
371.13	216.74
371.51	216.45
371.89	216.52
372.27	216.64
372.65	216.98
373.03	217.02
373.41	216.79
373.78	216.60
374.16	215.62
374.54	214.81
374.92	214.64
375.30	214.67
375.68	214.24
376.06	214.38
376.44	214.00
376.82	214.21
377.19	214.21
377.57	214.26
377.95	213.40
378.33	213.12
378.71	211.69
379.09	211.88
379.47	211.95
379.84	211.95
380.22	211.88
380.60	211.31
380.98	211.43
381.36	211.45
381.73	211.26
382.11	211.93
382.49	212.17
382.87	211.81
383.25	211.71
383.62	214.24
384.00	213.83
384.38	213.76
384.76	214.26
385.13	214.93
385.51	214.86
385.89	214.79
386.27	215.02
386.64	215.43
387.02	215.50
387.40	215.45
387.78	215.67
388.15	215.81
388.53	215.81
388.91	215.88
389.29	215.95
389.66	216.55
390.04	216.12
390.42	216.33
390.79	216.50
391.17	216.76
391.55	214.57
391.92	214.64
392.30	215.07
392.68	214.50
393.05	214.50
393.43	214.50
393.81	214.90
394.18	214.74
394.56	214.86
394.94	214.95
395.31	214.90
395.69	215.29
396.06	215.43
396.44	215.86
396.82	215.50
397.19	216.45
397.57	215.88
397.95	216.40
398.32	215.98
398.70	216.36
399.07	216.71
399.45	216.43
399.82	216.52
400.20	216.24
400.58	216.29
400.95	215.48
401.33	216.02
401.70	217.21
402.08	217.43
402.45	217.45
402.83	217.98
403.20	218.05
403.58	217.81
403.95	218.43
404.33	218.81
404.71	219.24
405.08	220.05
405.46	220.74
405.83	220.88
406.21	221.29
406.58	221.43
406.96	221.55
407.33	222.33
407.70	223.05
408.08	225.71
408.45	226.60
408.83	228.10
409.20	228.50
409.58	228.33
409.95	229.50
410.33	230.55
410.70	230.98
411.08	232.50
411.45	233.69
411.82	234.43
412.20	236.10
412.57	238.62
412.95	238.48
413.32	240.07
413.69	241.60
414.07	243.38
414.44	245.31
414.82	247.38
415.19	249.79
415.56	252.00
415.94	252.93
416.31	255.90
416.68	258.40
417.06	261.57
417.43	265.26
417.81	268.90
418.18	272.55
418.55	276.67
418.93	280.86
419.30	284.88
419.67	289.81
420.04	294.31
420.42	298.40
420.79	305.81
421.16	311.55
421.54	318.26
421.91	324.45
422.28	331.14
422.66	337.98
423.03	346.17
423.40	353.21
423.77	360.81
424.15	368.62
424.52	376.55
424.89	385.98
425.26	393.79
425.64	401.24
426.01	409.79
426.38	418.93
426.75	428.62
427.13	438.45
427.50	448.50
427.87	458.69
428.24	469.12
428.61	478.10
428.99	489.88
429.36	500.81
429.73	512.71
430.10	524.19
430.47	536.76
430.85	547.86
431.22	560.86
431.59	575.64
431.96	588.33
432.33	602.62
432.70	616.31
433.08	632.60
433.45	648.29
433.82	663.52
434.19	680.74
434.56	698.26
434.93	714.21
435.30	730.64
435.68	748.67
436.05	766.64
436.42	783.81
436.79	799.67
437.16	817.57
437.53	836.19
437.90	854.48
438.27	872.95
438.64	891.38
439.01	908.62
439.38	922.98
439.75	937.90
440.13	955.21
440.50	971.43
440.87	985.43
441.24	999.60
441.61	1015.64
441.98	1026.81
442.35	1038.74
442.72	1052.17
443.09	1064.98
443.46	1073.14
443.83	1079.21
444.20	1084.86
444.57	1091.24
444.94	1094.60
445.31	1098.10
445.68	1104.55
446.05	1105.52
446.42	1104.17
446.79	1103.48
447.16	1101.60
447.53	1100.64
447.90	1094.38
448.27	1088.31
448.64	1078.76
449.01	1072.24
449.37	1060.50
449.74	1049.57
450.11	1037.86
450.48	1022.81
450.85	1007.07
451.22	993.83
451.59	980.07
451.96	967.60
452.33	951.74
452.70	937.12
453.07	918.90
453.43	897.95
453.80	880.95
454.17	864.60
454.54	848.55
454.91	832.12
455.28	815.83
455.65	800.29
456.02	787.48
456.38	774.33
456.75	758.33
457.12	744.57
457.49	731.29
457.86	716.71
458.23	706.38
458.59	694.19
458.96	681.90
459.33	671.57
459.70	660.81
460.07	652.19
460.43	642.45
460.80	633.60
461.17	626.38
461.54	617.69
461.91	609.62
462.27	601.12
462.64	593.79
463.01	585.69
463.38	579.21
463.74	568.60
464.11	561.86
464.48	555.86
464.85	549.67
465.21	544.64
465.58	539.40
465.95	532.48
466.32	527.45
466.68	522.19
467.05	517.12
467.42	511.50
467.78	505.93
468.15	500.38
468.52	497.00
468.88	490.79
469.25	485.76
469.62	482.57
469.98	478.29
470.35	474.10
470.72	470.62
471.08	465.71
471.45	462.64
471.82	460.12
472.18	456.29
472.55	453.52
472.92	450.12
473.28	447.00
473.65	444.62
474.02	441.67
474.38	439.36
474.75	437.17
475.11	435.00
475.48	433.10
475.85	431.88
476.21	429.64
476.58	428.71
476.94	427.79
477.31	425.57
477.67	424.62
478.04	423.71
478.41	422.95
478.77	423.98
479.14	423.00
479.50	422.10
479.87	421.88
480.23	421.24
480.60	420.69
480.96	420.69
481.33	421.19
481.69	421.14
482.06	421.24
482.42	421.36
482.79	421.88
483.15	422.43
483.52	422.93
483.88	423.40
484.25	423.95
484.61	424.69
484.98	425.71
485.34	427.38
485.71	429.12
486.07	430.36
486.44	430.29
486.80	431.62
487.17	432.93
487.53	435.71
487.90	438.14
488.26	441.26
488.62	444.36
488.99	446.19
489.35	448.90
489.72	452.00
490.08	455.24
490.44	457.62
490.81	460.76
491.17	463.86
491.54	467.60
491.90	471.62
492.26	475.02
492.63	479.00
492.99	482.38
493.36	486.74
493.72	491.50
494.08	495.67
494.45	500.93
494.81	506.07
495.17	510.07
495.54	515.71
495.90	520.29
496.26	525.12
496.63	530.64
496.99	536.31
497.35	541.69
497.72	547.43
498.08	553.81
498.44	560.29
498.80	566.93
499.17	573.24
499.53	579.40
499.89	586.36
500.26	593.38
500.62	600.38
500.98	607.79
501.34	614.36
501.71	622.02
502.07	629.02
502.43	636.43
502.79	643.88
503.16	650.55
503.52	657.74
503.88	665.00
504.24	672.67
504.60	680.45
504.97	688.57
505.33	696.31
505.69	705.31
506.05	712.76
506.41	720.14
506.78	727.98
507.14	736.19
507.50	744.33
507.86	752.60
508.22	760.69
508.59	767.90
508.95	776.33
509.31	785.12
509.67	792.98
510.03	800.57
510.39	808.64
510.75	816.81
511.12	824.93
511.48	832.86
511.84	840.36
512.20	848.48
512.56	856.00
512.92	864.02
513.28	871.52
513.64	879.88
514.00	888.79
514.37	896.33
514.73	904.21
515.09	912.26
515.45	919.43
515.81	926.14
516.17	933.19
516.53	939.76
516.89	945.67
517.25	952.86
517.61	960.38
517.97	967.07
518.33	973.98
518.69	981.07
519.05	987.67
519.41	994.76
519.77	1001.52
520.13	1008.00
520.49	1013.62
520.85	1019.05
521.21	1025.71
521.57	1031.24
521.93	1037.00
522.29	1042.52
522.65	1047.52
523.01	1053.26
523.37	1059.29
523.73	1065.50
524.09	1071.64
524.45	1076.90
524.81	1081.88
525.17	1087.50
525.53	1092.45
525.89	1097.52
526.25	1102.19
526.61	1107.05
526.97	1111.48
527.33	1115.98
527.68	1121.90
528.04	1127.29
528.40	1131.95
528.76	1135.90
529.12	1140.07
529.48	1145.07
529.84	1149.60
530.20	1155.19
530.56	1160.36
530.91	1165.45
531.27	1169.52
531.63	1174.24
531.99	1178.71
532.35	1183.36
532.71	1186.83
533.07	1191.60
533.42	1197.45
533.78	1202.05
534.14	1206.67
534.50	1211.33
534.86	1216.71
535.21	1219.76
535.57	1224.81
535.93	1228.95
536.29	1234.07
536.65	1238.50
537.00	1242.76
537.36	1246.93
537.72	1249.98
538.08	1253.48
538.44	1256.48
538.79	1260.83
539.15	1263.21
539.51	1267.55
539.87	1271.05
540.22	1274.83
540.58	1278.90
540.94	1281.48
541.29	1285.02
541.65	1288.02
542.01	1291.40
542.37	1293.90
542.72	1296.93
543.08	1298.93
543.44	1301.83
543.79	1303.57
544.15	1307.12
544.51	1310.86
544.87	1314.31
545.22	1318.05
545.58	1321.12
545.94	1325.12
546.29	1328.40
546.65	1332.29
547.01	1335.40
547.36	1339.33
547.72	1342.74
548.07	1346.31
548.43	1348.31
548.79	1350.74
549.14	1353.57
549.50	1357.38
549.86	1359.07
550.21	1362.86
550.57	1366.98
550.92	1370.45
551.28	1374.29
551.64	1377.40
551.99	1379.52
552.35	1382.69
552.70	1385.93
553.06	1389.40
553.41	1392.43
553.77	1397.10
554.13	1401.31
554.48	1405.83
554.84	1410.19
555.19	1414.60
555.55	1419.29
555.90	1424.10
556.26	1428.81
556.61	1434.45
556.97	1437.60
557.32	1442.81
557.68	1446.81
558.03	1450.60
558.39	1455.57
558.74	1460.31
559.10	1465.05
559.45	1470.07
559.81	1475.00
560.16	1479.43
560.52	1484.64
560.87	1490.14
561.23	1493.55
561.58	1499.57
561.94	1503.62
562.29	1507.83
562.64	1512.88
563.00	1516.60
563.35	1522.10
563.71	1527.43
564.06	1531.74
564.42	1538.00
564.77	1544.21
565.12	1550.83
565.48	1558.17
565.83	1564.00
566.19	1569.79
566.54	1575.76
566.89	1582.38
567.25	1588.57
567.60	1595.67
567.96	1602.79
568.31	1608.74
568.66	1614.98
569.02	1619.02
569.37	1624.07
569.72	1629.48
570.08	1634.07
570.43	1639.60
570.78	1643.71
571.14	1649.57
571.49	1654.55
571.84	1659.14
572.20	1663.31
572.55	1668.57
572.90	1671.10
573.26	1674.74
573.61	1678.60
573.96	1682.67
574.31	1686.45
574.67	1689.19
575.02	1692.64
575.37	1694.38
575.72	1696.69
576.08	1700.60
576.43	1704.64
576.78	1707.86
577.13	1710.38
577.49	1714.31
577.84	1718.00
578.19	1723.31
578.54	1726.60
578.90	1731.00
579.25	1733.50
579.60	1736.67
579.95	1737.50
580.30	1741.45
580.66	1745.62
581.01	1748.62
581.36	1749.67
581.71	1751.55
582.06	1756.31
582.42	1759.21
582.77	1762.05
583.12	1764.57
583.47	1766.29
583.82	1768.33
584.17	1770.81
584.53	1774.52
584.88	1776.19
585.23	1778.19
585.58	1778.45
585.93	1779.21
586.28	1780.62
586.63	1784.38
586.98	1786.45
587.34	1789.67
587.69	1790.76
588.04	1791.26
588.39	1792.67
588.74	1794.45
589.09	1796.17
589.44	1795.57
589.79	1796.26
590.14	1797.21
590.49	1798.38
590.84	1799.14
591.19	1800.24
591.54	1801.79
591.89	1801.17
592.25	1803.52
592.60	1804.05
592.95	1805.21
593.30	1806.67
593.65	1807.02
594.00	1805.57
594.35	1810.98
594.70	1809.71
595.05	1809.57
595.40	1810.24
595.75	1810.33
596.10	1811.07
596.45	1811.43
596.80	1811.95
597.15	1811.52
597.50	1811.48
597.85	1812.05
598.19	1811.69
598.54	1811.00
598.89	1810.26
599.24	1811.10
599.59	1809.17
599.94	1807.21
600.29	1806.48
600.64	1806.02
600.99	1804.98
601.34	1805.00
601.69	1798.57
602.04	1797.29
602.39	1796.31
602.74	1795.31
603.08	1793.83
603.43	1793.76
603.78	1791.90
604.13	1790.38
604.48	1788.36
604.83	1787.43
605.18	1785.50
605.53	1784.24
605.87	1781.86
606.22	1779.52
606.57	1777.93
606.92	1775.69
607.27	1774.33
607.62	1773.00
607.96	1770.74
608.31	1768.79
608.66	1766.69
609.01	1764.02
609.36	1762.67
609.70	1760.71
610.05	1757.50
610.40	1754.81
610.75	1750.50
611.10	1748.62
611.44	1745.02
611.79	1742.00
612.14	1737.76
612.49	1733.81
612.83	1729.62
613.18	1726.40
613.53	1722.95
613.88	1717.74
614.22	1713.71
614.57	1709.12
614.92	1703.50
615.27	1698.33
615.61	1692.69
615.96	1687.02
616.31	1682.55
616.65	1678.67
617.00	1674.48
617.35	1670.07
617.70	1666.00
618.04	1661.45
618.39	1655.52
618.74	1651.40
619.08	1645.81
619.43	1641.02
619.78	1636.93
620.12	1633.17
620.47	1629.02
620.82	1623.88
621.16	1619.24
621.51	1614.74
621.85	1609.86
622.20	1605.17
622.55	1599.10
622.89	1595.21
623.24	1590.98
623.59	1586.29
623.93	1581.00
624.28	1575.83
624.62	1573.38
624.97	1568.88
625.32	1564.36
625.66	1560.79
626.01	1555.10
626.35	1551.19
626.70	1547.05
627.04	1543.17
627.39	1537.52
627.73	1533.55
628.08	1529.62
628.43	1524.64
628.77	1520.24
629.12	1516.74
629.46	1511.93
629.81	1508.02
630.15	1502.31
630.50	1497.24
630.84	1491.81
631.19	1486.00
631.53	1479.93
631.88	1471.24
632.22	1464.88
632.57	1460.29
632.91	1453.43
633.26	1448.86
633.60	1443.24
633.95	1436.83
634.29	1430.52
634.64	1425.45
634.98	1418.71
635.32	1413.57
635.67	1409.40
636.01	1403.93
636.36	1397.07
636.70	1391.64
637.05	1386.76
637.39	1381.69
637.73	1376.83
638.08	1372.67
638.42	1367.67
638.77	1362.88
639.11	1358.17
639.45	1353.14
639.80	1346.62
640.14	1341.10
640.49	1335.02
640.83	1328.95
641.17	1323.40
641.52	1316.74
641.86	1310.45
642.20	1305.67
642.55	1298.10
642.89	1290.95
643.23	1283.86
643.58	1278.62
643.92	1271.55
644.26	1264.50
644.61	1258.19
644.95	1250.93
645.29	1243.12
645.64	1236.93
645.98	1229.95
646.32	1223.71
646.66	1215.76
647.01	1209.10
647.35	1203.26
647.69	1196.50
648.04	1190.86
648.38	1184.79
648.72	1179.07
649.06	1172.60
649.41	1164.50
649.75	1158.12
650.09	1151.43
650.43	1143.83
650.78	1136.50
651.12	1130.31
651.46	1123.88
651.80	1117.33
652.14	1111.02
652.49	1105.33
652.83	1098.57
653.17	1091.19
653.51	1083.90
653.85	1078.19
654.20	1071.26
654.54	1063.62
654.88	1056.79
655.22	1050.57
655.56	1042.52
655.90	1035.52
656.25	1028.88
656.59	1023.19
656.93	1017.43
657.27	1012.43
657.61	1006.79
657.95	1001.07
658.29	995.40
658.64	989.71
658.98	983.02
659.32	976.57
659.66	969.98
660.00	962.86
660.34	956.79
660.68	950.93
661.02	944.33
661.36	938.38
661.70	933.12
662.05	927.17
662.39	921.07
662.73	917.14
663.07	912.43
663.41	906.62
663.75	900.05
664.09	893.60
664.43	886.48
664.77	880.48
665.11	874.29
665.45	868.52
665.79	862.74
666.13	856.48
666.47	850.88
666.81	845.10
667.15	839.98
667.49	835.24
667.83	831.14
668.17	825.71
668.51	820.48
668.85	814.71
669.19	810.48
669.53	804.33
669.87	797.76
670.21	791.38
670.55	785.83
670.89	781.83
671.23	777.14
671.57	772.00
671.91	767.52
672.25	762.98
672.58	758.33
672.92	752.76
673.26	748.48
673.60	743.33
673.94	738.86
674.28	734.31
674.62	729.57
674.96	724.10
675.30	720.02
675.64	715.83
675.97	711.48
676.31	706.29
676.65	701.76
676.99	698.64
677.33	694.05
677.67	689.76
678.01	684.14
678.34	679.79
678.68	675.95
679.02	671.90
679.36	667.00
679.70	662.00
680.04	657.67
680.37	653.50
680.71	649.02
681.05	644.60
681.39	640.36
681.73	635.93
682.06	631.07
682.40	626.62
682.74	621.74
683.08	617.88
683.42	612.93
683.75	608.86
684.09	603.38
684.43	598.95
684.77	594.64
685.10	590.93
685.44	586.71
685.78	582.10
686.12	577.31
686.45	573.14
686.79	568.81
687.13	564.90
687.46	560.57
687.80	557.33
688.14	553.12
688.48	549.26
688.81	545.21
689.15	541.93
689.49	537.83
689.82	534.38
690.16	529.62
690.50	525.69
690.83	521.86
691.17	518.14
691.51	514.62
691.84	510.93
692.18	506.98
692.52	503.05
692.85	500.10
693.19	497.50
693.52	494.05
693.86	490.26
694.20	486.71
694.53	483.71
694.87	479.83
695.21	476.26
695.54	472.55
695.88	469.07
696.21	464.93
696.55	462.07
696.88	458.62
697.22	455.74
697.56	453.33
697.89	449.76
698.23	446.79
698.56	443.79
698.90	441.14
699.23	438.00
699.57	435.33
699.90	431.83
700.24	428.38
700.58	425.62
700.91	423.71
701.25	422.83
701.58	420.81
701.92	418.74
702.25	416.55
702.59	414.07
702.92	411.88
703.26	409.67
703.59	406.90
703.93	405.90
704.26	404.02
704.60	401.71
704.93	399.40
705.26	397.12
705.60	395.40
705.93	392.60
706.27	391.26
706.60	389.52
706.94	388.21
707.27	385.98
707.61	384.05
707.94	381.71
708.27	377.90
708.61	375.00
708.94	372.29
709.28	370.24
709.61	367.83
709.94	365.79
710.28	364.17
710.61	362.24
710.95	358.81
711.28	358.12
711.61	356.29
711.95	355.12
712.28	353.36
712.61	350.98
712.95	350.48
713.28	349.33
713.61	347.05
713.95	344.71
714.28	343.00
714.61	341.17
714.95	339.24
715.28	337.64
715.61	336.14
715.95	335.24
716.28	333.57
716.61	333.10
716.95	331.12
717.28	329.36
717.61	327.90
717.94	326.52
718.28	323.67
718.61	322.05
718.94	320.40
719.27	318.74
719.61	317.86
719.94	316.05
720.27	313.62
720.60	312.40
720.94	311.05
721.27	310.07
721.60	309.36
721.93	308.50
722.27	308.17
722.60	307.31
722.93	305.81
723.26	304.71
723.59	302.74
723.93	302.29
724.26	301.10
724.59	300.00
724.92	299.07
725.25	298.64
725.59	297.79
725.92	297.10
726.25	296.14
726.58	295.05
726.91	294.05
727.24	293.48
727.57	292.55
727.91	291.60
728.24	291.07
728.57	289.86
728.90	289.21
729.23	287.55
729.56	287.36
729.89	286.40
730.22	285.57
730.55	284.52
730.89	283.76
731.22	283.02
731.55	282.21
731.88	281.62
732.21	280.33
732.54	279.52
732.87	278.48
733.20	277.88
733.53	277.19
733.86	276.57
734.19	275.45
734.52	275.05
734.85	275.62
735.18	274.36
735.51	274.17
735.84	273.74
736.17	273.81
736.50	272.21
736.83	273.95
737.16	273.45
737.49	273.12
737.82	272.26
738.15	271.76
738.48	271.10
738.81	270.19
739.14	269.29
739.47	268.29
739.80	267.62
740.13	267.36
740.46	266.29
740.79	265.40
741.12	264.64
741.45	263.90
741.78	262.19
742.11	262.33
742.44	261.40
742.77	260.93
743.10	259.88
743.43	259.38
743.75	256.57
744.08	258.67
744.41	257.86
744.74	257.07
745.07	256.40
745.40	256.07
745.73	256.55
746.06	256.31
746.39	256.24
746.71	255.60
747.04	254.90
747.37	254.60
747.70	254.48
748.03	254.33
748.36	254.24
748.68	253.71
749.01	252.62
749.34	252.07
749.67	251.55
750.00	251.40
750.33	252.45
750.65	252.36
750.98	249.29
751.31	249.14
751.64	249.05
751.97	249.88
752.29	249.40
752.62	248.10
752.95	247.52
753.28	247.00
753.60	246.57
753.93	246.76
754.26	246.52
754.59	245.38
754.91	244.93
755.24	244.17
755.57	243.64
755.90	243.17
756.22	242.71
756.55	241.81
756.88	241.00
757.20	239.17
757.53	238.21
757.86	237.76
758.19	237.81
758.51	237.50
758.84	236.14
759.17	236.10
759.49	236.02
759.82	236.55
760.15	236.19
760.47	235.71
760.80	234.64
761.13	234.69
761.45	234.71
761.78	234.33
762.11	234.05
762.43	233.93
762.76	233.69
763.08	233.64
763.41	233.81
763.74	233.62
764.06	233.79
764.39	233.69
764.71	233.33
765.04	232.88
765.37	232.26
765.69	231.74
766.02	231.02
766.34	230.57
766.67	229.76
767.00	229.98
767.32	231.19
767.65	232.19
767.97	231.62
768.30	231.36
768.62	231.31
768.95	231.05
769.27	230.76
769.60	230.88
769.92	230.69
770.25	229.90
770.57	229.55
770.90	228.81
771.22	228.48
771.55	228.79
771.87	228.71
772.20	228.79
772.52	230.57
772.85	233.21
773.17	232.95
773.50	232.62
773.82	232.12
774.15	230.62
774.47	229.45
774.80	229.33
775.12	229.10
775.45	228.55
775.77	228.40
776.09	228.52
776.42	228.29
776.74	228.55
777.07	228.29
777.39	228.43
777.72	228.24
778.04	228.26
778.36	227.67
778.69	227.36
779.01	227.52
779.33	225.60
779.66	222.95
779.98	222.74
780.31	222.79
780.63	223.38
780.95	223.95
781.28	223.69
781.60	223.31
781.92	223.26
782.25	223.40
782.57	223.29
782.89	222.74
783.22	222.38
783.54	221.79
783.86	222.10
784.19	221.69
784.51	222.26
784.83	221.93
785.16	221.86
