SpectraSuite Data File
++++++++++++++++++++++++++++++++++++
Date: Tue Apr 02 18:42:08 EDT 2013
User: group
Dark Spectrum Present: No
Reference Spectrum Present: No
Number of Sampled Component Spectra: 1
Spectrometers: USB2E7196
Integration Time (usec): 580000 (USB2E7196)
Spectra Averaged: 2 (USB2E7196)
Boxcar Smoothing: 10 (USB2E7196)
Correct for Electrical Dark: No (USB2E7196)
Strobe/Lamp Enabled: No (USB2E7196)
Correct for Detector Non-linearity: No (USB2E7196)
Correct for Stray Light: No (USB2E7196)
Number of Pixels in Processed Spectrum: 2048
>>>>>Begin Processed Spectral Data<<<<<
339.09	0.00
339.48	196.00
339.86	197.00
340.24	196.50
340.63	197.50
341.01	235.00
341.39	206.50
341.78	205.00
342.16	211.00
342.54	205.50
342.93	198.95
343.31	208.74
343.69	209.45
344.07	210.05
344.46	210.88
344.84	211.74
345.22	210.45
345.60	210.74
345.99	211.14
346.37	211.12
346.75	211.40
347.13	211.45
347.52	211.52
347.90	212.38
348.28	212.64
348.66	212.90
349.05	212.29
349.43	212.62
349.81	212.81
350.19	213.12
350.57	213.36
350.96	213.90
351.34	214.31
351.72	214.36
352.10	214.52
352.48	214.33
352.87	214.00
353.25	214.21
353.63	214.26
354.01	214.24
354.39	214.43
354.77	214.26
355.15	214.71
355.54	214.50
355.92	213.98
356.30	213.93
356.68	215.29
357.06	215.31
357.44	214.83
357.82	214.62
358.20	215.50
358.58	215.14
358.97	215.21
359.35	215.43
359.73	215.71
360.11	215.52
360.49	215.40
360.87	215.31
361.25	215.48
361.63	215.86
362.01	215.79
362.39	215.38
362.77	215.67
363.15	215.45
363.53	215.26
363.91	215.21
364.29	214.98
364.67	212.74
365.05	212.86
365.43	213.12
365.81	213.57
366.19	213.55
366.57	214.33
366.95	214.05
367.33	213.62
367.71	213.60
368.09	213.88
368.47	214.10
368.85	214.07
369.23	214.43
369.61	213.81
369.99	214.43
370.37	214.90
370.75	215.86
371.13	215.48
371.51	215.19
371.89	215.50
372.27	215.74
372.65	216.14
373.03	216.33
373.41	215.98
373.78	215.60
374.16	214.67
374.54	214.07
374.92	213.79
375.30	213.88
375.68	213.19
376.06	213.26
376.44	212.93
376.82	213.19
377.19	213.05
377.57	212.86
377.95	212.12
378.33	211.98
378.71	210.74
379.09	211.14
379.47	211.52
379.84	211.19
380.22	211.21
380.60	210.86
380.98	210.62
381.36	210.90
381.73	210.86
382.11	211.38
382.49	211.60
382.87	211.57
383.25	211.69
383.62	214.57
384.00	214.02
384.38	214.31
384.76	214.81
385.13	215.45
385.51	215.76
385.89	215.57
386.27	215.40
386.64	215.74
387.02	215.48
387.40	215.45
387.78	215.86
388.15	215.67
388.53	215.69
388.91	215.79
389.29	215.57
389.66	215.60
390.04	215.26
390.42	215.52
390.79	215.52
391.17	215.33
391.55	212.71
391.92	213.05
392.30	213.31
392.68	212.69
393.05	212.67
393.43	212.64
393.81	212.93
394.18	212.90
394.56	212.95
394.94	213.45
395.31	213.55
395.69	213.93
396.06	214.40
396.44	214.71
396.82	214.40
397.19	215.57
397.57	215.71
397.95	215.95
398.32	215.43
398.70	215.86
399.07	216.29
399.45	216.38
399.82	216.33
400.20	215.93
400.58	216.10
400.95	215.14
401.33	215.83
401.70	217.19
402.08	217.36
402.45	217.31
402.83	217.57
403.20	217.40
403.58	217.14
403.95	217.52
404.33	217.81
404.71	218.14
405.08	219.26
405.46	219.57
405.83	219.86
406.21	220.12
406.58	220.69
406.96	221.14
407.33	221.69
407.70	222.19
408.08	224.50
408.45	225.38
408.83	226.45
409.20	226.71
409.58	226.50
409.95	227.57
410.33	228.74
410.70	229.24
411.08	230.64
411.45	231.67
411.82	232.29
412.20	234.00
412.57	236.43
412.95	236.05
413.32	237.76
413.69	239.24
414.07	240.93
414.44	242.52
414.82	244.29
415.19	246.90
415.56	249.40
415.94	250.69
416.31	253.52
416.68	256.57
417.06	260.00
417.43	263.40
417.81	266.88
418.18	270.50
418.55	274.26
418.93	278.62
419.30	282.76
419.67	287.43
420.04	291.69
420.42	296.10
420.79	303.50
421.16	308.93
421.54	315.88
421.91	322.33
422.28	328.67
422.66	335.71
423.03	343.71
423.40	350.83
423.77	358.43
424.15	365.14
424.52	372.62
424.89	380.83
425.26	388.48
425.64	396.36
426.01	404.69
426.38	413.29
426.75	422.71
427.13	432.45
427.50	442.62
427.87	452.71
428.24	462.83
428.61	471.14
428.99	482.79
429.36	493.48
429.73	505.05
430.10	516.48
430.47	528.24
430.85	538.71
431.22	551.40
431.59	565.62
431.96	579.26
432.33	593.40
432.70	607.38
433.08	623.74
433.45	639.74
433.82	655.45
434.19	673.17
434.56	689.88
434.93	706.19
435.30	721.52
435.68	739.67
436.05	757.21
436.42	774.48
436.79	789.90
437.16	806.98
437.53	825.29
437.90	843.33
438.27	861.31
438.64	880.17
439.01	897.33
439.38	911.48
439.75	925.83
440.13	942.93
440.50	958.67
440.87	972.21
441.24	985.31
441.61	1000.36
441.98	1011.50
442.35	1024.14
442.72	1036.79
443.09	1050.88
443.46	1059.00
443.83	1064.57
444.20	1069.12
444.57	1076.36
444.94	1079.76
445.31	1083.55
445.68	1089.76
446.05	1090.98
446.42	1089.17
446.79	1088.79
447.16	1087.10
447.53	1086.48
447.90	1080.45
448.27	1073.81
448.64	1064.67
449.01	1058.24
449.37	1046.64
449.74	1035.33
450.11	1023.55
450.48	1008.40
450.85	992.00
451.22	978.62
451.59	966.52
451.96	954.98
452.33	938.57
452.70	924.90
453.07	907.43
453.43	887.38
453.80	870.93
454.17	855.14
454.54	838.64
454.91	822.40
455.28	806.81
455.65	791.90
456.02	780.98
456.38	768.05
456.75	752.07
457.12	738.69
457.49	725.52
457.86	711.19
458.23	701.33
458.59	689.81
458.96	677.74
459.33	666.24
459.70	655.31
460.07	646.93
460.43	636.33
460.80	626.83
461.17	619.38
461.54	610.93
461.91	602.79
462.27	594.19
462.64	587.02
463.01	578.74
463.38	571.95
463.74	560.48
464.11	553.71
464.48	548.36
464.85	541.76
465.21	537.40
465.58	532.21
465.95	525.43
466.32	520.14
466.68	514.76
467.05	510.10
467.42	505.36
467.78	499.71
468.15	495.26
468.52	491.81
468.88	485.86
469.25	480.81
469.62	477.57
469.98	474.17
470.35	470.24
470.72	466.67
471.08	461.38
471.45	459.10
471.82	456.45
472.18	452.86
472.55	450.43
472.92	446.71
473.28	443.93
473.65	441.12
474.02	438.52
474.38	437.14
474.75	434.86
475.11	432.45
475.48	431.24
475.85	429.57
476.21	427.45
476.58	426.00
476.94	425.10
477.31	423.24
477.67	421.88
478.04	421.05
478.41	420.48
478.77	422.40
479.14	420.79
479.50	419.83
479.87	419.43
480.23	418.98
480.60	418.50
480.96	417.88
481.33	418.45
481.69	418.33
482.06	417.45
482.42	417.98
482.79	418.45
483.15	418.45
483.52	419.31
483.88	419.74
484.25	420.57
484.61	421.24
484.98	422.07
485.34	423.40
485.71	425.02
486.07	426.26
486.44	425.64
486.80	427.81
487.17	429.26
487.53	431.69
487.90	433.74
488.26	436.79
488.62	439.64
488.99	441.36
489.35	444.29
489.72	447.52
490.08	450.36
490.44	453.17
490.81	456.52
491.17	459.45
491.54	463.19
491.90	466.95
492.26	470.40
492.63	474.40
492.99	478.00
493.36	482.07
493.72	486.26
494.08	490.19
494.45	495.02
494.81	500.10
495.17	504.52
495.54	510.19
495.90	514.62
496.26	519.79
496.63	525.29
496.99	530.69
497.35	536.24
497.72	541.83
498.08	547.67
498.44	553.93
498.80	560.26
499.17	566.88
499.53	573.00
499.89	580.57
500.26	587.07
500.62	593.71
500.98	600.83
501.34	608.12
501.71	615.95
502.07	622.55
502.43	629.76
502.79	636.90
503.16	643.71
503.52	651.52
503.88	658.40
504.24	666.43
504.60	673.76
504.97	681.29
505.33	689.00
505.69	697.88
506.05	705.36
506.41	712.64
506.78	719.64
507.14	727.38
507.50	735.05
507.86	743.17
508.22	751.60
508.59	758.74
508.95	766.79
509.31	775.48
509.67	782.90
510.03	790.71
510.39	798.55
510.75	806.40
511.12	813.95
511.48	821.93
511.84	829.31
512.20	837.50
512.56	845.76
512.92	853.93
513.28	860.79
513.64	867.83
514.00	875.62
514.37	884.07
514.73	891.95
515.09	898.76
515.45	905.79
515.81	913.02
516.17	920.07
516.53	925.79
516.89	931.33
517.25	938.93
517.61	946.40
517.97	952.17
518.33	958.21
518.69	964.90
519.05	971.67
519.41	977.83
519.77	984.79
520.13	989.81
520.49	995.52
520.85	1001.43
521.21	1008.81
521.57	1014.62
521.93	1019.21
522.29	1025.05
522.65	1030.38
523.01	1035.93
523.37	1040.86
523.73	1045.86
524.09	1051.36
524.45	1056.76
524.81	1061.33
525.17	1066.45
525.53	1071.69
525.89	1076.74
526.25	1082.24
526.61	1086.60
526.97	1091.10
527.33	1095.14
527.68	1102.31
528.04	1107.02
528.40	1110.93
528.76	1114.02
529.12	1118.43
529.48	1123.36
529.84	1127.83
530.20	1132.76
530.56	1137.50
530.91	1142.19
531.27	1146.83
531.63	1151.74
531.99	1155.45
532.35	1159.40
532.71	1163.12
533.07	1168.26
533.42	1175.38
533.78	1178.95
534.14	1183.45
534.50	1188.17
534.86	1193.05
535.21	1194.86
535.57	1199.55
535.93	1203.90
536.29	1209.45
536.65	1213.69
537.00	1217.12
537.36	1220.57
537.72	1223.83
538.08	1227.69
538.44	1230.64
538.79	1234.76
539.15	1237.83
539.51	1242.00
539.87	1246.21
540.22	1249.43
540.58	1252.74
540.94	1253.33
541.29	1256.48
541.65	1259.14
542.01	1262.19
542.37	1264.90
542.72	1267.95
543.08	1269.93
543.44	1272.62
543.79	1274.21
544.15	1277.69
544.51	1282.83
544.87	1285.71
545.22	1288.90
545.58	1291.81
545.94	1294.81
546.29	1297.50
546.65	1300.60
547.01	1303.10
547.36	1306.05
547.72	1309.21
548.07	1312.74
548.43	1316.26
548.79	1318.50
549.14	1321.40
549.50	1324.95
549.86	1326.14
550.21	1328.86
550.57	1332.21
550.92	1334.95
551.28	1338.10
551.64	1340.71
551.99	1342.74
552.35	1345.67
552.70	1349.02
553.06	1352.14
553.41	1355.98
553.77	1360.26
554.13	1364.10
554.48	1368.43
554.84	1373.00
555.19	1376.69
555.55	1382.38
555.90	1385.24
556.26	1389.36
556.61	1393.19
556.97	1396.17
557.32	1400.55
557.68	1405.24
558.03	1409.29
558.39	1414.02
558.74	1418.14
559.10	1422.05
559.45	1426.55
559.81	1431.24
560.16	1434.88
560.52	1439.45
560.87	1444.24
561.23	1447.83
561.58	1454.33
561.94	1458.93
562.29	1462.12
562.64	1466.69
563.00	1468.71
563.35	1474.07
563.71	1479.88
564.06	1485.55
564.42	1491.12
564.77	1497.79
565.12	1504.10
565.48	1510.74
565.83	1516.83
566.19	1522.86
566.54	1528.26
566.89	1533.36
567.25	1539.98
567.60	1548.14
567.96	1555.10
568.31	1561.57
568.66	1567.69
569.02	1570.83
569.37	1575.74
569.72	1581.43
570.08	1586.76
570.43	1592.38
570.78	1597.88
571.14	1602.81
571.49	1607.64
571.84	1613.45
572.20	1617.31
572.55	1621.14
572.90	1624.57
573.26	1628.33
573.61	1632.95
573.96	1638.21
574.31	1642.02
574.67	1644.64
575.02	1647.07
575.37	1648.90
575.72	1651.21
576.08	1655.19
576.43	1659.10
576.78	1662.76
577.13	1666.67
577.49	1670.19
577.84	1674.10
578.19	1677.57
578.54	1680.86
578.90	1685.31
579.25	1687.55
579.60	1691.57
579.95	1694.79
580.30	1698.00
580.66	1702.95
581.01	1705.69
581.36	1708.55
581.71	1711.88
582.06	1717.38
582.42	1720.98
582.77	1723.98
583.12	1726.86
583.47	1729.67
583.82	1733.17
584.17	1736.33
584.53	1739.43
584.88	1741.90
585.23	1744.71
585.58	1747.48
585.93	1749.83
586.28	1751.05
586.63	1754.07
586.98	1755.67
587.34	1758.24
587.69	1760.10
588.04	1761.45
588.39	1764.05
588.74	1764.00
589.09	1766.07
589.44	1765.00
589.79	1767.12
590.14	1768.71
590.49	1769.29
590.84	1769.00
591.19	1770.98
591.54	1771.76
591.89	1771.93
592.25	1775.43
592.60	1775.19
592.95	1774.81
593.30	1775.98
593.65	1776.83
594.00	1776.62
594.35	1782.98
594.70	1781.69
595.05	1782.07
595.40	1781.52
595.75	1781.38
596.10	1783.10
596.45	1782.79
596.80	1784.40
597.15	1783.95
597.50	1783.98
597.85	1786.07
598.19	1786.52
598.54	1785.40
598.89	1785.52
599.24	1786.86
599.59	1783.60
599.94	1783.79
600.29	1784.00
600.64	1783.40
600.99	1783.10
601.34	1783.93
601.69	1777.93
602.04	1778.48
602.39	1777.31
602.74	1777.38
603.08	1776.36
603.43	1776.88
603.78	1776.86
604.13	1776.07
604.48	1775.40
604.83	1775.81
605.18	1774.45
605.53	1774.40
605.87	1773.21
606.22	1771.40
606.57	1768.38
606.92	1768.00
607.27	1766.74
607.62	1766.05
607.96	1765.21
608.31	1764.33
608.66	1762.02
609.01	1760.14
609.36	1759.14
609.70	1757.07
610.05	1754.60
610.40	1752.67
610.75	1748.76
611.10	1745.88
611.44	1742.50
611.79	1739.05
612.14	1735.86
612.49	1731.48
612.83	1727.93
613.18	1724.52
613.53	1721.57
613.88	1717.52
614.22	1713.48
614.57	1709.45
614.92	1704.64
615.27	1700.45
615.61	1696.21
615.96	1691.69
616.31	1688.02
616.65	1685.33
617.00	1682.40
617.35	1678.17
617.70	1673.48
618.04	1669.24
618.39	1664.12
618.74	1660.05
619.08	1654.55
619.43	1650.05
619.78	1646.48
620.12	1643.31
620.47	1639.38
620.82	1634.95
621.16	1631.12
621.51	1628.07
621.85	1623.19
622.20	1619.02
622.55	1613.55
622.89	1609.17
623.24	1605.74
623.59	1601.17
623.93	1595.02
624.28	1590.55
624.62	1587.57
624.97	1584.33
625.32	1580.93
625.66	1577.19
626.01	1572.40
626.35	1569.64
626.70	1565.83
627.04	1562.74
627.39	1557.90
627.73	1553.90
628.08	1550.52
628.43	1546.60
628.77	1541.38
629.12	1537.98
629.46	1533.64
629.81	1530.14
630.15	1524.95
630.50	1519.55
630.84	1514.33
631.19	1509.17
631.53	1503.86
631.88	1496.52
632.22	1489.93
632.57	1484.48
632.91	1479.14
633.26	1475.07
633.60	1469.21
633.95	1463.26
634.29	1456.69
634.64	1451.43
634.98	1445.74
635.32	1441.19
635.67	1437.19
636.01	1432.38
636.36	1426.81
636.70	1423.14
637.05	1418.10
637.39	1413.33
637.73	1408.76
638.08	1404.74
638.42	1399.93
638.77	1395.81
639.11	1391.55
639.45	1386.43
639.80	1380.52
640.14	1375.60
640.49	1369.50
640.83	1363.81
641.17	1359.12
641.52	1353.50
641.86	1347.81
642.20	1343.52
642.55	1335.83
642.89	1329.31
643.23	1323.10
643.58	1317.52
643.92	1309.90
644.26	1303.43
644.61	1297.60
644.95	1290.90
645.29	1284.05
645.64	1278.48
645.98	1271.71
646.32	1265.45
646.66	1259.60
647.01	1252.95
647.35	1247.36
647.69	1241.90
648.04	1236.26
648.38	1229.29
648.72	1223.29
649.06	1217.57
649.41	1209.76
649.75	1203.88
650.09	1197.02
650.43	1190.14
650.78	1183.14
651.12	1177.10
651.46	1170.05
651.80	1163.12
652.14	1156.67
652.49	1150.31
652.83	1143.05
653.17	1136.29
653.51	1129.79
653.85	1123.31
654.20	1117.17
654.54	1109.29
654.88	1101.31
655.22	1095.12
655.56	1088.12
655.90	1081.26
656.25	1073.57
656.59	1067.02
656.93	1060.52
657.27	1055.40
657.61	1049.36
657.95	1043.43
658.29	1036.50
658.64	1030.93
658.98	1024.26
659.32	1017.74
659.66	1011.21
660.00	1005.19
660.34	998.45
660.68	991.98
661.02	985.48
661.36	979.79
661.70	974.57
662.05	969.00
662.39	962.95
662.73	957.95
663.07	953.52
663.41	948.00
663.75	941.69
664.09	935.95
664.43	929.57
664.77	923.83
665.11	917.43
665.45	911.86
665.79	906.12
666.13	900.76
666.47	895.45
666.81	890.05
667.15	883.93
667.49	879.07
667.83	874.69
668.17	869.24
668.51	863.81
668.85	858.14
669.19	853.43
669.53	847.76
669.87	841.17
670.21	834.79
670.55	828.79
670.89	824.67
671.23	819.60
671.57	814.02
671.91	808.29
672.25	803.19
672.58	799.38
672.92	793.69
673.26	788.45
673.60	782.98
673.94	777.83
674.28	773.26
674.62	768.50
674.96	763.02
675.30	758.55
675.64	753.64
675.97	749.29
676.31	743.57
676.65	738.38
676.99	735.14
677.33	730.40
677.67	725.98
678.01	720.86
678.34	716.26
678.68	711.38
679.02	707.02
679.36	702.52
679.70	696.83
680.04	692.10
680.37	687.26
680.71	682.69
681.05	678.79
681.39	674.05
681.73	669.17
682.06	664.24
682.40	660.12
682.74	655.71
683.08	651.57
683.42	646.95
683.75	642.69
684.09	637.50
684.43	632.76
684.77	628.24
685.10	623.69
685.44	619.17
685.78	615.02
686.12	610.43
686.45	605.79
686.79	601.36
687.13	597.45
687.46	593.17
687.80	590.10
688.14	585.48
688.48	581.55
688.81	577.67
689.15	574.00
689.49	569.64
689.82	565.67
690.16	560.57
690.50	557.00
690.83	552.74
691.17	548.00
691.51	544.33
691.84	541.17
692.18	537.07
692.52	533.02
692.85	529.48
693.19	526.48
693.52	523.10
693.86	519.50
694.20	516.26
694.53	513.02
694.87	508.79
695.21	505.10
695.54	501.10
695.88	497.05
696.21	493.26
696.55	489.60
696.88	486.12
697.22	482.45
697.56	479.64
697.89	476.48
698.23	473.95
698.56	470.86
698.90	467.43
699.23	464.31
699.57	460.76
699.90	457.50
700.24	454.69
700.58	451.40
700.91	448.52
701.25	447.07
701.58	445.00
701.92	442.45
702.25	439.60
702.59	437.07
702.92	434.95
703.26	432.33
703.59	429.93
703.93	428.88
704.26	426.81
704.60	423.79
704.93	421.10
705.26	418.50
705.60	415.95
705.93	413.05
706.27	411.36
706.60	409.88
706.94	408.19
707.27	404.83
707.61	402.74
707.94	400.88
708.27	396.71
708.61	393.52
708.94	390.83
709.28	388.88
709.61	386.40
709.94	383.71
710.28	381.71
710.61	379.45
710.95	375.64
711.28	375.24
711.61	373.17
711.95	371.43
712.28	369.33
712.61	367.14
712.95	366.74
713.28	365.33
713.61	363.14
713.95	360.50
714.28	359.00
714.61	357.26
714.95	355.10
715.28	353.19
715.61	351.33
715.95	349.98
716.28	347.74
716.61	346.74
716.95	345.17
717.28	343.31
717.61	341.52
717.94	339.79
718.28	336.26
718.61	334.55
718.94	332.79
719.27	331.17
719.61	329.93
719.94	327.48
720.27	324.90
720.60	323.17
720.94	321.95
721.27	320.62
721.60	319.60
721.93	318.31
722.27	317.64
722.60	316.95
722.93	315.40
723.26	314.55
723.59	312.93
723.93	312.00
724.26	310.83
724.59	309.62
724.92	308.86
725.25	308.52
725.59	307.64
725.92	307.00
726.25	305.76
726.58	304.93
726.91	303.90
727.24	303.36
727.57	302.64
727.91	301.19
728.24	300.36
728.57	298.83
728.90	297.98
729.23	296.62
729.56	296.21
729.89	295.38
730.22	294.05
730.55	293.00
730.89	292.02
731.22	291.07
731.55	290.50
731.88	289.52
732.21	288.19
732.54	286.76
732.87	285.48
733.20	284.93
733.53	283.88
733.86	282.90
734.19	281.40
734.52	280.81
734.85	281.48
735.18	280.45
735.51	280.17
735.84	279.57
736.17	279.21
736.50	277.43
736.83	278.83
737.16	278.29
737.49	277.69
737.82	276.55
738.15	275.90
738.48	274.86
738.81	274.14
739.14	273.14
739.47	272.57
739.80	271.95
740.13	271.43
740.46	270.57
740.79	269.64
741.12	269.12
741.45	268.17
741.78	266.43
742.11	266.33
742.44	265.62
742.77	265.07
743.10	264.00
743.43	263.26
743.75	260.52
744.08	262.67
744.41	261.81
744.74	261.38
745.07	260.60
745.40	260.67
745.73	260.69
746.06	260.38
746.39	260.43
746.71	259.86
747.04	258.98
747.37	258.40
747.70	258.31
748.03	257.95
748.36	257.69
748.68	257.31
749.01	256.31
749.34	255.79
749.67	255.19
750.00	255.12
750.33	256.38
750.65	256.29
750.98	253.40
751.31	253.17
751.64	252.64
751.97	253.50
752.29	252.50
752.62	251.21
752.95	250.95
753.28	249.86
753.60	249.29
753.93	249.48
754.26	249.10
754.59	247.95
754.91	247.21
755.24	246.40
755.57	246.00
755.90	245.50
756.22	245.05
756.55	244.24
756.88	243.36
757.20	241.40
757.53	240.19
757.86	239.62
758.19	239.50
758.51	239.62
758.84	237.90
759.17	237.29
759.49	237.02
759.82	237.45
760.15	237.62
760.47	237.19
760.80	236.29
761.13	236.31
761.45	236.19
761.78	235.95
762.11	236.00
762.43	235.43
762.76	235.02
763.08	235.07
763.41	235.02
763.74	234.86
764.06	234.64
764.39	234.62
764.71	234.17
765.04	233.50
765.37	232.67
765.69	232.57
766.02	232.62
766.34	232.19
766.67	230.83
767.00	230.95
767.32	231.76
767.65	232.76
767.97	232.48
768.30	232.48
768.62	232.50
768.95	231.86
769.27	231.64
769.60	231.81
769.92	230.90
770.25	230.33
770.57	229.83
770.90	229.62
771.22	229.31
771.55	229.52
771.87	229.60
772.20	229.38
772.52	231.26
772.85	233.50
773.17	233.45
773.50	233.50
773.82	232.93
774.15	231.76
774.47	230.24
774.80	229.86
775.12	229.36
775.45	228.98
775.77	229.07
776.09	229.19
776.42	229.05
776.74	229.74
777.07	229.69
777.39	229.76
777.72	229.50
778.04	229.52
778.36	228.86
778.69	228.95
779.01	229.02
779.33	226.83
779.66	224.48
779.98	224.43
780.31	224.36
780.63	225.02
780.95	225.43
781.28	225.38
781.60	224.83
781.92	225.00
782.25	225.12
782.57	224.93
782.89	224.40
783.22	223.90
783.54	223.36
783.86	223.31
784.19	223.21
784.51	223.64
784.83	223.24
785.16	223.21
