SpectraSuite Data File
++++++++++++++++++++++++++++++++++++
Date: Tue Apr 02 18:38:50 EDT 2013
User: group
Dark Spectrum Present: No
Reference Spectrum Present: No
Number of Sampled Component Spectra: 1
Spectrometers: USB2E7196
Integration Time (usec): 580000 (USB2E7196)
Spectra Averaged: 2 (USB2E7196)
Boxcar Smoothing: 10 (USB2E7196)
Correct for Electrical Dark: No (USB2E7196)
Strobe/Lamp Enabled: No (USB2E7196)
Correct for Detector Non-linearity: No (USB2E7196)
Correct for Stray Light: No (USB2E7196)
Number of Pixels in Processed Spectrum: 2048
>>>>>Begin Processed Spectral Data<<<<<
339.09	0.00
339.48	188.50
339.86	190.50
340.24	195.00
340.63	195.50
341.01	232.00
341.39	201.00
341.78	203.00
342.16	215.50
342.54	207.00
342.93	197.60
343.31	207.33
343.69	208.02
344.07	208.69
344.46	209.55
344.84	210.31
345.22	209.02
345.60	209.55
345.99	209.74
346.37	209.45
346.75	209.50
347.13	209.98
347.52	210.12
347.90	210.88
348.28	210.74
348.66	211.33
349.05	210.64
349.43	210.74
349.81	210.88
350.19	210.93
350.57	210.90
350.96	210.93
351.34	211.40
351.72	211.76
352.10	212.07
352.48	211.81
352.87	211.76
353.25	212.05
353.63	211.90
354.01	212.12
354.39	212.26
354.77	212.31
355.15	212.50
355.54	212.52
355.92	211.83
356.30	212.05
356.68	213.24
357.06	213.57
357.44	213.31
357.82	213.29
358.20	214.19
358.58	214.31
358.97	214.62
359.35	214.81
359.73	215.10
360.11	214.98
360.49	215.19
360.87	215.10
361.25	215.24
361.63	215.98
362.01	216.14
362.39	215.88
362.77	216.02
363.15	216.05
363.53	215.98
363.91	216.19
364.29	216.07
364.67	214.10
365.05	214.21
365.43	214.62
365.81	214.71
366.19	214.90
366.57	215.50
366.95	215.45
367.33	215.05
367.71	215.02
368.09	215.64
368.47	215.69
368.85	215.79
369.23	216.21
369.61	215.60
369.99	216.07
370.37	216.57
370.75	217.69
371.13	217.43
371.51	217.26
371.89	217.43
372.27	217.50
372.65	217.79
373.03	217.67
373.41	217.62
373.78	217.62
374.16	216.50
374.54	216.12
374.92	215.98
375.30	216.24
375.68	216.02
376.06	216.00
376.44	215.88
376.82	215.93
377.19	215.95
377.57	215.88
377.95	215.36
378.33	215.10
378.71	214.05
379.09	214.38
379.47	214.69
379.84	214.36
380.22	214.45
380.60	214.12
380.98	213.81
381.36	213.71
381.73	213.43
382.11	213.93
382.49	213.83
382.87	213.60
383.25	213.36
383.62	215.62
384.00	215.36
384.38	215.52
384.76	216.10
385.13	216.64
385.51	216.64
385.89	216.52
386.27	216.76
386.64	216.79
387.02	216.64
387.40	216.36
387.78	216.31
388.15	216.17
388.53	216.12
388.91	216.38
389.29	216.21
389.66	216.69
390.04	216.52
390.42	216.95
390.79	217.36
391.17	217.67
391.55	215.36
391.92	215.12
392.30	215.21
392.68	214.50
393.05	214.33
393.43	214.50
393.81	214.60
394.18	214.40
394.56	214.69
394.94	214.98
395.31	214.69
395.69	215.43
396.06	215.76
396.44	216.14
396.82	215.79
397.19	216.86
397.57	216.50
397.95	216.88
398.32	216.26
398.70	216.21
399.07	216.62
399.45	216.79
399.82	216.83
400.20	216.71
400.58	216.90
400.95	216.33
401.33	216.83
401.70	218.40
402.08	218.45
402.45	218.33
402.83	218.93
403.20	219.55
403.58	219.33
403.95	219.71
404.33	219.76
404.71	220.48
405.08	221.88
405.46	222.10
405.83	222.21
406.21	222.79
406.58	223.19
406.96	223.48
407.33	224.00
407.70	225.02
408.08	227.24
408.45	228.24
408.83	229.31
409.20	229.74
409.58	229.38
409.95	230.67
410.33	231.76
410.70	232.21
411.08	233.60
411.45	235.07
411.82	236.40
412.20	238.57
412.57	241.21
412.95	240.95
413.32	243.07
413.69	244.69
414.07	246.64
414.44	248.86
414.82	250.95
415.19	253.74
415.56	256.21
415.94	257.81
416.31	260.83
416.68	263.86
417.06	267.45
417.43	271.36
417.81	275.31
418.18	279.57
418.55	284.12
418.93	288.36
419.30	293.21
419.67	298.17
420.04	303.33
420.42	308.17
420.79	316.40
421.16	323.17
421.54	331.02
421.91	338.31
422.28	345.50
422.66	353.00
423.03	361.86
423.40	369.93
423.77	378.07
424.15	386.86
424.52	395.74
424.89	405.52
425.26	414.55
425.64	423.36
426.01	432.79
426.38	442.57
426.75	453.52
427.13	464.26
427.50	475.67
427.87	487.05
428.24	498.95
428.61	509.05
428.99	521.67
429.36	534.19
429.73	547.62
430.10	560.90
430.47	574.33
430.85	587.45
431.22	602.14
431.59	619.57
431.96	634.17
432.33	650.52
432.70	666.60
433.08	685.40
433.45	703.52
433.82	720.98
434.19	740.95
434.56	761.31
434.93	778.62
435.30	796.86
435.68	818.12
436.05	837.90
436.42	857.76
436.79	876.10
437.16	896.00
437.53	916.12
437.90	936.81
438.27	958.48
438.64	979.36
439.01	998.57
439.38	1014.60
439.75	1032.00
440.13	1051.79
440.50	1070.64
440.87	1086.33
441.24	1101.86
441.61	1119.38
441.98	1132.29
442.35	1145.86
442.72	1161.90
443.09	1177.24
443.46	1185.74
443.83	1191.79
444.20	1196.98
444.57	1203.81
444.94	1208.43
445.31	1212.90
445.68	1219.33
446.05	1220.60
446.42	1219.21
446.79	1218.19
447.16	1216.67
447.53	1215.74
447.90	1208.24
448.27	1200.52
448.64	1189.98
449.01	1182.55
449.37	1169.88
449.74	1157.29
450.11	1143.79
450.48	1126.29
450.85	1108.24
451.22	1092.98
451.59	1079.43
451.96	1065.79
452.33	1048.38
452.70	1030.95
453.07	1010.95
453.43	988.36
453.80	969.38
454.17	950.71
454.54	932.33
454.91	912.79
455.28	893.52
455.65	875.86
456.02	861.83
456.38	846.69
456.75	828.90
457.12	812.95
457.49	797.43
457.86	780.83
458.23	769.19
458.59	755.98
458.96	742.29
459.33	729.93
459.70	717.57
460.07	707.74
460.43	696.71
460.80	686.62
461.17	677.60
461.54	667.00
461.91	657.43
462.27	648.33
462.64	640.17
463.01	631.38
463.38	624.10
463.74	612.00
464.11	604.57
464.48	597.40
464.85	590.38
465.21	585.29
465.58	579.74
465.95	572.17
466.32	565.86
466.68	560.19
467.05	553.98
467.42	548.38
467.78	542.14
468.15	536.43
468.52	531.93
468.88	525.71
469.25	520.50
469.62	516.81
469.98	512.12
470.35	507.98
470.72	504.10
471.08	498.88
471.45	495.86
471.82	492.17
472.18	487.88
472.55	484.57
472.92	480.33
473.28	476.64
473.65	473.52
474.02	470.57
474.38	467.71
474.75	465.31
475.11	462.50
475.48	460.36
475.85	458.50
476.21	456.26
476.58	455.14
476.94	454.26
477.31	452.60
477.67	451.17
478.04	449.98
478.41	449.26
478.77	450.43
479.14	448.67
479.50	447.95
479.87	447.60
480.23	447.67
480.60	447.55
480.96	447.43
481.33	448.50
481.69	448.38
482.06	448.64
482.42	449.45
482.79	449.95
483.15	450.36
483.52	451.67
483.88	452.33
484.25	452.76
484.61	454.07
484.98	455.21
485.34	457.64
485.71	459.86
486.07	461.24
486.44	461.36
486.80	463.81
487.17	465.76
487.53	468.98
487.90	471.86
488.26	475.14
488.62	478.12
488.99	480.17
489.35	483.29
489.72	486.57
490.08	489.45
490.44	492.93
490.81	497.36
491.17	500.90
491.54	505.29
491.90	510.38
492.26	514.71
492.63	519.05
492.99	523.07
493.36	527.60
493.72	533.33
494.08	538.64
494.45	544.14
494.81	549.98
495.17	555.69
495.54	561.45
495.90	567.60
496.26	574.24
496.63	581.24
496.99	587.69
497.35	594.64
497.72	602.12
498.08	609.71
498.44	617.26
498.80	625.10
499.17	632.29
499.53	639.48
499.89	647.64
500.26	655.60
500.62	664.24
500.98	673.57
501.34	682.14
501.71	691.12
502.07	699.95
502.43	709.43
502.79	718.43
503.16	726.83
503.52	735.93
503.88	744.88
504.24	754.90
504.60	764.90
504.97	774.62
505.33	784.50
505.69	795.29
506.05	804.88
506.41	814.50
506.78	825.29
507.14	834.83
507.50	844.83
507.86	855.93
508.22	865.62
508.59	874.14
508.95	884.45
509.31	895.98
509.67	905.93
510.03	915.67
510.39	925.67
510.75	936.79
511.12	946.88
511.48	957.38
511.84	967.76
512.20	978.26
512.56	988.95
512.92	999.43
513.28	1009.90
513.64	1019.67
514.00	1030.05
514.37	1040.29
514.73	1051.40
515.09	1061.90
515.45	1071.62
515.81	1081.29
516.17	1091.79
516.53	1100.40
516.89	1108.81
517.25	1118.81
517.61	1129.36
517.97	1139.14
518.33	1148.79
518.69	1157.93
519.05	1167.43
519.41	1175.48
519.77	1185.64
520.13	1193.93
520.49	1202.74
520.85	1210.67
521.21	1220.83
521.57	1229.62
521.93	1236.98
522.29	1245.33
522.65	1253.07
523.01	1261.79
523.37	1269.98
523.73	1277.88
524.09	1286.10
524.45	1293.69
524.81	1300.86
525.17	1307.86
525.53	1315.17
525.89	1322.48
526.25	1330.81
526.61	1336.98
526.97	1344.60
527.33	1351.29
527.68	1360.24
528.04	1366.71
528.40	1373.19
528.76	1379.33
529.12	1384.95
529.48	1393.52
529.84	1400.81
530.20	1408.36
530.56	1415.33
530.91	1422.67
531.27	1430.19
531.63	1438.31
531.99	1445.07
532.35	1452.07
532.71	1458.67
533.07	1466.12
533.42	1474.67
533.78	1481.24
534.14	1488.67
534.50	1495.33
534.86	1502.36
535.21	1507.12
535.57	1514.64
535.93	1520.67
536.29	1528.50
536.65	1535.98
537.00	1541.33
537.36	1546.40
537.72	1551.33
538.08	1556.19
538.44	1561.57
538.79	1566.86
539.15	1571.60
539.51	1577.62
539.87	1583.26
540.22	1589.21
540.58	1594.43
540.94	1597.38
541.29	1602.26
541.65	1606.00
542.01	1610.74
542.37	1614.93
542.72	1618.45
543.08	1621.24
543.44	1627.14
543.79	1629.62
544.15	1633.90
544.51	1638.21
544.87	1643.33
545.22	1648.19
545.58	1652.76
545.94	1657.26
546.29	1661.29
546.65	1664.74
547.01	1668.90
547.36	1673.26
547.72	1676.24
548.07	1680.50
548.43	1684.07
548.79	1686.07
549.14	1690.67
549.50	1693.88
549.86	1696.00
550.21	1699.81
550.57	1704.21
550.92	1706.24
551.28	1709.74
551.64	1712.71
551.99	1716.00
552.35	1718.57
552.70	1721.31
553.06	1724.33
553.41	1727.12
553.77	1731.10
554.13	1735.19
554.48	1737.98
554.84	1740.31
555.19	1743.50
555.55	1746.64
555.90	1750.19
556.26	1753.50
556.61	1755.74
556.97	1758.05
557.32	1760.93
557.68	1763.95
558.03	1766.64
558.39	1769.48
558.74	1771.62
559.10	1774.24
559.45	1777.45
559.81	1780.00
560.16	1782.88
560.52	1785.60
560.87	1788.43
561.23	1790.45
561.58	1793.57
561.94	1795.50
562.29	1797.76
562.64	1800.52
563.00	1801.17
563.35	1803.19
563.71	1806.90
564.06	1810.29
564.42	1813.74
564.77	1816.83
565.12	1820.36
565.48	1824.33
565.83	1827.76
566.19	1831.76
566.54	1834.36
566.89	1836.38
567.25	1839.17
567.60	1842.26
567.96	1846.33
568.31	1849.52
568.66	1852.67
569.02	1853.33
569.37	1853.93
569.72	1856.86
570.08	1857.52
570.43	1859.40
570.78	1861.14
571.14	1861.45
571.49	1862.05
571.84	1862.95
572.20	1863.76
572.55	1864.00
572.90	1863.69
573.26	1863.38
573.61	1863.00
573.96	1863.67
574.31	1863.45
574.67	1862.62
575.02	1862.26
575.37	1860.14
575.72	1857.81
576.08	1856.33
576.43	1855.24
576.78	1855.67
577.13	1854.10
577.49	1853.02
577.84	1852.40
578.19	1851.21
578.54	1850.45
578.90	1849.60
579.25	1847.43
579.60	1845.07
579.95	1843.40
580.30	1841.00
580.66	1839.10
581.01	1836.21
581.36	1833.55
581.71	1831.38
582.06	1830.50
582.42	1827.19
582.77	1824.57
583.12	1822.43
583.47	1820.00
583.82	1818.19
584.17	1815.76
584.53	1812.74
584.88	1810.19
585.23	1807.86
585.58	1804.69
585.93	1800.52
586.28	1797.38
586.63	1795.24
586.98	1793.07
587.34	1790.07
587.69	1786.83
588.04	1783.64
588.39	1781.02
588.74	1775.62
589.09	1772.14
589.44	1766.64
589.79	1763.69
590.14	1759.81
590.49	1756.26
590.84	1751.14
591.19	1747.14
591.54	1742.83
591.89	1739.14
592.25	1737.17
592.60	1732.02
592.95	1727.93
593.30	1725.24
593.65	1720.26
594.00	1714.60
594.35	1715.93
594.70	1710.76
595.05	1706.57
595.40	1701.62
595.75	1696.33
596.10	1694.17
596.45	1689.98
596.80	1685.90
597.15	1681.40
597.50	1676.17
597.85	1672.14
598.19	1667.93
598.54	1663.24
598.89	1658.69
599.24	1654.52
599.59	1648.10
599.94	1643.26
600.29	1639.19
600.64	1634.50
600.99	1630.52
601.34	1626.83
601.69	1616.05
602.04	1611.62
602.39	1606.36
602.74	1602.76
603.08	1598.00
603.43	1593.86
603.78	1589.07
604.13	1583.93
604.48	1578.36
604.83	1574.38
605.18	1569.43
605.53	1564.40
605.87	1558.57
606.22	1553.52
606.57	1548.14
606.92	1543.19
607.27	1538.79
607.62	1533.02
607.96	1527.02
608.31	1521.52
608.66	1516.21
609.01	1511.07
609.36	1505.24
609.70	1499.86
610.05	1493.69
610.40	1488.86
610.75	1481.83
611.10	1475.24
611.44	1469.88
611.79	1463.05
612.14	1456.95
612.49	1449.29
612.83	1443.19
613.18	1437.38
613.53	1431.29
613.88	1424.43
614.22	1416.83
614.57	1409.76
614.92	1403.40
615.27	1397.07
615.61	1390.52
615.96	1383.60
616.31	1376.48
616.65	1370.95
617.00	1364.98
617.35	1358.12
617.70	1350.62
618.04	1343.79
618.39	1336.86
618.74	1330.12
619.08	1324.36
619.43	1317.50
619.78	1311.74
620.12	1305.81
620.47	1299.60
620.82	1292.21
621.16	1284.55
621.51	1279.90
621.85	1272.88
622.20	1265.43
622.55	1258.93
622.89	1252.50
623.24	1247.12
623.59	1240.93
623.93	1234.36
624.28	1227.36
624.62	1223.21
624.97	1219.29
625.32	1213.48
625.66	1208.48
626.01	1203.02
626.35	1197.38
626.70	1191.64
627.04	1186.19
627.39	1179.00
627.73	1173.83
628.08	1168.90
628.43	1163.95
628.77	1157.24
629.12	1152.40
629.46	1147.50
629.81	1141.98
630.15	1136.05
630.50	1129.38
630.84	1123.36
631.19	1117.00
631.53	1111.00
631.88	1102.40
632.22	1093.79
632.57	1087.93
632.91	1081.12
633.26	1074.67
633.60	1068.36
633.95	1061.93
634.29	1055.10
634.64	1049.26
634.98	1041.93
635.32	1036.00
635.67	1030.74
636.01	1025.19
636.36	1018.52
636.70	1012.76
637.05	1006.45
637.39	1000.55
637.73	994.45
638.08	989.26
638.42	983.05
638.77	977.14
639.11	971.83
639.45	966.67
639.80	960.74
640.14	954.86
640.49	949.36
640.83	942.88
641.17	937.07
641.52	931.55
641.86	926.36
642.20	921.71
642.55	915.02
642.89	908.62
643.23	902.21
643.58	896.88
643.92	890.43
644.26	884.00
644.61	878.05
644.95	872.31
645.29	865.86
645.64	861.00
645.98	855.02
646.32	849.19
646.66	842.83
647.01	836.81
647.35	831.31
647.69	825.36
648.04	820.02
648.38	814.64
648.72	809.43
649.06	803.76
649.41	797.38
649.75	792.00
650.09	786.79
650.43	781.40
650.78	775.26
651.12	769.36
651.46	764.67
651.80	759.52
652.14	754.71
652.49	749.81
652.83	743.69
653.17	738.38
653.51	732.81
653.85	728.36
654.20	722.81
654.54	717.64
654.88	712.14
655.22	708.38
655.56	703.05
655.90	697.83
656.25	692.43
656.59	687.79
656.93	683.17
657.27	678.74
657.61	673.31
657.95	669.14
658.29	664.74
658.64	660.26
658.98	655.12
659.32	649.36
659.66	644.60
660.00	640.40
660.34	636.02
660.68	631.38
661.02	626.71
661.36	622.52
661.70	617.86
662.05	613.48
662.39	608.79
662.73	605.29
663.07	602.00
663.41	598.29
663.75	593.29
664.09	589.31
664.43	584.26
664.77	580.52
665.11	575.93
665.45	571.74
665.79	568.29
666.13	564.67
666.47	560.76
666.81	556.93
667.15	552.71
667.49	549.48
667.83	546.86
668.17	543.10
668.51	539.50
668.85	536.29
669.19	533.79
669.53	529.19
669.87	524.69
670.21	520.07
670.55	516.50
670.89	514.40
671.23	510.95
671.57	508.07
671.91	505.24
672.25	502.19
672.58	500.05
672.92	495.81
673.26	492.55
673.60	490.14
673.94	487.07
674.28	484.62
674.62	481.71
674.96	478.40
675.30	475.81
675.64	472.76
675.97	469.69
676.31	466.26
676.65	463.81
676.99	462.45
677.33	460.00
677.67	457.10
678.01	453.60
678.34	451.02
678.68	448.52
679.02	445.55
679.36	442.79
679.70	439.71
680.04	437.21
680.37	435.14
680.71	432.00
681.05	429.60
681.39	426.76
681.73	424.29
682.06	421.83
682.40	419.33
682.74	417.29
683.08	416.02
683.42	413.62
683.75	411.19
684.09	408.10
684.43	405.81
684.77	403.62
685.10	401.50
685.44	399.00
685.78	396.93
686.12	394.79
686.45	393.00
686.79	390.74
687.13	389.31
687.46	386.55
687.80	385.48
688.14	383.29
688.48	381.50
688.81	379.29
689.15	377.55
689.49	375.36
689.82	373.60
690.16	370.62
690.50	368.43
690.83	366.31
691.17	363.62
691.51	361.52
691.84	360.07
692.18	357.93
692.52	356.19
692.85	354.29
693.19	353.50
693.52	351.45
693.86	349.33
694.20	347.48
694.53	346.12
694.87	343.76
695.21	342.02
695.54	340.33
695.88	338.29
696.21	336.31
696.55	335.07
696.88	333.64
697.22	332.00
697.56	331.10
697.89	329.48
698.23	329.00
698.56	327.43
698.90	325.64
699.23	324.45
699.57	323.10
699.90	321.45
700.24	319.24
700.58	318.02
700.91	317.12
701.25	317.26
701.58	316.52
701.92	316.00
702.25	314.90
702.59	313.55
702.92	312.64
703.26	311.62
703.59	310.19
703.93	310.43
704.26	309.64
704.60	308.33
704.93	307.45
705.26	305.98
705.60	305.52
705.93	304.45
706.27	304.19
706.60	303.50
706.94	303.81
707.27	302.76
707.61	302.12
707.94	301.02
708.27	298.57
708.61	296.93
708.94	295.74
709.28	295.00
709.61	294.12
709.94	293.38
710.28	292.50
710.61	291.52
710.95	288.98
711.28	289.36
711.61	288.74
711.95	288.14
712.28	287.19
712.61	286.29
712.95	286.62
713.28	286.36
713.61	285.29
713.95	283.60
714.28	283.00
714.61	281.74
714.95	281.00
715.28	279.62
715.61	278.90
715.95	278.48
716.28	277.64
716.61	277.14
716.95	276.07
717.28	275.29
717.61	274.71
717.94	273.86
718.28	271.74
718.61	270.48
718.94	269.64
719.27	269.14
719.61	268.52
719.94	267.05
720.27	265.33
720.60	264.52
720.94	263.79
721.27	263.24
721.60	263.19
721.93	262.50
722.27	263.00
722.60	262.86
722.93	261.90
723.26	261.33
723.59	260.55
723.93	260.36
724.26	260.07
724.59	259.33
724.92	258.93
725.25	259.07
725.59	258.86
725.92	258.64
726.25	258.07
726.58	257.52
726.91	256.74
727.24	256.71
727.57	256.38
727.91	255.74
728.24	255.38
728.57	254.55
728.90	254.48
729.23	253.29
729.56	253.81
729.89	253.21
730.22	252.69
730.55	252.05
730.89	251.74
731.22	251.36
731.55	251.12
731.88	250.83
732.21	249.98
732.54	249.36
732.87	248.67
733.20	248.14
733.53	247.67
733.86	247.98
734.19	247.07
734.52	247.05
734.85	248.12
735.18	247.38
735.51	247.71
735.84	247.33
736.17	247.57
736.50	246.10
736.83	248.07
737.16	247.74
737.49	247.71
737.82	247.02
738.15	246.62
738.48	245.98
738.81	245.76
739.14	245.29
739.47	244.90
739.80	244.76
740.13	244.71
740.46	244.10
740.79	243.26
741.12	242.95
741.45	242.19
741.78	240.81
742.11	241.21
742.44	240.55
742.77	240.55
743.10	239.93
743.43	239.45
743.75	237.21
744.08	239.81
744.41	239.21
744.74	239.00
745.07	238.57
745.40	238.95
745.73	239.48
746.06	239.12
746.39	239.14
746.71	238.67
747.04	238.21
747.37	238.14
747.70	238.31
748.03	238.29
748.36	238.40
748.68	238.05
749.01	237.07
749.34	236.88
749.67	236.71
750.00	236.88
750.33	238.10
750.65	237.95
750.98	234.86
751.31	234.83
751.64	234.64
751.97	235.31
752.29	234.74
752.62	233.69
752.95	233.52
753.28	233.24
753.60	233.14
753.93	233.50
754.26	233.19
754.59	232.26
754.91	231.64
755.24	231.36
755.57	231.12
755.90	231.07
756.22	230.60
756.55	230.17
756.88	229.64
757.20	228.14
757.53	227.48
757.86	227.62
758.19	227.74
758.51	227.79
758.84	226.60
759.17	226.43
759.49	226.33
759.82	227.36
760.15	227.26
760.47	226.93
760.80	226.19
761.13	226.57
761.45	226.57
761.78	226.76
762.11	226.36
762.43	226.33
762.76	226.14
763.08	226.38
763.41	226.19
763.74	226.02
764.06	225.86
764.39	225.81
764.71	225.57
765.04	225.21
765.37	224.83
765.69	224.64
766.02	224.45
766.34	223.93
766.67	222.64
767.00	223.00
767.32	224.05
767.65	225.24
767.97	225.07
768.30	225.29
768.62	224.95
768.95	225.05
769.27	224.67
769.60	224.98
769.92	224.52
770.25	224.21
770.57	223.81
770.90	223.90
771.22	223.62
771.55	223.52
771.87	223.60
772.20	223.45
772.52	225.14
772.85	227.57
773.17	227.79
773.50	227.95
773.82	227.57
774.15	226.67
774.47	225.31
774.80	224.98
775.12	224.57
775.45	224.36
775.77	224.24
776.09	224.50
776.42	224.14
776.74	224.71
777.07	224.45
777.39	224.40
777.72	224.19
778.04	224.38
778.36	224.02
778.69	224.00
779.01	223.88
779.33	222.14
779.66	219.74
779.98	219.79
780.31	219.71
780.63	220.19
780.95	220.48
781.28	220.43
781.60	220.14
781.92	220.12
782.25	220.10
782.57	219.93
782.89	219.60
783.22	219.55
783.54	218.95
783.86	219.26
784.19	219.00
784.51	219.48
784.83	219.24
785.16	219.33
785.48	219.33
785.80	219.38
