SpectraSuite Data File
++++++++++++++++++++++++++++++++++++
Date: Tue Apr 02 18:41:34 EDT 2013
User: group
Dark Spectrum Present: No
Reference Spectrum Present: No
Number of Sampled Component Spectra: 1
Spectrometers: USB2E7196
Integration Time (usec): 580000 (USB2E7196)
Spectra Averaged: 2 (USB2E7196)
Boxcar Smoothing: 10 (USB2E7196)
Correct for Electrical Dark: No (USB2E7196)
Strobe/Lamp Enabled: No (USB2E7196)
Correct for Detector Non-linearity: No (USB2E7196)
Correct for Stray Light: No (USB2E7196)
Number of Pixels in Processed Spectrum: 2048
>>>>>Begin Processed Spectral Data<<<<<
339.09	0.00
339.48	193.00
339.86	194.50
340.24	194.50
340.63	197.00
341.01	232.00
341.39	197.00
341.78	205.00
342.16	211.00
342.54	208.00
342.93	197.33
343.31	207.17
343.69	207.88
344.07	208.48
344.46	209.29
344.84	210.00
345.22	208.69
345.60	209.40
345.99	209.74
346.37	209.74
346.75	209.69
347.13	209.67
347.52	209.64
347.90	210.62
348.28	210.60
348.66	211.00
349.05	210.38
349.43	210.74
349.81	211.02
350.19	211.12
350.57	211.05
350.96	211.48
351.34	211.71
351.72	212.00
352.10	212.26
352.48	211.93
352.87	211.98
353.25	212.19
353.63	212.10
354.01	211.98
354.39	211.93
354.77	212.12
355.15	212.74
355.54	212.74
355.92	212.02
356.30	211.90
356.68	213.40
357.06	213.45
357.44	213.07
357.82	212.81
358.20	213.74
358.58	213.95
358.97	214.24
359.35	214.86
359.73	215.02
360.11	214.93
360.49	215.17
360.87	214.93
361.25	215.24
361.63	215.95
362.01	216.36
362.39	216.26
362.77	216.52
363.15	216.45
363.53	216.45
363.91	216.62
364.29	216.81
364.67	214.57
365.05	214.67
365.43	214.93
365.81	215.40
366.19	215.71
366.57	216.45
366.95	216.43
367.33	215.93
367.71	215.90
368.09	216.29
368.47	216.36
368.85	216.31
369.23	216.45
369.61	215.57
369.99	215.98
370.37	216.48
370.75	217.36
371.13	216.83
371.51	216.55
371.89	216.90
372.27	216.86
372.65	217.00
373.03	217.33
373.41	217.12
373.78	216.88
374.16	215.69
374.54	214.81
374.92	214.60
375.30	214.33
375.68	213.86
376.06	213.83
376.44	213.50
376.82	213.81
377.19	213.83
377.57	213.93
377.95	213.21
378.33	212.81
378.71	211.38
379.09	211.62
379.47	211.95
379.84	211.57
380.22	211.43
380.60	211.21
380.98	210.88
381.36	211.02
381.73	210.74
382.11	211.14
382.49	211.48
382.87	211.24
383.25	211.48
383.62	213.98
384.00	213.74
384.38	214.10
384.76	214.45
385.13	215.33
385.51	215.36
385.89	215.31
386.27	215.48
386.64	216.05
387.02	215.95
387.40	215.74
387.78	215.98
388.15	216.19
388.53	216.07
388.91	216.10
389.29	215.88
389.66	216.29
390.04	216.10
390.42	216.17
390.79	216.29
391.17	216.31
391.55	213.88
391.92	213.79
392.30	213.90
392.68	213.67
393.05	213.26
393.43	213.24
393.81	213.17
394.18	212.83
394.56	212.83
394.94	213.05
395.31	213.02
395.69	213.50
396.06	213.74
396.44	213.98
396.82	213.81
397.19	214.93
397.57	214.83
397.95	215.19
398.32	214.76
398.70	215.14
399.07	215.38
399.45	215.48
399.82	215.50
400.20	215.33
400.58	215.24
400.95	214.64
401.33	215.21
401.70	216.67
402.08	217.02
402.45	217.14
402.83	217.60
403.20	217.55
403.58	217.48
403.95	217.93
404.33	218.43
404.71	218.90
405.08	220.02
405.46	220.29
405.83	220.45
406.21	220.90
406.58	221.36
406.96	221.60
407.33	222.43
407.70	223.14
408.08	225.38
408.45	226.36
408.83	227.57
409.20	228.05
409.58	227.71
409.95	228.98
410.33	229.95
410.70	230.40
411.08	232.00
411.45	233.02
411.82	234.05
412.20	235.81
412.57	238.33
412.95	238.12
413.32	239.88
413.69	241.48
414.07	243.36
414.44	245.14
414.82	247.50
415.19	249.67
415.56	251.98
415.94	253.26
416.31	256.12
416.68	258.88
417.06	262.57
417.43	266.19
417.81	269.48
418.18	273.12
418.55	277.40
418.93	281.43
419.30	286.10
419.67	290.60
420.04	294.93
420.42	299.10
420.79	306.17
421.16	311.83
421.54	319.17
421.91	325.14
422.28	331.29
422.66	337.98
423.03	346.21
423.40	353.55
423.77	360.88
424.15	368.05
424.52	375.71
424.89	383.98
425.26	391.86
425.64	399.90
426.01	408.60
426.38	417.21
426.75	426.67
427.13	436.17
427.50	446.10
427.87	456.07
428.24	466.55
428.61	475.64
428.99	487.12
429.36	497.69
429.73	510.12
430.10	522.12
430.47	534.02
430.85	544.64
431.22	557.21
431.59	572.55
431.96	585.45
432.33	599.76
432.70	613.95
433.08	630.33
433.45	645.95
433.82	661.12
434.19	678.67
434.56	695.57
434.93	711.26
435.30	727.14
435.68	745.60
436.05	762.86
436.42	780.19
436.79	796.40
437.16	814.02
437.53	831.98
437.90	850.05
438.27	868.36
438.64	887.10
439.01	904.81
439.38	919.48
439.75	934.98
440.13	952.71
440.50	968.48
440.87	982.21
441.24	995.76
441.61	1011.05
441.98	1022.48
442.35	1034.83
442.72	1048.14
443.09	1062.50
443.46	1070.12
443.83	1075.40
444.20	1080.45
444.57	1086.52
444.94	1089.74
445.31	1093.07
445.68	1098.86
446.05	1100.10
446.42	1098.55
446.79	1096.98
447.16	1094.48
447.53	1093.52
447.90	1085.88
448.27	1079.52
448.64	1069.93
449.01	1063.57
449.37	1052.62
449.74	1041.38
450.11	1030.21
450.48	1015.07
450.85	998.31
451.22	985.57
451.59	973.57
451.96	961.64
452.33	946.05
452.70	931.26
453.07	914.00
453.43	894.21
453.80	877.43
454.17	861.50
454.54	845.83
454.91	829.02
455.28	812.14
455.65	797.50
456.02	785.29
456.38	772.48
456.75	756.69
457.12	742.55
457.49	728.93
457.86	713.98
458.23	703.60
458.59	691.95
458.96	679.57
459.33	668.90
459.70	657.83
460.07	649.14
460.43	639.14
460.80	630.10
461.17	622.40
461.54	614.29
461.91	606.14
462.27	597.86
462.64	590.67
463.01	583.31
463.38	576.79
463.74	566.14
464.11	559.71
464.48	554.10
464.85	547.71
465.21	543.17
465.58	538.48
465.95	531.50
466.32	526.21
466.68	520.64
467.05	515.26
467.42	509.93
467.78	504.36
468.15	499.71
468.52	495.79
468.88	490.10
469.25	484.74
469.62	481.17
469.98	476.93
470.35	473.14
470.72	469.19
471.08	464.43
471.45	461.69
471.82	458.62
472.18	454.33
472.55	452.14
472.92	448.69
473.28	445.40
473.65	443.05
474.02	440.02
474.38	438.21
474.75	436.14
475.11	434.00
475.48	432.21
475.85	430.07
476.21	427.95
476.58	426.60
476.94	425.33
477.31	423.74
477.67	422.79
478.04	421.95
478.41	421.19
478.77	422.81
479.14	421.69
479.50	420.79
479.87	420.86
480.23	419.98
480.60	419.38
480.96	419.29
481.33	419.76
481.69	420.00
482.06	420.17
482.42	420.64
482.79	420.95
483.15	421.19
483.52	422.57
483.88	423.57
484.25	424.14
484.61	425.19
484.98	426.14
485.34	427.48
485.71	428.55
486.07	429.69
486.44	428.79
486.80	429.81
487.17	431.38
487.53	433.50
487.90	435.79
488.26	438.74
488.62	441.45
488.99	443.24
489.35	445.76
489.72	447.98
490.08	450.76
490.44	453.40
490.81	456.50
491.17	458.90
491.54	462.33
491.90	465.90
492.26	469.71
492.63	473.48
492.99	476.64
493.36	480.98
493.72	485.57
494.08	490.50
494.45	495.79
494.81	501.21
495.17	506.14
495.54	511.50
495.90	516.14
496.26	521.05
496.63	526.83
496.99	532.48
497.35	539.00
497.72	544.50
498.08	550.62
498.44	557.02
498.80	564.19
499.17	570.24
499.53	577.33
499.89	584.31
500.26	591.40
500.62	598.71
500.98	605.83
501.34	613.19
501.71	620.83
502.07	628.07
502.43	634.43
502.79	641.36
503.16	648.36
503.52	656.29
503.88	663.76
504.24	671.36
504.60	679.31
504.97	686.45
505.33	694.12
505.69	702.74
506.05	710.69
506.41	717.74
506.78	725.69
507.14	732.69
507.50	740.86
507.86	748.93
508.22	757.12
508.59	764.67
508.95	772.76
509.31	780.88
509.67	788.64
510.03	797.26
510.39	805.14
510.75	813.31
511.12	820.64
511.48	828.48
511.84	836.36
512.20	844.17
512.56	852.38
512.92	860.14
513.28	867.90
513.64	875.24
514.00	883.00
514.37	890.12
514.73	898.00
515.09	905.00
515.45	912.17
515.81	919.12
516.17	926.36
516.53	932.62
516.89	938.88
517.25	945.83
517.61	953.12
517.97	959.60
518.33	966.05
518.69	973.36
519.05	980.81
519.41	987.26
519.77	994.62
520.13	1000.36
520.49	1006.45
520.85	1012.57
521.21	1019.88
521.57	1026.57
521.93	1032.05
522.29	1037.71
522.65	1043.02
523.01	1048.60
523.37	1053.95
523.73	1059.79
524.09	1065.90
524.45	1071.50
524.81	1076.74
525.17	1081.40
525.53	1087.38
525.89	1092.60
526.25	1097.31
526.61	1100.90
526.97	1105.12
527.33	1109.00
527.68	1115.81
528.04	1120.81
528.40	1125.12
528.76	1128.57
529.12	1132.62
529.48	1138.38
529.84	1142.79
530.20	1147.26
530.56	1151.86
530.91	1156.93
531.27	1161.29
531.63	1165.29
531.99	1168.67
532.35	1173.14
532.71	1177.10
533.07	1181.38
533.42	1186.93
533.78	1191.29
534.14	1195.86
534.50	1200.07
534.86	1204.71
535.21	1207.76
535.57	1212.48
535.93	1215.55
536.29	1221.00
536.65	1225.50
537.00	1228.21
537.36	1231.98
537.72	1235.88
538.08	1239.48
538.44	1242.45
538.79	1245.93
539.15	1248.98
539.51	1253.48
539.87	1257.36
540.22	1261.10
540.58	1264.64
540.94	1266.86
541.29	1270.05
541.65	1272.88
542.01	1277.26
542.37	1279.67
542.72	1281.64
543.08	1283.24
543.44	1288.12
543.79	1289.48
544.15	1292.83
544.51	1297.21
544.87	1301.17
545.22	1304.64
545.58	1308.29
545.94	1312.21
546.29	1316.45
546.65	1320.55
547.01	1323.62
547.36	1326.93
547.72	1330.00
548.07	1332.62
548.43	1336.02
548.79	1338.67
549.14	1342.26
549.50	1345.69
549.86	1349.17
550.21	1352.83
550.57	1358.05
550.92	1359.31
551.28	1363.43
551.64	1366.55
551.99	1369.90
552.35	1373.02
552.70	1376.12
553.06	1379.55
553.41	1382.24
553.77	1386.50
554.13	1390.17
554.48	1393.90
554.84	1398.64
555.19	1402.48
555.55	1408.57
555.90	1412.45
556.26	1417.95
556.61	1421.52
556.97	1424.26
557.32	1428.95
557.68	1432.98
558.03	1436.43
558.39	1441.52
558.74	1445.88
559.10	1449.62
559.45	1454.05
559.81	1459.05
560.16	1464.19
560.52	1468.81
560.87	1474.14
561.23	1477.52
561.58	1485.24
561.94	1490.07
562.29	1493.62
562.64	1498.79
563.00	1501.19
563.35	1506.05
563.71	1510.19
564.06	1516.55
564.42	1522.88
564.77	1528.38
565.12	1534.88
565.48	1542.19
565.83	1548.98
566.19	1554.86
566.54	1561.07
566.89	1566.67
567.25	1571.48
567.60	1577.83
567.96	1585.81
568.31	1591.98
568.66	1598.31
569.02	1600.45
569.37	1605.36
569.72	1611.00
570.08	1615.33
570.43	1620.90
570.78	1625.64
571.14	1631.31
571.49	1635.88
571.84	1640.33
572.20	1644.62
572.55	1649.14
572.90	1651.93
573.26	1655.29
573.61	1659.79
573.96	1664.76
574.31	1668.64
574.67	1672.88
575.02	1675.74
575.37	1677.05
575.72	1680.38
576.08	1683.69
576.43	1687.33
576.78	1691.24
577.13	1694.64
577.49	1698.95
577.84	1703.57
578.19	1707.50
578.54	1710.60
578.90	1713.90
579.25	1717.36
579.60	1720.14
579.95	1722.14
580.30	1725.43
580.66	1729.07
581.01	1731.36
581.36	1732.83
581.71	1735.69
582.06	1739.07
582.42	1742.26
582.77	1744.31
583.12	1746.48
583.47	1749.07
583.82	1752.24
584.17	1754.95
584.53	1757.60
584.88	1760.26
585.23	1762.62
585.58	1765.19
585.93	1766.31
586.28	1768.76
586.63	1770.10
586.98	1771.95
587.34	1774.40
587.69	1775.90
588.04	1777.40
588.39	1779.12
588.74	1779.45
589.09	1781.38
589.44	1780.79
589.79	1782.67
590.14	1784.33
590.49	1784.48
590.84	1785.07
591.19	1785.33
591.54	1786.12
591.89	1786.43
592.25	1788.83
592.60	1788.50
592.95	1789.36
593.30	1791.62
593.65	1791.60
594.00	1791.93
594.35	1798.05
594.70	1798.19
595.05	1798.67
595.40	1798.69
595.75	1798.69
596.10	1801.00
596.45	1801.24
596.80	1802.79
597.15	1801.81
597.50	1802.60
597.85	1804.81
598.19	1803.50
598.54	1803.24
598.89	1802.67
599.24	1803.45
599.59	1801.76
599.94	1800.45
600.29	1799.79
600.64	1798.52
600.99	1797.86
601.34	1797.83
601.69	1791.62
602.04	1790.07
602.39	1789.64
602.74	1788.50
603.08	1787.48
603.43	1787.52
603.78	1786.17
604.13	1785.00
604.48	1783.98
604.83	1782.55
605.18	1780.86
605.53	1780.79
605.87	1778.71
606.22	1777.33
606.57	1774.88
606.92	1773.45
607.27	1773.10
607.62	1771.26
607.96	1769.74
608.31	1769.02
608.66	1767.98
609.01	1766.40
609.36	1765.76
609.70	1762.57
610.05	1759.88
610.40	1757.36
610.75	1752.14
611.10	1749.07
611.44	1746.19
611.79	1743.24
612.14	1740.02
612.49	1736.31
612.83	1733.05
613.18	1730.71
613.53	1725.98
613.88	1722.00
614.22	1716.71
614.57	1712.24
614.92	1706.93
615.27	1702.83
615.61	1697.12
615.96	1691.79
616.31	1686.62
616.65	1682.60
617.00	1678.64
617.35	1675.19
617.70	1670.95
618.04	1666.17
618.39	1661.79
618.74	1657.40
619.08	1652.62
619.43	1647.55
619.78	1643.14
620.12	1639.29
620.47	1634.81
620.82	1631.36
621.16	1626.26
621.51	1622.74
621.85	1617.64
622.20	1613.48
622.55	1606.93
622.89	1602.64
623.24	1598.69
623.59	1594.29
623.93	1588.45
624.28	1583.64
624.62	1581.26
624.97	1578.26
625.32	1574.93
625.66	1570.19
626.01	1564.48
626.35	1559.43
626.70	1554.48
627.04	1550.24
627.39	1545.10
627.73	1540.38
628.08	1536.07
628.43	1532.31
628.77	1526.95
629.12	1522.38
629.46	1518.12
629.81	1514.95
630.15	1510.10
630.50	1504.19
630.84	1499.17
631.19	1494.48
631.53	1488.79
631.88	1480.45
632.22	1472.86
632.57	1467.95
632.91	1462.31
633.26	1458.36
633.60	1453.33
633.95	1447.76
634.29	1441.17
634.64	1435.36
634.98	1429.40
635.32	1425.07
635.67	1419.74
636.01	1414.90
636.36	1408.76
636.70	1404.26
637.05	1398.86
637.39	1393.38
637.73	1388.36
638.08	1383.95
638.42	1378.43
638.77	1374.00
639.11	1368.52
639.45	1363.40
639.80	1357.29
640.14	1352.71
640.49	1345.83
640.83	1339.52
641.17	1333.98
641.52	1328.45
641.86	1322.95
642.20	1317.83
642.55	1309.88
642.89	1303.76
643.23	1296.90
643.58	1292.45
643.92	1285.17
644.26	1278.43
644.61	1272.07
644.95	1265.36
645.29	1258.07
645.64	1251.98
645.98	1244.90
646.32	1239.43
646.66	1232.98
647.01	1226.74
647.35	1219.79
647.69	1213.74
648.04	1208.88
648.38	1203.00
648.72	1196.52
649.06	1189.40
649.41	1182.36
649.75	1176.00
650.09	1169.17
650.43	1162.95
650.78	1155.45
651.12	1148.81
651.46	1142.10
651.80	1136.12
652.14	1130.57
652.49	1124.45
652.83	1117.81
653.17	1111.17
653.51	1103.95
653.85	1097.52
654.20	1091.17
654.54	1083.52
654.88	1076.57
655.22	1069.90
655.56	1063.43
655.90	1056.62
656.25	1050.21
656.59	1044.19
656.93	1038.05
657.27	1032.36
657.61	1026.12
657.95	1020.60
658.29	1014.64
658.64	1008.90
658.98	1002.00
659.32	994.69
659.66	988.36
660.00	982.10
660.34	975.67
660.68	969.74
661.02	963.83
661.36	956.90
661.70	951.55
662.05	946.74
662.39	940.52
662.73	934.90
663.07	929.98
663.41	924.05
663.75	917.48
664.09	911.05
664.43	903.86
664.77	897.62
665.11	891.17
665.45	885.21
665.79	878.86
666.13	873.24
666.47	867.69
666.81	861.83
667.15	855.79
667.49	850.71
667.83	845.83
668.17	840.31
668.51	835.12
668.85	829.69
669.19	824.76
669.53	818.57
669.87	812.67
670.21	806.86
670.55	800.95
670.89	796.83
671.23	792.67
671.57	788.00
671.91	783.24
672.25	778.07
672.58	773.40
672.92	768.31
673.26	763.19
673.60	758.36
673.94	753.60
674.28	748.90
674.62	744.69
674.96	739.21
675.30	734.52
675.64	729.93
675.97	725.07
676.31	719.17
676.65	714.36
676.99	709.98
677.33	705.40
677.67	701.64
678.01	696.36
678.34	691.60
678.68	687.50
679.02	682.52
679.36	678.29
679.70	673.00
680.04	668.48
680.37	664.05
680.71	659.33
681.05	655.00
681.39	650.52
681.73	645.86
682.06	641.55
682.40	636.69
682.74	632.19
683.08	628.79
683.42	624.29
683.75	620.43
684.09	615.69
684.43	610.88
684.77	606.62
685.10	602.45
685.44	598.14
685.78	593.71
686.12	589.90
686.45	585.29
686.79	580.71
687.13	577.38
687.46	572.81
687.80	569.48
688.14	565.05
688.48	561.17
688.81	556.86
689.15	553.31
689.49	549.36
689.82	545.83
690.16	540.83
690.50	537.43
690.83	533.60
691.17	528.88
691.51	525.38
691.84	521.60
692.18	517.79
692.52	513.90
692.85	510.64
693.19	507.62
693.52	504.40
693.86	501.10
694.20	497.40
694.53	494.64
694.87	490.71
695.21	487.50
695.54	483.83
695.88	480.14
696.21	475.93
696.55	473.12
696.88	469.83
697.22	466.93
697.56	464.19
697.89	460.76
698.23	458.71
698.56	455.60
698.90	452.60
699.23	449.38
699.57	446.69
699.90	443.43
700.24	440.21
700.58	437.19
700.91	434.98
701.25	433.50
701.58	431.52
701.92	429.50
702.25	426.57
702.59	424.10
702.92	421.95
703.26	419.64
703.59	417.14
703.93	416.19
704.26	414.33
704.60	411.57
704.93	408.93
705.26	406.48
705.60	404.31
705.93	401.45
706.27	399.48
706.60	397.50
706.94	395.93
707.27	393.26
707.61	391.50
707.94	389.02
708.27	385.69
708.61	382.71
708.94	380.02
709.28	378.14
709.61	375.95
709.94	373.79
710.28	371.86
710.61	369.60
710.95	365.74
711.28	364.86
711.61	363.05
711.95	362.10
712.28	359.62
712.61	357.57
712.95	357.14
713.28	356.26
713.61	354.10
713.95	351.69
714.28	350.17
714.61	347.98
714.95	346.19
715.28	344.17
715.61	342.45
715.95	341.31
716.28	339.60
716.61	338.86
716.95	337.29
717.28	335.71
717.61	334.02
717.94	332.69
718.28	329.43
718.61	327.69
718.94	325.69
719.27	324.60
719.61	323.48
719.94	321.50
720.27	319.12
720.60	317.45
720.94	316.17
721.27	315.26
721.60	314.31
721.93	313.07
722.27	312.21
722.60	311.10
722.93	309.45
723.26	308.31
723.59	306.31
723.93	305.60
724.26	304.45
724.59	303.50
724.92	302.81
725.25	302.57
725.59	301.52
725.92	300.83
726.25	299.86
726.58	298.86
726.91	297.81
727.24	297.33
727.57	296.38
727.91	295.02
728.24	293.95
728.57	292.90
728.90	292.38
729.23	291.10
729.56	291.05
729.89	290.24
730.22	289.05
730.55	288.33
730.89	287.29
731.22	286.45
731.55	285.38
731.88	284.21
732.21	282.95
732.54	282.14
732.87	281.12
733.20	280.36
733.53	279.50
733.86	278.81
734.19	277.60
734.52	276.74
734.85	277.60
735.18	276.52
735.51	276.17
735.84	275.50
736.17	275.48
736.50	273.86
736.83	275.98
737.16	275.45
737.49	274.76
737.82	273.81
738.15	273.38
738.48	272.76
738.81	272.00
739.14	270.90
739.47	270.05
739.80	269.02
740.13	268.81
740.46	267.90
740.79	266.93
741.12	266.48
741.45	265.98
741.78	264.26
742.11	264.36
742.44	263.55
742.77	263.19
743.10	262.21
743.43	261.76
743.75	258.57
744.08	260.67
744.41	259.81
744.74	259.12
745.07	258.38
745.40	258.24
745.73	258.57
746.06	258.36
746.39	258.14
746.71	257.64
747.04	256.60
747.37	256.31
747.70	256.26
748.03	255.67
748.36	255.48
748.68	255.10
749.01	253.90
749.34	253.17
749.67	252.62
750.00	252.38
750.33	253.40
750.65	253.12
750.98	250.33
751.31	250.12
751.64	249.74
751.97	250.43
752.29	249.83
752.62	248.33
752.95	247.86
753.28	247.00
753.60	246.76
753.93	247.00
754.26	246.55
754.59	245.45
754.91	244.79
755.24	244.38
755.57	243.86
755.90	243.48
756.22	243.29
756.55	242.55
756.88	241.81
757.20	239.95
757.53	239.12
757.86	238.90
758.19	238.81
758.51	238.74
758.84	236.95
759.17	236.57
759.49	236.69
759.82	237.38
760.15	237.60
760.47	237.21
760.80	236.40
761.13	236.64
761.45	236.26
761.78	236.12
762.11	235.93
762.43	235.55
762.76	235.17
763.08	235.05
763.41	235.14
763.74	234.90
764.06	234.74
764.39	234.62
764.71	233.98
765.04	233.38
765.37	232.64
765.69	232.69
766.02	232.24
766.34	231.83
766.67	231.02
767.00	231.12
767.32	232.02
767.65	233.21
767.97	232.71
768.30	232.79
768.62	232.36
768.95	231.88
769.27	231.50
769.60	231.81
769.92	231.38
770.25	230.74
770.57	230.07
770.90	229.86
771.22	229.52
771.55	229.52
771.87	229.45
772.20	229.33
772.52	230.81
772.85	233.05
773.17	232.90
773.50	232.29
773.82	231.62
774.15	230.52
774.47	228.90
774.80	228.43
775.12	228.10
775.45	228.12
775.77	228.17
776.09	228.45
776.42	228.17
776.74	228.40
777.07	228.12
777.39	228.24
777.72	228.17
778.04	228.12
778.36	227.64
778.69	227.55
779.01	227.69
779.33	225.93
779.66	223.55
779.98	223.36
780.31	223.52
780.63	224.31
780.95	224.29
781.28	224.14
781.60	223.86
781.92	223.90
782.25	223.88
782.57	223.55
782.89	223.05
783.22	222.90
783.54	222.36
783.86	222.67
784.19	222.31
784.51	222.62
784.83	222.31
785.16	222.21
