SpectraSuite Data File
++++++++++++++++++++++++++++++++++++
Date: Tue Apr 02 18:44:07 EDT 2013
User: group
Dark Spectrum Present: No
Reference Spectrum Present: No
Number of Sampled Component Spectra: 1
Spectrometers: USB2E7196
Integration Time (usec): 580000 (USB2E7196)
Spectra Averaged: 2 (USB2E7196)
Boxcar Smoothing: 10 (USB2E7196)
Correct for Electrical Dark: No (USB2E7196)
Strobe/Lamp Enabled: No (USB2E7196)
Correct for Detector Non-linearity: No (USB2E7196)
Correct for Stray Light: No (USB2E7196)
Number of Pixels in Processed Spectrum: 2048
>>>>>Begin Processed Spectral Data<<<<<
339.09	0.00
339.48	192.00
339.86	196.50
340.24	198.00
340.63	198.00
341.01	236.00
341.39	200.50
341.78	208.50
342.16	215.00
342.54	208.00
342.93	198.38
343.31	208.12
343.69	208.81
344.07	209.45
344.46	210.19
344.84	210.62
345.22	209.38
345.60	209.67
345.99	209.64
346.37	209.40
346.75	209.36
347.13	209.17
347.52	209.26
347.90	209.88
348.28	209.76
348.66	210.07
349.05	209.50
349.43	209.76
349.81	209.98
350.19	209.76
350.57	209.95
350.96	210.48
351.34	210.88
351.72	210.79
352.10	210.64
352.48	210.38
352.87	210.62
353.25	210.43
353.63	210.52
354.01	210.55
354.39	210.50
354.77	210.48
355.15	211.33
355.54	211.00
355.92	210.55
356.30	210.55
356.68	211.95
357.06	212.17
357.44	211.76
357.82	211.62
358.20	212.62
358.58	212.69
358.97	212.71
359.35	212.86
359.73	213.38
360.11	213.33
360.49	213.38
360.87	213.12
361.25	213.48
361.63	213.88
362.01	214.12
362.39	214.24
362.77	214.50
363.15	214.36
363.53	214.29
363.91	214.43
364.29	214.60
364.67	212.36
365.05	212.33
365.43	212.86
365.81	212.98
366.19	213.38
366.57	214.12
366.95	214.10
367.33	213.93
367.71	213.90
368.09	214.52
368.47	214.71
368.85	214.64
369.23	215.07
369.61	214.79
369.99	215.43
370.37	215.62
370.75	216.76
371.13	216.14
371.51	216.02
371.89	216.12
372.27	216.12
372.65	216.64
373.03	216.81
373.41	216.36
373.78	216.48
374.16	215.26
374.54	214.48
374.92	214.26
375.30	214.21
375.68	213.69
376.06	213.67
376.44	213.48
376.82	213.60
377.19	213.45
377.57	213.14
377.95	212.48
378.33	212.31
378.71	211.12
379.09	211.60
379.47	212.12
379.84	211.90
380.22	211.93
380.60	211.71
380.98	211.55
381.36	211.62
381.73	211.07
382.11	211.60
382.49	211.88
382.87	211.95
383.25	211.95
383.62	214.57
384.00	214.24
384.38	214.48
384.76	215.02
385.13	215.76
385.51	216.14
385.89	215.88
386.27	215.95
386.64	216.31
387.02	216.10
387.40	215.74
387.78	215.93
388.15	215.81
388.53	215.69
388.91	215.79
389.29	215.81
389.66	216.48
390.04	215.95
390.42	216.12
390.79	216.14
391.17	216.12
391.55	213.88
391.92	213.93
392.30	213.90
392.68	213.55
393.05	213.48
393.43	213.36
393.81	213.62
394.18	213.33
394.56	213.14
394.94	213.48
395.31	213.26
395.69	214.00
396.06	214.50
396.44	214.45
396.82	214.24
397.19	215.17
397.57	214.88
397.95	215.19
398.32	214.88
398.70	214.88
399.07	215.48
399.45	215.24
399.82	215.33
400.20	215.02
400.58	215.05
400.95	214.31
401.33	214.60
401.70	216.00
402.08	216.10
402.45	216.10
402.83	216.76
403.20	217.19
403.58	216.98
403.95	217.55
404.33	218.10
404.71	218.26
405.08	219.71
405.46	220.21
405.83	220.69
406.21	221.29
406.58	221.81
406.96	222.00
407.33	222.79
407.70	223.31
408.08	225.86
408.45	226.74
408.83	227.62
409.20	228.21
409.58	227.79
409.95	229.14
410.33	230.10
410.70	230.33
411.08	231.33
411.45	232.24
411.82	232.79
412.20	234.36
412.57	236.83
412.95	236.07
413.32	237.64
413.69	239.21
414.07	240.45
414.44	242.36
414.82	244.45
415.19	246.90
415.56	249.14
415.94	250.17
416.31	253.17
416.68	255.86
417.06	259.26
417.43	262.83
417.81	266.17
418.18	269.88
418.55	273.98
418.93	278.00
419.30	282.10
419.67	286.76
420.04	290.98
420.42	295.29
420.79	302.67
421.16	308.40
421.54	314.90
421.91	321.07
422.28	327.05
422.66	333.33
423.03	341.17
423.40	348.10
423.77	355.14
424.15	362.26
424.52	369.81
424.89	378.50
425.26	386.19
425.64	393.90
426.01	402.29
426.38	410.76
426.75	420.24
427.13	429.40
427.50	438.88
427.87	448.57
428.24	458.45
428.61	466.86
428.99	477.95
429.36	488.48
429.73	500.24
430.10	512.17
430.47	524.57
430.85	535.14
431.22	547.67
431.59	562.88
431.96	576.12
432.33	590.24
432.70	603.55
433.08	619.43
433.45	634.48
433.82	649.86
434.19	666.86
434.56	683.57
434.93	699.52
435.30	715.21
435.68	733.24
436.05	750.81
436.42	768.10
436.79	784.05
437.16	801.48
437.53	818.95
437.90	836.33
438.27	853.52
438.64	872.10
439.01	889.64
439.38	902.62
439.75	916.76
440.13	933.86
440.50	950.14
440.87	962.88
441.24	976.07
441.61	990.79
441.98	1001.57
442.35	1013.71
442.72	1026.55
443.09	1039.76
443.46	1047.57
443.83	1052.33
444.20	1056.67
444.57	1063.07
444.94	1065.48
445.31	1069.45
445.68	1075.10
446.05	1076.45
446.42	1074.62
446.79	1073.24
447.16	1071.69
447.53	1070.64
447.90	1064.00
448.27	1057.00
448.64	1048.48
449.01	1042.19
449.37	1031.02
449.74	1020.10
450.11	1009.10
450.48	994.62
450.85	978.67
451.22	965.14
451.59	953.24
451.96	941.67
452.33	925.57
452.70	912.60
453.07	894.86
453.43	875.07
453.80	858.31
454.17	842.48
454.54	826.76
454.91	810.76
455.28	794.17
455.65	779.31
456.02	768.12
456.38	755.60
456.75	740.69
457.12	727.31
457.49	714.43
457.86	699.83
458.23	689.83
458.59	678.79
458.96	667.52
459.33	657.31
459.70	647.02
460.07	638.57
460.43	628.26
460.80	619.67
461.17	612.83
461.54	604.83
461.91	596.98
462.27	588.69
462.64	581.26
463.01	574.24
463.38	567.67
463.74	556.43
464.11	549.88
464.48	544.19
464.85	537.83
465.21	533.31
465.58	528.52
465.95	521.71
466.32	516.71
466.68	511.10
467.05	505.79
467.42	500.43
467.78	495.29
468.15	490.48
468.52	486.83
468.88	480.88
469.25	476.50
469.62	473.50
469.98	469.60
470.35	466.31
470.72	462.83
471.08	458.33
471.45	455.98
471.82	452.88
472.18	448.81
472.55	446.33
472.92	443.05
473.28	439.62
473.65	436.90
474.02	434.05
474.38	432.52
474.75	430.69
475.11	428.48
475.48	426.81
475.85	425.31
476.21	423.50
476.58	422.74
476.94	421.43
477.31	419.67
477.67	418.64
478.04	417.76
478.41	416.93
478.77	418.26
479.14	417.10
479.50	416.88
479.87	417.05
480.23	416.33
480.60	415.36
480.96	415.88
481.33	416.57
481.69	416.74
482.06	416.57
482.42	416.95
482.79	417.52
483.15	417.69
483.52	418.48
483.88	419.24
484.25	419.60
484.61	420.48
484.98	420.98
485.34	422.69
485.71	424.45
486.07	425.71
486.44	425.45
486.80	426.93
487.17	428.07
487.53	430.29
487.90	432.81
488.26	435.83
488.62	438.43
488.99	440.12
489.35	442.62
489.72	445.36
490.08	447.71
490.44	450.21
490.81	453.31
491.17	455.98
491.54	459.10
491.90	462.81
492.26	466.19
492.63	470.67
492.99	473.76
493.36	477.33
493.72	481.90
494.08	486.24
494.45	490.86
494.81	495.90
495.17	500.19
495.54	505.21
495.90	510.33
496.26	515.12
496.63	520.55
496.99	525.90
497.35	531.83
497.72	537.83
498.08	543.67
498.44	549.93
498.80	556.98
499.17	563.14
499.53	568.88
499.89	575.64
500.26	581.95
500.62	589.33
500.98	596.86
501.34	604.10
501.71	611.60
502.07	618.45
502.43	625.67
502.79	632.90
503.16	640.19
503.52	647.19
503.88	654.40
504.24	661.90
504.60	669.71
504.97	677.38
505.33	684.88
505.69	693.36
506.05	701.19
506.41	708.21
506.78	716.14
507.14	724.76
507.50	732.48
507.86	740.24
508.22	747.71
508.59	754.45
508.95	762.05
509.31	770.45
509.67	778.74
510.03	786.40
510.39	793.69
510.75	801.38
511.12	809.26
511.48	816.93
511.84	824.71
512.20	832.26
512.56	839.36
512.92	846.79
513.28	854.24
513.64	861.55
514.00	869.29
514.37	876.10
514.73	883.12
515.09	890.64
515.45	897.83
515.81	904.33
516.17	912.21
516.53	918.24
516.89	923.12
517.25	929.62
517.61	936.55
517.97	943.57
518.33	949.60
518.69	955.95
519.05	962.62
519.41	969.07
519.77	976.74
520.13	983.21
520.49	989.02
520.85	994.40
521.21	1000.40
521.57	1005.64
521.93	1010.69
522.29	1016.02
522.65	1021.36
523.01	1026.83
523.37	1031.81
523.73	1036.02
524.09	1041.98
524.45	1047.86
524.81	1052.43
525.17	1056.45
525.53	1060.95
525.89	1065.71
526.25	1070.74
526.61	1074.14
526.97	1077.50
527.33	1080.71
527.68	1086.26
528.04	1090.64
528.40	1094.62
528.76	1098.93
529.12	1103.24
529.48	1108.38
529.84	1112.45
530.20	1116.33
530.56	1120.31
530.91	1124.79
531.27	1129.57
531.63	1133.33
531.99	1137.00
532.35	1140.90
532.71	1145.52
533.07	1150.12
533.42	1156.74
533.78	1160.67
534.14	1165.38
534.50	1170.05
534.86	1174.38
535.21	1176.64
535.57	1181.31
535.93	1185.02
536.29	1189.45
536.65	1194.24
537.00	1197.60
537.36	1200.81
537.72	1204.24
538.08	1208.19
538.44	1212.43
538.79	1216.05
539.15	1218.50
539.51	1222.29
539.87	1225.40
540.22	1228.79
540.58	1231.07
540.94	1232.21
541.29	1235.12
541.65	1237.88
542.01	1240.79
542.37	1243.26
542.72	1245.95
543.08	1247.48
543.44	1250.93
543.79	1252.17
544.15	1255.02
544.51	1258.50
544.87	1261.88
545.22	1265.02
545.58	1267.38
545.94	1269.07
546.29	1271.45
546.65	1274.64
547.01	1276.88
547.36	1279.98
547.72	1282.86
548.07	1286.17
548.43	1288.93
548.79	1291.48
549.14	1293.81
549.50	1296.74
549.86	1298.62
550.21	1301.86
550.57	1304.74
550.92	1307.33
551.28	1310.81
551.64	1312.62
551.99	1315.29
552.35	1317.81
552.70	1320.26
553.06	1323.10
553.41	1326.12
553.77	1330.21
554.13	1334.40
554.48	1339.07
554.84	1343.55
555.19	1346.36
555.55	1351.31
555.90	1354.43
556.26	1358.17
556.61	1362.00
556.97	1364.90
557.32	1369.50
557.68	1373.21
558.03	1377.10
558.39	1380.95
558.74	1385.40
559.10	1389.48
559.45	1394.19
559.81	1398.48
560.16	1402.48
560.52	1406.95
560.87	1411.90
561.23	1415.81
561.58	1421.45
561.94	1425.12
562.29	1428.79
562.64	1433.79
563.00	1437.14
563.35	1441.52
563.71	1446.90
564.06	1452.43
564.42	1457.76
564.77	1463.57
565.12	1469.12
565.48	1476.29
565.83	1482.00
566.19	1487.43
566.54	1493.48
566.89	1498.60
567.25	1504.79
567.60	1512.74
567.96	1520.86
568.31	1528.05
568.66	1533.81
569.02	1538.10
569.37	1543.19
569.72	1549.12
570.08	1554.71
570.43	1559.64
570.78	1566.14
571.14	1570.86
571.49	1575.69
571.84	1581.43
572.20	1585.67
572.55	1590.60
572.90	1594.55
573.26	1598.69
573.61	1603.24
573.96	1608.10
574.31	1612.26
574.67	1616.45
575.02	1619.14
575.37	1620.95
575.72	1623.79
576.08	1627.21
576.43	1631.52
576.78	1635.71
577.13	1638.76
577.49	1641.81
577.84	1646.38
578.19	1649.17
578.54	1653.69
578.90	1657.62
579.25	1662.31
579.60	1665.83
579.95	1668.14
580.30	1671.55
580.66	1675.86
581.01	1679.86
581.36	1682.55
581.71	1686.33
582.06	1690.90
582.42	1694.45
582.77	1697.14
583.12	1699.81
583.47	1702.81
583.82	1705.19
584.17	1708.17
584.53	1712.52
584.88	1717.17
585.23	1720.43
585.58	1723.55
585.93	1725.14
586.28	1728.21
586.63	1730.05
586.98	1732.40
587.34	1737.26
587.69	1740.40
588.04	1742.29
588.39	1743.90
588.74	1744.69
589.09	1746.74
589.44	1746.33
589.79	1749.24
590.14	1752.00
590.49	1753.69
590.84	1754.60
591.19	1756.43
591.54	1757.86
591.89	1757.36
592.25	1759.33
592.60	1760.45
592.95	1762.02
593.30	1763.52
593.65	1764.17
594.00	1765.10
594.35	1772.57
594.70	1771.69
595.05	1772.86
595.40	1774.00
595.75	1773.79
596.10	1776.14
596.45	1777.10
596.80	1778.86
597.15	1778.60
597.50	1778.55
597.85	1779.86
598.19	1781.07
598.54	1781.17
598.89	1781.93
599.24	1784.36
599.59	1783.29
599.94	1783.31
600.29	1784.21
600.64	1784.86
600.99	1785.33
601.34	1785.60
601.69	1779.29
602.04	1778.79
602.39	1777.29
602.74	1777.33
603.08	1777.43
603.43	1777.90
603.78	1776.98
604.13	1776.69
604.48	1776.26
604.83	1776.19
605.18	1775.62
605.53	1775.83
605.87	1774.81
606.22	1774.05
606.57	1772.17
606.92	1770.69
607.27	1770.36
607.62	1768.57
607.96	1767.55
608.31	1767.50
608.66	1766.17
609.01	1764.21
609.36	1764.17
609.70	1763.26
610.05	1761.38
610.40	1760.38
610.75	1757.26
611.10	1755.81
611.44	1753.48
611.79	1751.55
612.14	1748.76
612.49	1744.86
612.83	1741.69
613.18	1739.79
613.53	1736.90
613.88	1733.29
614.22	1730.02
614.57	1725.90
614.92	1722.62
615.27	1718.90
615.61	1713.76
615.96	1710.21
616.31	1707.19
616.65	1705.00
617.00	1701.17
617.35	1697.81
617.70	1694.31
618.04	1690.90
618.39	1686.98
618.74	1683.88
619.08	1679.86
619.43	1676.62
619.78	1674.95
620.12	1671.60
620.47	1668.14
620.82	1663.79
621.16	1660.12
621.51	1657.14
621.85	1652.19
622.20	1647.40
622.55	1643.17
622.89	1640.57
623.24	1637.26
623.59	1633.05
623.93	1627.98
624.28	1624.83
624.62	1622.57
624.97	1619.81
625.32	1616.71
625.66	1612.83
626.01	1607.55
626.35	1603.79
626.70	1599.90
627.04	1595.71
627.39	1591.98
627.73	1588.57
628.08	1585.88
628.43	1582.05
628.77	1577.57
629.12	1575.43
629.46	1573.36
629.81	1569.71
630.15	1563.67
630.50	1558.62
630.84	1554.19
631.19	1549.19
631.53	1543.93
631.88	1536.88
632.22	1530.76
632.57	1526.26
632.91	1521.05
633.26	1517.67
633.60	1512.45
633.95	1506.55
634.29	1501.02
634.64	1496.12
634.98	1490.48
635.32	1485.88
635.67	1482.17
636.01	1477.69
636.36	1472.12
636.70	1467.43
637.05	1462.86
637.39	1460.36
637.73	1456.52
638.08	1453.50
638.42	1449.02
638.77	1445.26
639.11	1441.55
639.45	1436.83
639.80	1431.14
640.14	1426.40
640.49	1421.33
640.83	1415.40
641.17	1412.12
641.52	1406.98
641.86	1401.45
642.20	1397.12
642.55	1390.95
642.89	1385.38
643.23	1380.52
643.58	1376.07
643.92	1369.24
644.26	1363.21
644.61	1357.26
644.95	1351.81
645.29	1345.19
645.64	1340.05
645.98	1333.40
646.32	1327.33
646.66	1320.83
647.01	1315.21
647.35	1310.57
647.69	1304.21
648.04	1299.79
648.38	1293.29
648.72	1288.14
649.06	1282.69
649.41	1275.24
649.75	1269.40
650.09	1262.95
650.43	1255.50
650.78	1248.21
651.12	1241.86
651.46	1235.64
651.80	1228.24
652.14	1220.98
652.49	1215.48
652.83	1208.55
653.17	1201.95
653.51	1194.88
653.85	1189.33
654.20	1183.19
654.54	1175.17
654.88	1168.71
655.22	1162.10
655.56	1155.24
655.90	1148.17
656.25	1141.48
656.59	1135.88
656.93	1129.14
657.27	1123.76
657.61	1118.00
657.95	1112.71
658.29	1106.95
658.64	1101.69
658.98	1095.52
659.32	1088.86
659.66	1082.00
660.00	1075.81
660.34	1069.55
660.68	1064.24
661.02	1057.29
661.36	1050.83
661.70	1045.40
662.05	1039.45
662.39	1033.29
662.73	1027.50
663.07	1022.69
663.41	1016.40
663.75	1009.86
664.09	1003.88
664.43	997.05
664.77	990.57
665.11	983.50
665.45	977.05
665.79	969.71
666.13	963.29
666.47	957.40
666.81	951.07
667.15	944.62
667.49	939.19
667.83	933.69
668.17	928.69
668.51	923.14
668.85	917.88
669.19	913.14
669.53	906.40
669.87	900.19
670.21	893.67
670.55	888.02
670.89	883.55
671.23	878.43
671.57	873.19
671.91	868.45
672.25	863.40
672.58	859.36
672.92	854.36
673.26	849.62
673.60	844.38
673.94	839.79
674.28	835.02
674.62	830.29
674.96	825.07
675.30	819.71
675.64	813.88
675.97	808.55
676.31	802.33
676.65	798.02
676.99	794.29
677.33	788.69
677.67	783.43
678.01	777.81
678.34	772.67
678.68	768.36
679.02	762.81
679.36	757.48
679.70	751.50
680.04	746.57
680.37	741.86
680.71	737.45
681.05	732.81
681.39	727.86
681.73	723.00
682.06	717.14
682.40	712.48
682.74	708.86
683.08	704.52
683.42	699.36
683.75	694.60
684.09	688.95
684.43	684.36
684.77	679.64
685.10	674.62
685.44	670.21
685.78	665.10
686.12	660.83
686.45	656.60
686.79	652.00
687.13	648.45
687.46	643.57
687.80	639.76
688.14	634.36
688.48	630.45
688.81	626.17
689.15	622.67
689.49	617.93
689.82	612.93
690.16	608.00
690.50	604.17
690.83	600.17
691.17	595.29
691.51	591.10
691.84	587.17
692.18	583.31
692.52	579.10
692.85	574.90
693.19	571.81
693.52	567.64
693.86	563.36
694.20	558.79
694.53	555.14
694.87	550.71
695.21	547.19
695.54	543.12
695.88	538.17
696.21	533.45
696.55	529.52
696.88	525.88
697.22	522.14
697.56	518.88
697.89	514.71
698.23	511.83
698.56	508.52
698.90	505.14
699.23	501.10
699.57	497.48
699.90	493.98
700.24	489.64
700.58	486.31
700.91	483.29
701.25	481.69
701.58	479.43
701.92	476.86
702.25	473.93
702.59	470.62
702.92	467.88
703.26	465.55
703.59	463.07
703.93	461.98
704.26	459.29
704.60	456.40
704.93	453.50
705.26	450.79
705.60	448.26
705.93	445.19
706.27	443.33
706.60	441.19
706.94	439.31
707.27	436.40
707.61	433.98
707.94	431.43
708.27	427.02
708.61	423.21
708.94	420.26
709.28	417.90
709.61	415.26
709.94	412.90
710.28	410.31
710.61	408.02
710.95	403.69
711.28	402.57
711.61	400.43
711.95	398.79
712.28	396.31
712.61	393.88
712.95	392.95
713.28	391.38
713.61	388.67
713.95	385.81
714.28	383.98
714.61	381.62
714.95	379.69
715.28	377.31
715.61	375.33
715.95	373.36
716.28	370.98
716.61	369.62
716.95	367.79
717.28	366.05
717.61	363.55
717.94	361.83
718.28	358.67
718.61	356.48
718.94	354.40
719.27	352.60
719.61	350.71
719.94	348.24
720.27	345.60
720.60	343.83
720.94	342.24
721.27	340.88
721.60	339.67
721.93	337.81
722.27	337.05
722.60	335.95
722.93	334.24
723.26	332.98
723.59	330.93
723.93	329.67
724.26	328.40
724.59	327.19
724.92	325.74
725.25	324.93
725.59	323.64
725.92	322.52
726.25	321.57
726.58	320.33
726.91	319.24
727.24	318.02
727.57	316.88
727.91	315.19
728.24	313.81
728.57	312.38
728.90	311.43
729.23	309.76
729.56	309.43
729.89	308.33
730.22	306.79
730.55	305.81
730.89	304.86
731.22	303.67
731.55	302.57
731.88	301.69
732.21	300.24
732.54	298.95
732.87	297.93
733.20	296.86
733.53	295.98
733.86	295.05
734.19	293.95
734.52	293.48
734.85	294.10
735.18	293.05
735.51	292.95
735.84	292.33
736.17	292.33
736.50	290.52
736.83	292.00
737.16	291.62
737.49	290.98
737.82	290.17
738.15	289.64
738.48	288.86
738.81	287.52
739.14	286.31
739.47	285.52
739.80	284.57
740.13	283.74
740.46	282.86
740.79	281.52
741.12	280.79
741.45	279.45
741.78	277.90
742.11	277.55
742.44	276.21
742.77	275.52
743.10	274.12
743.43	272.98
743.75	269.93
744.08	271.52
744.41	270.48
744.74	269.55
745.07	268.05
745.40	267.81
745.73	268.17
746.06	267.62
746.39	267.24
746.71	266.50
747.04	265.55
747.37	264.64
747.70	264.48
748.03	263.90
748.36	263.64
748.68	262.55
749.01	261.50
749.34	261.00
749.67	260.43
750.00	260.52
750.33	261.81
750.65	261.29
750.98	258.29
751.31	257.74
751.64	257.26
751.97	258.31
752.29	257.45
752.62	256.10
752.95	255.69
753.28	255.05
753.60	254.52
753.93	254.69
754.26	254.52
754.59	253.74
754.91	253.02
755.24	252.45
755.57	252.10
755.90	251.43
756.22	250.79
756.55	250.14
756.88	248.79
757.20	247.12
757.53	246.40
757.86	246.02
758.19	245.95
758.51	245.50
758.84	243.71
759.17	243.21
759.49	243.12
759.82	243.50
760.15	243.33
760.47	242.93
760.80	241.93
761.13	241.86
761.45	241.40
761.78	240.98
762.11	240.55
762.43	240.31
762.76	240.38
763.08	240.31
763.41	240.00
763.74	240.07
764.06	239.57
764.39	239.10
764.71	238.60
765.04	238.02
765.37	237.50
765.69	237.31
766.02	236.88
766.34	236.10
766.67	235.40
767.00	235.21
767.32	235.90
767.65	237.00
767.97	236.45
768.30	236.26
768.62	236.19
768.95	235.64
769.27	235.24
769.60	235.07
769.92	234.55
770.25	233.71
770.57	233.05
770.90	232.71
771.22	232.57
771.55	232.50
771.87	232.64
772.20	232.48
772.52	234.02
772.85	236.43
773.17	236.50
773.50	236.05
773.82	235.55
774.15	234.33
774.47	232.86
774.80	232.55
775.12	232.21
775.45	232.02
775.77	231.95
776.09	231.83
776.42	231.52
776.74	231.93
777.07	231.83
777.39	231.74
777.72	231.69
778.04	231.69
778.36	231.21
778.69	230.88
779.01	230.81
779.33	228.95
779.66	226.60
779.98	226.19
780.31	226.10
780.63	227.02
780.95	227.31
781.28	227.05
781.60	226.71
781.92	226.48
782.25	226.33
782.57	226.19
782.89	225.57
783.22	225.40
783.54	224.67
783.86	224.88
784.19	224.81
784.51	225.05
784.83	224.55
785.16	224.21
