SpectraSuite Data File
++++++++++++++++++++++++++++++++++++
Date: Tue Apr 02 18:43:14 EDT 2013
User: group
Dark Spectrum Present: No
Reference Spectrum Present: No
Number of Sampled Component Spectra: 1
Spectrometers: USB2E7196
Integration Time (usec): 580000 (USB2E7196)
Spectra Averaged: 2 (USB2E7196)
Boxcar Smoothing: 10 (USB2E7196)
Correct for Electrical Dark: No (USB2E7196)
Strobe/Lamp Enabled: No (USB2E7196)
Correct for Detector Non-linearity: No (USB2E7196)
Correct for Stray Light: No (USB2E7196)
Number of Pixels in Processed Spectrum: 2048
>>>>>Begin Processed Spectral Data<<<<<
339.09	0.00
339.48	200.50
339.86	197.00
340.24	198.50
340.63	204.50
341.01	237.00
341.39	204.50
341.78	208.50
342.16	212.00
342.54	206.00
342.93	200.45
343.31	210.31
343.69	210.67
344.07	211.10
344.46	211.88
344.84	212.24
345.22	210.74
345.60	210.88
345.99	211.14
346.37	210.95
346.75	210.93
347.13	210.90
347.52	211.07
347.90	211.69
348.28	211.67
348.66	211.86
349.05	211.29
349.43	211.38
349.81	211.26
350.19	211.10
350.57	211.29
350.96	211.38
351.34	211.60
351.72	211.55
352.10	211.55
352.48	211.21
352.87	210.90
353.25	211.05
353.63	211.05
354.01	210.79
354.39	210.83
354.77	210.86
355.15	211.45
355.54	210.95
355.92	210.52
356.30	210.57
356.68	211.90
357.06	212.02
357.44	211.69
357.82	211.98
358.20	212.95
358.58	212.67
358.97	212.55
359.35	213.02
359.73	213.43
360.11	213.62
360.49	213.67
360.87	213.90
361.25	214.21
361.63	214.79
362.01	214.98
362.39	215.14
362.77	215.52
363.15	215.36
363.53	215.43
363.91	215.76
364.29	215.71
364.67	213.93
365.05	214.02
365.43	214.26
365.81	214.29
366.19	214.55
366.57	215.55
366.95	215.62
367.33	215.05
367.71	215.10
368.09	215.50
368.47	215.55
368.85	215.45
369.23	216.07
369.61	215.69
369.99	216.29
370.37	216.45
370.75	217.64
371.13	217.43
371.51	217.45
371.89	217.17
372.27	217.48
372.65	217.60
373.03	217.79
373.41	217.79
373.78	217.81
374.16	216.55
374.54	215.88
374.92	215.76
375.30	215.79
375.68	215.43
376.06	215.50
376.44	215.38
376.82	215.67
377.19	214.93
377.57	214.76
377.95	214.12
378.33	214.12
378.71	212.67
379.09	213.05
379.47	213.36
379.84	213.21
380.22	213.00
380.60	212.48
380.98	212.10
381.36	212.14
381.73	211.83
382.11	212.43
382.49	212.50
382.87	212.33
383.25	212.50
383.62	215.05
384.00	214.52
384.38	214.48
384.76	214.98
385.13	215.90
385.51	216.07
385.89	215.88
386.27	215.71
386.64	216.00
387.02	215.52
387.40	215.17
387.78	215.31
388.15	215.17
388.53	215.36
388.91	215.52
389.29	215.29
389.66	215.69
390.04	215.26
390.42	215.64
390.79	215.71
391.17	215.81
391.55	213.40
391.92	213.64
392.30	214.07
392.68	213.40
393.05	213.17
393.43	213.21
393.81	213.36
394.18	213.05
394.56	213.19
394.94	213.67
395.31	213.62
395.69	214.31
396.06	214.81
396.44	214.90
396.82	214.71
397.19	215.86
397.57	215.57
397.95	215.95
398.32	215.26
398.70	215.29
399.07	215.50
399.45	215.33
399.82	215.26
400.20	215.00
400.58	215.07
400.95	214.55
401.33	214.86
401.70	216.29
402.08	216.69
402.45	216.88
402.83	217.40
403.20	217.60
403.58	217.40
403.95	217.64
404.33	218.12
404.71	218.55
405.08	219.60
405.46	219.95
405.83	220.33
406.21	220.69
406.58	221.31
406.96	221.43
407.33	222.05
407.70	222.52
408.08	224.79
408.45	225.83
408.83	226.93
409.20	227.26
409.58	226.86
409.95	227.98
410.33	228.79
410.70	229.05
411.08	230.40
411.45	231.38
411.82	232.12
412.20	233.48
412.57	235.98
412.95	235.69
413.32	237.45
413.69	239.07
414.07	240.76
414.44	242.55
414.82	244.76
415.19	247.26
415.56	249.74
415.94	250.74
416.31	253.36
416.68	255.98
417.06	259.17
417.43	262.60
417.81	266.00
418.18	269.40
418.55	273.19
418.93	277.10
419.30	281.38
419.67	285.86
420.04	290.26
420.42	294.45
420.79	301.64
421.16	307.26
421.54	313.95
421.91	320.00
422.28	326.12
422.66	332.55
423.03	340.62
423.40	347.40
423.77	354.67
424.15	361.71
424.52	369.64
424.89	378.48
425.26	386.26
425.64	394.00
426.01	402.26
426.38	411.14
426.75	420.55
427.13	429.88
427.50	439.38
427.87	449.50
428.24	459.05
428.61	467.33
428.99	478.50
429.36	488.62
429.73	499.98
430.10	511.67
430.47	523.60
430.85	533.90
431.22	546.57
431.59	561.48
431.96	574.79
432.33	588.90
432.70	602.52
433.08	618.67
433.45	633.74
433.82	649.33
434.19	666.60
434.56	683.02
434.93	698.26
435.30	714.48
435.68	731.98
436.05	749.62
436.42	766.57
436.79	782.62
437.16	800.10
437.53	817.90
437.90	836.17
438.27	853.88
438.64	872.29
439.01	889.57
439.38	903.12
439.75	917.38
440.13	933.88
440.50	949.40
440.87	962.21
441.24	975.07
441.61	989.12
441.98	999.60
442.35	1011.74
442.72	1024.74
443.09	1037.93
443.46	1045.62
443.83	1051.00
444.20	1056.36
444.57	1062.07
444.94	1064.79
445.31	1068.21
445.68	1073.62
446.05	1074.48
446.42	1072.83
446.79	1071.74
447.16	1069.95
447.53	1068.93
447.90	1062.50
448.27	1056.45
448.64	1047.69
449.01	1042.21
449.37	1031.62
449.74	1020.81
450.11	1009.90
450.48	995.43
450.85	979.86
451.22	967.38
451.59	955.29
451.96	943.40
452.33	928.10
452.70	914.29
453.07	897.69
453.43	877.98
453.80	862.43
454.17	847.05
454.54	831.26
454.91	815.43
455.28	799.55
455.65	784.81
456.02	772.38
456.38	759.67
456.75	743.81
457.12	730.50
457.49	717.64
457.86	703.14
458.23	693.19
458.59	681.43
458.96	669.88
459.33	659.12
459.70	648.55
460.07	640.31
460.43	630.69
460.80	621.86
461.17	614.26
461.54	605.43
461.91	597.14
462.27	588.83
462.64	581.67
463.01	574.31
463.38	568.05
463.74	557.95
464.11	551.17
464.48	545.76
464.85	539.33
465.21	534.60
465.58	529.90
465.95	523.38
466.32	518.55
466.68	513.12
467.05	508.29
467.42	503.05
467.78	497.38
468.15	492.57
468.52	488.88
468.88	483.38
469.25	478.90
469.62	475.69
469.98	471.74
470.35	467.88
470.72	464.26
471.08	459.29
471.45	456.40
471.82	454.26
472.18	450.50
472.55	448.38
472.92	444.71
473.28	441.88
473.65	439.12
474.02	436.24
474.38	434.00
474.75	432.02
475.11	429.55
475.48	427.98
475.85	425.79
476.21	423.98
476.58	422.79
476.94	421.81
477.31	420.45
477.67	419.43
478.04	418.64
478.41	417.95
478.77	419.24
479.14	418.21
479.50	417.14
479.87	416.93
480.23	416.14
480.60	415.98
480.96	415.14
481.33	415.98
481.69	416.12
482.06	416.26
482.42	416.52
482.79	417.05
483.15	417.26
483.52	418.90
483.88	419.31
484.25	419.81
484.61	420.38
484.98	421.07
485.34	422.60
485.71	424.05
486.07	424.93
486.44	424.57
486.80	426.50
487.17	428.00
487.53	430.36
487.90	432.74
488.26	435.79
488.62	438.55
488.99	439.93
489.35	442.45
489.72	445.02
490.08	447.74
490.44	450.71
490.81	454.12
491.17	456.52
491.54	460.10
491.90	464.00
492.26	467.43
492.63	471.12
492.99	474.29
493.36	478.19
493.72	482.60
494.08	487.40
494.45	491.62
494.81	496.90
495.17	501.43
495.54	506.67
495.90	511.24
496.26	516.36
496.63	522.21
496.99	527.45
497.35	532.71
497.72	538.45
498.08	544.45
498.44	550.64
498.80	557.31
499.17	563.62
499.53	569.52
499.89	576.07
500.26	582.45
500.62	589.98
500.98	597.45
501.34	604.43
501.71	611.45
502.07	618.74
502.43	625.57
502.79	632.62
503.16	639.55
503.52	646.83
503.88	653.71
504.24	661.10
504.60	669.19
504.97	677.40
505.33	685.24
505.69	693.38
506.05	700.79
506.41	708.52
506.78	716.21
507.14	723.98
507.50	731.95
507.86	739.98
508.22	747.48
508.59	754.60
508.95	762.60
509.31	770.83
509.67	778.88
510.03	786.19
510.39	794.24
510.75	801.93
511.12	809.62
511.48	817.67
511.84	824.90
512.20	832.43
512.56	840.07
512.92	847.43
513.28	854.43
513.64	861.71
514.00	868.57
514.37	875.29
514.73	882.88
515.09	890.86
515.45	898.40
515.81	904.93
516.17	911.52
516.53	918.10
516.89	923.79
517.25	930.33
517.61	937.45
517.97	943.29
518.33	950.26
518.69	957.50
519.05	964.38
519.41	970.88
519.77	978.40
520.13	983.69
520.49	989.43
520.85	994.48
521.21	1001.02
521.57	1007.00
521.93	1012.31
522.29	1017.60
522.65	1022.33
523.01	1027.07
523.37	1032.79
523.73	1038.19
524.09	1043.36
524.45	1048.55
524.81	1053.43
525.17	1058.62
525.53	1064.07
525.89	1068.10
526.25	1071.83
526.61	1075.64
526.97	1080.33
527.33	1083.95
527.68	1090.60
528.04	1095.10
528.40	1099.48
528.76	1102.93
529.12	1107.98
529.48	1113.26
529.84	1118.07
530.20	1122.71
530.56	1127.67
530.91	1132.02
531.27	1136.62
531.63	1141.40
531.99	1145.29
532.35	1149.14
532.71	1152.26
533.07	1156.76
533.42	1162.67
533.78	1167.05
534.14	1171.88
534.50	1175.33
534.86	1179.79
535.21	1182.10
535.57	1186.38
535.93	1190.43
536.29	1195.31
536.65	1199.07
537.00	1202.19
537.36	1205.62
537.72	1208.62
538.08	1211.40
538.44	1214.33
538.79	1218.17
539.15	1220.26
539.51	1224.07
539.87	1227.86
540.22	1232.02
540.58	1234.98
540.94	1237.19
541.29	1240.21
541.65	1242.40
542.01	1246.05
542.37	1248.60
542.72	1251.31
543.08	1254.14
543.44	1258.26
543.79	1259.36
544.15	1262.05
544.51	1266.02
544.87	1268.45
545.22	1271.24
545.58	1274.40
545.94	1277.52
546.29	1280.10
546.65	1283.67
547.01	1286.88
547.36	1289.50
547.72	1292.24
548.07	1294.71
548.43	1296.57
548.79	1298.76
549.14	1301.74
549.50	1304.57
549.86	1305.95
550.21	1309.07
550.57	1312.17
550.92	1313.79
551.28	1317.86
551.64	1320.60
551.99	1323.29
552.35	1326.50
552.70	1329.38
553.06	1332.17
553.41	1334.67
553.77	1338.86
554.13	1342.55
554.48	1345.90
554.84	1350.21
555.19	1353.67
555.55	1358.86
555.90	1362.33
556.26	1366.55
556.61	1370.76
556.97	1374.17
557.32	1378.81
557.68	1382.17
558.03	1385.69
558.39	1389.71
558.74	1393.14
559.10	1397.05
559.45	1400.60
559.81	1404.83
560.16	1408.81
560.52	1412.95
560.87	1418.45
561.23	1421.55
561.58	1427.29
561.94	1431.50
562.29	1435.14
562.64	1440.12
563.00	1443.90
563.35	1449.19
563.71	1453.29
564.06	1457.71
564.42	1463.40
564.77	1469.07
565.12	1474.76
565.48	1481.88
565.83	1488.76
566.19	1495.26
566.54	1500.74
566.89	1506.02
567.25	1512.45
567.60	1520.19
567.96	1528.26
568.31	1535.43
568.66	1542.55
569.02	1546.93
569.37	1552.26
569.72	1558.02
570.08	1562.24
570.43	1566.93
570.78	1571.86
571.14	1578.17
571.49	1583.55
571.84	1588.33
572.20	1592.93
572.55	1598.74
572.90	1601.52
573.26	1605.24
573.61	1610.07
573.96	1615.12
574.31	1620.10
574.67	1624.07
575.02	1626.67
575.37	1628.69
575.72	1630.83
576.08	1634.26
576.43	1638.40
576.78	1641.98
577.13	1645.60
577.49	1650.21
577.84	1654.05
578.19	1658.60
578.54	1662.43
578.90	1666.17
579.25	1669.71
579.60	1673.50
579.95	1676.07
580.30	1679.60
580.66	1683.79
581.01	1687.02
581.36	1690.29
581.71	1692.95
582.06	1696.98
582.42	1701.67
582.77	1704.76
583.12	1708.40
583.47	1711.36
583.82	1714.00
584.17	1717.86
584.53	1721.24
584.88	1724.76
585.23	1728.81
585.58	1731.81
585.93	1733.26
586.28	1735.88
586.63	1738.36
586.98	1740.81
587.34	1744.43
587.69	1746.88
588.04	1748.57
588.39	1750.52
588.74	1751.36
589.09	1754.24
589.44	1754.88
589.79	1755.29
590.14	1757.02
590.49	1758.21
590.84	1758.38
591.19	1760.60
591.54	1761.71
591.89	1763.07
592.25	1765.83
592.60	1766.21
592.95	1767.12
593.30	1770.36
593.65	1771.67
594.00	1772.19
594.35	1779.29
594.70	1778.64
595.05	1780.40
595.40	1781.07
595.75	1780.71
596.10	1782.12
596.45	1782.69
596.80	1784.02
597.15	1785.43
597.50	1785.36
597.85	1786.21
598.19	1787.45
598.54	1786.45
598.89	1785.90
599.24	1786.52
599.59	1785.10
599.94	1785.31
600.29	1785.93
600.64	1784.45
600.99	1784.60
601.34	1786.26
601.69	1779.79
602.04	1779.33
602.39	1778.12
602.74	1778.98
603.08	1779.10
603.43	1780.10
603.78	1780.21
604.13	1779.88
604.48	1778.76
604.83	1779.93
605.18	1779.52
605.53	1779.10
605.87	1778.31
606.22	1777.98
606.57	1776.55
606.92	1775.17
607.27	1774.19
607.62	1773.12
607.96	1772.67
608.31	1772.55
608.66	1769.74
609.01	1768.64
609.36	1767.98
609.70	1766.52
610.05	1763.64
610.40	1762.76
610.75	1759.71
611.10	1757.98
611.44	1754.74
611.79	1752.48
612.14	1749.02
612.49	1745.31
612.83	1742.45
613.18	1740.40
613.53	1736.83
613.88	1733.14
614.22	1729.38
614.57	1724.67
614.92	1719.76
615.27	1715.40
615.61	1710.24
615.96	1707.29
616.31	1703.48
616.65	1699.95
617.00	1697.50
617.35	1694.19
617.70	1689.69
618.04	1685.79
618.39	1680.76
618.74	1676.90
619.08	1672.50
619.43	1669.50
619.78	1666.33
620.12	1662.79
620.47	1659.10
620.82	1655.05
621.16	1651.57
621.51	1648.83
621.85	1645.31
622.20	1642.19
622.55	1638.24
622.89	1634.40
623.24	1631.19
623.59	1627.17
623.93	1623.26
624.28	1618.45
624.62	1616.64
624.97	1613.88
625.32	1609.69
625.66	1606.26
626.01	1602.50
626.35	1599.48
626.70	1595.29
627.04	1592.74
627.39	1587.81
627.73	1584.00
628.08	1581.83
628.43	1577.55
628.77	1572.48
629.12	1569.67
629.46	1565.81
629.81	1562.26
630.15	1557.31
630.50	1551.38
630.84	1546.40
631.19	1540.64
631.53	1535.79
631.88	1527.69
632.22	1521.31
632.57	1516.93
632.91	1511.05
633.26	1506.38
633.60	1500.81
633.95	1495.24
634.29	1488.17
634.64	1483.83
634.98	1477.69
635.32	1472.31
635.67	1468.88
636.01	1464.40
636.36	1458.45
636.70	1454.05
637.05	1448.64
637.39	1444.36
637.73	1440.33
638.08	1436.48
638.42	1431.88
638.77	1427.07
639.11	1422.83
639.45	1417.55
639.80	1412.31
640.14	1407.50
640.49	1402.17
640.83	1396.86
641.17	1392.43
641.52	1387.48
641.86	1382.24
642.20	1378.40
642.55	1371.79
642.89	1364.69
643.23	1359.17
643.58	1354.55
643.92	1347.67
644.26	1341.17
644.61	1335.76
644.95	1329.69
645.29	1322.26
645.64	1317.57
645.98	1311.81
646.32	1306.62
646.66	1301.36
647.01	1294.83
647.35	1289.38
647.69	1283.38
648.04	1278.19
648.38	1272.45
648.72	1267.00
649.06	1260.83
649.41	1253.69
649.75	1248.26
650.09	1241.88
650.43	1234.98
650.78	1227.69
651.12	1221.38
651.46	1215.14
651.80	1209.02
652.14	1202.86
652.49	1198.14
652.83	1191.14
653.17	1184.14
653.51	1177.14
653.85	1170.98
654.20	1164.98
654.54	1157.71
654.88	1150.79
655.22	1144.33
655.56	1136.48
655.90	1129.52
656.25	1123.24
656.59	1117.00
656.93	1110.76
657.27	1105.43
657.61	1099.60
657.95	1094.00
658.29	1087.98
658.64	1082.93
658.98	1075.98
659.32	1068.86
659.66	1061.40
660.00	1055.12
660.34	1048.95
660.68	1041.86
661.02	1035.14
661.36	1028.62
661.70	1022.83
662.05	1016.88
662.39	1010.93
662.73	1005.50
663.07	1000.50
663.41	993.38
663.75	986.31
664.09	980.07
664.43	973.14
664.77	967.07
665.11	960.36
665.45	954.76
665.79	948.76
666.13	942.50
666.47	937.02
666.81	931.31
667.15	924.90
667.49	919.71
667.83	915.12
668.17	908.95
668.51	903.02
668.85	897.90
669.19	893.14
669.53	886.95
669.87	880.93
670.21	874.31
670.55	868.88
670.89	864.57
671.23	859.33
671.57	854.12
671.91	848.90
672.25	843.33
672.58	838.21
672.92	832.07
673.26	826.83
673.60	821.55
673.94	816.17
674.28	811.69
674.62	806.48
674.96	801.33
675.30	796.57
675.64	792.00
675.97	786.24
676.31	780.76
676.65	775.00
676.99	771.43
677.33	766.00
677.67	762.05
678.01	756.69
678.34	751.48
678.68	747.02
679.02	742.00
679.36	736.90
679.70	731.43
680.04	727.14
680.37	722.24
680.71	717.40
681.05	713.14
681.39	708.26
681.73	703.07
682.06	698.14
682.40	693.45
682.74	689.05
683.08	685.33
683.42	680.31
683.75	676.33
684.09	670.83
684.43	666.29
684.77	660.74
685.10	656.33
685.44	652.00
685.78	646.88
686.12	641.83
686.45	637.62
686.79	632.69
687.13	628.36
687.46	624.43
687.80	621.14
688.14	616.62
688.48	612.60
688.81	608.38
689.15	604.38
689.49	600.07
689.82	596.19
690.16	591.24
690.50	587.02
690.83	582.79
691.17	578.26
691.51	574.33
691.84	570.76
692.18	566.60
692.52	562.57
692.85	559.19
693.19	556.57
693.52	552.81
693.86	549.10
694.20	544.98
694.53	541.24
694.87	536.31
695.21	532.33
695.54	528.48
695.88	524.31
696.21	519.98
696.55	516.79
696.88	512.81
697.22	509.02
697.56	505.98
697.89	502.00
698.23	498.83
698.56	495.45
698.90	492.67
699.23	489.02
699.57	485.60
699.90	482.02
700.24	478.17
700.58	474.79
700.91	472.24
701.25	470.81
701.58	468.36
701.92	466.02
702.25	462.93
702.59	459.60
702.92	457.00
703.26	454.52
703.59	451.24
703.93	450.00
704.26	447.71
704.60	444.88
704.93	442.26
705.26	439.33
705.60	437.19
705.93	433.57
706.27	431.52
706.60	429.52
706.94	427.90
707.27	424.98
707.61	422.81
707.94	419.81
708.27	415.71
708.61	412.31
708.94	409.67
709.28	407.74
709.61	405.10
709.94	402.81
710.28	400.45
710.61	398.38
710.95	394.19
711.28	393.17
711.61	390.93
711.95	389.36
712.28	386.83
712.61	384.48
712.95	383.86
713.28	382.64
713.61	380.19
713.95	377.57
714.28	375.60
714.61	373.29
714.95	371.19
715.28	369.19
715.61	367.38
715.95	365.52
716.28	363.33
716.61	362.10
716.95	360.17
717.28	358.17
717.61	356.12
717.94	354.29
718.28	350.93
718.61	349.10
718.94	347.05
719.27	345.81
719.61	344.38
719.94	342.02
720.27	339.21
720.60	337.26
720.94	335.19
721.27	333.81
721.60	333.07
721.93	331.81
722.27	331.07
722.60	329.64
722.93	327.71
723.26	326.52
723.59	324.90
723.93	323.36
724.26	322.45
724.59	321.24
724.92	320.29
725.25	319.71
725.59	318.36
725.92	317.43
726.25	316.14
726.58	314.71
726.91	313.50
727.24	312.69
727.57	311.55
727.91	310.17
728.24	309.00
728.57	307.24
728.90	306.24
729.23	304.67
729.56	304.24
729.89	303.52
730.22	302.24
730.55	301.26
730.89	300.50
731.22	299.12
731.55	298.02
731.88	297.02
732.21	295.83
732.54	294.86
732.87	293.93
733.20	292.88
733.53	292.07
733.86	291.02
734.19	289.83
734.52	289.43
734.85	290.12
735.18	289.12
735.51	289.07
735.84	288.21
736.17	287.79
736.50	286.19
736.83	287.67
737.16	287.00
737.49	286.24
737.82	285.43
738.15	284.55
738.48	283.67
738.81	282.62
739.14	281.43
739.47	280.40
739.80	279.52
740.13	279.12
740.46	277.88
740.79	277.07
741.12	276.17
741.45	274.98
741.78	273.33
742.11	273.10
742.44	271.79
742.77	271.50
743.10	270.43
743.43	269.98
743.75	267.07
744.08	269.02
744.41	268.02
744.74	267.24
745.07	266.69
745.40	266.71
745.73	266.95
746.06	266.48
746.39	266.05
746.71	264.98
747.04	263.74
747.37	263.31
747.70	262.83
748.03	262.55
748.36	262.33
748.68	261.52
749.01	260.40
749.34	259.76
749.67	259.00
750.00	258.90
750.33	259.71
750.65	259.43
750.98	256.31
751.31	256.00
751.64	255.40
751.97	256.00
752.29	255.33
752.62	253.81
752.95	253.02
753.28	252.36
753.60	252.07
753.93	252.52
754.26	252.17
754.59	251.21
754.91	250.50
755.24	249.81
755.57	249.55
755.90	249.19
756.22	248.38
756.55	247.69
756.88	246.69
757.20	244.83
757.53	243.69
757.86	243.33
758.19	242.95
758.51	242.50
758.84	240.98
759.17	240.55
759.49	240.62
759.82	241.45
760.15	241.43
760.47	241.10
760.80	240.00
761.13	240.05
761.45	239.55
761.78	239.21
762.11	238.86
762.43	238.33
762.76	237.86
763.08	238.10
763.41	237.93
763.74	237.81
764.06	237.60
764.39	237.52
764.71	237.00
765.04	236.67
765.37	236.21
765.69	235.95
766.02	235.64
766.34	235.26
766.67	234.19
767.00	234.14
767.32	234.98
767.65	236.14
767.97	235.50
768.30	235.40
768.62	235.31
768.95	235.10
769.27	234.74
769.60	234.74
769.92	234.24
770.25	233.76
770.57	233.33
770.90	233.05
771.22	232.55
771.55	232.71
771.87	232.55
772.20	232.24
772.52	233.83
772.85	235.95
773.17	235.76
773.50	235.79
773.82	235.21
774.15	234.14
774.47	232.48
774.80	232.10
775.12	232.05
775.45	231.74
775.77	231.60
776.09	231.81
776.42	232.07
776.74	232.45
777.07	232.26
777.39	231.95
777.72	231.71
778.04	231.98
778.36	231.55
778.69	231.29
779.01	231.36
779.33	229.21
779.66	226.81
779.98	226.55
780.31	226.10
780.63	226.95
780.95	227.05
781.28	227.05
781.60	226.88
781.92	226.71
782.25	226.64
782.57	226.50
782.89	226.05
783.22	225.29
783.54	224.71
783.86	224.93
784.19	224.81
784.51	225.31
784.83	224.90
785.16	224.64
