SpectraSuite Data File
++++++++++++++++++++++++++++++++++++
Date: Tue Apr 02 18:42:30 EDT 2013
User: group
Dark Spectrum Present: No
Reference Spectrum Present: No
Number of Sampled Component Spectra: 1
Spectrometers: USB2E7196
Integration Time (usec): 580000 (USB2E7196)
Spectra Averaged: 2 (USB2E7196)
Boxcar Smoothing: 10 (USB2E7196)
Correct for Electrical Dark: No (USB2E7196)
Strobe/Lamp Enabled: No (USB2E7196)
Correct for Detector Non-linearity: No (USB2E7196)
Correct for Stray Light: No (USB2E7196)
Number of Pixels in Processed Spectrum: 2048
>>>>>Begin Processed Spectral Data<<<<<
339.09	0.00
339.48	196.00
339.86	193.00
340.24	194.00
340.63	201.00
341.01	230.50
341.39	201.00
341.78	208.50
342.16	212.50
342.54	205.00
342.93	197.10
343.31	206.88
343.69	207.29
344.07	207.95
344.46	208.88
344.84	209.43
345.22	208.43
345.60	209.00
345.99	209.07
346.37	208.79
346.75	208.86
347.13	208.93
347.52	209.14
347.90	209.93
348.28	210.02
348.66	210.69
349.05	210.21
349.43	210.38
349.81	210.55
350.19	210.79
350.57	211.00
350.96	211.48
351.34	211.71
351.72	212.05
352.10	211.98
352.48	211.79
352.87	211.67
353.25	211.62
353.63	211.38
354.01	211.40
354.39	211.81
354.77	211.98
355.15	212.50
355.54	212.00
355.92	211.40
356.30	211.50
356.68	212.64
357.06	212.74
357.44	212.36
357.82	212.67
358.20	213.69
358.58	213.62
358.97	213.67
359.35	214.12
359.73	214.48
360.11	214.64
360.49	214.67
360.87	214.71
361.25	214.98
361.63	215.76
362.01	215.90
362.39	215.69
362.77	215.86
363.15	216.00
363.53	216.14
363.91	216.29
364.29	216.31
364.67	214.48
365.05	214.52
365.43	214.69
365.81	214.64
366.19	214.90
366.57	215.69
366.95	215.50
367.33	215.05
367.71	214.81
368.09	215.24
368.47	215.31
368.85	215.29
369.23	215.71
369.61	214.81
369.99	215.43
370.37	215.81
370.75	216.71
371.13	216.31
371.51	216.07
371.89	216.26
372.27	216.40
372.65	216.48
373.03	216.43
373.41	216.36
373.78	216.29
374.16	214.98
374.54	214.45
374.92	214.31
375.30	214.45
375.68	213.98
376.06	214.17
376.44	214.19
376.82	214.33
377.19	214.26
377.57	214.33
377.95	213.62
378.33	213.19
378.71	211.95
379.09	212.24
379.47	212.36
379.84	212.10
380.22	211.74
380.60	211.45
380.98	211.48
381.36	211.43
381.73	210.95
382.11	211.48
382.49	211.43
382.87	211.38
383.25	211.17
383.62	213.86
384.00	213.36
384.38	213.26
384.76	213.71
385.13	214.33
385.51	214.52
385.89	214.31
386.27	214.45
386.64	214.86
387.02	214.74
387.40	214.81
387.78	215.07
388.15	215.21
388.53	215.19
388.91	215.17
389.29	215.19
389.66	215.64
390.04	215.12
390.42	215.45
390.79	215.40
391.17	215.50
391.55	213.14
391.92	212.90
392.30	213.00
392.68	212.45
393.05	212.24
393.43	212.14
393.81	212.19
394.18	211.86
394.56	212.00
394.94	212.40
395.31	212.10
395.69	212.71
396.06	213.00
396.44	213.31
396.82	213.07
397.19	214.21
397.57	214.21
397.95	214.64
398.32	214.19
398.70	214.79
399.07	215.14
399.45	215.24
399.82	215.62
400.20	215.45
400.58	215.48
400.95	214.76
401.33	215.26
401.70	217.21
402.08	217.50
402.45	217.33
402.83	217.62
403.20	218.07
403.58	217.74
403.95	218.17
404.33	218.76
404.71	219.24
405.08	220.50
405.46	220.79
405.83	221.26
406.21	221.50
406.58	221.74
406.96	222.07
407.33	222.45
407.70	223.10
408.08	225.45
408.45	226.36
408.83	227.26
409.20	227.67
409.58	226.83
409.95	228.02
410.33	229.05
410.70	229.43
411.08	230.69
411.45	231.64
411.82	232.64
412.20	233.95
412.57	236.21
412.95	235.67
413.32	237.55
413.69	239.12
414.07	241.21
414.44	242.93
414.82	244.88
415.19	247.60
415.56	249.74
415.94	251.07
416.31	253.95
416.68	256.83
417.06	260.07
417.43	263.74
417.81	267.45
418.18	271.38
418.55	275.33
418.93	279.17
419.30	283.76
419.67	287.95
420.04	292.43
420.42	296.83
420.79	304.26
421.16	309.52
421.54	316.14
421.91	322.26
422.28	328.71
422.66	335.19
423.03	342.90
423.40	350.31
423.77	357.60
424.15	364.55
424.52	372.31
424.89	381.40
425.26	389.05
425.64	396.62
426.01	404.67
426.38	413.57
426.75	423.62
427.13	432.64
427.50	442.83
427.87	452.83
428.24	462.98
428.61	471.26
428.99	482.74
429.36	493.52
429.73	504.57
430.10	516.14
430.47	528.14
430.85	539.14
431.22	551.62
431.59	566.36
431.96	579.48
432.33	593.60
432.70	607.12
433.08	623.02
433.45	638.40
433.82	654.26
434.19	671.00
434.56	687.36
434.93	703.36
435.30	718.60
435.68	736.76
436.05	753.95
436.42	771.12
436.79	787.38
437.16	804.98
437.53	822.95
437.90	840.60
438.27	858.76
438.64	876.48
439.01	892.98
439.38	907.31
439.75	922.45
440.13	939.55
440.50	955.45
440.87	969.33
441.24	982.36
441.61	997.14
441.98	1008.21
442.35	1020.40
442.72	1033.29
443.09	1046.88
443.46	1054.12
443.83	1059.74
444.20	1064.71
444.57	1070.40
444.94	1073.45
445.31	1077.71
445.68	1083.86
446.05	1085.05
446.42	1083.98
446.79	1083.71
447.16	1081.26
447.53	1080.64
447.90	1074.57
448.27	1067.93
448.64	1058.90
449.01	1052.69
449.37	1040.90
449.74	1030.12
450.11	1018.52
450.48	1004.21
450.85	988.45
451.22	975.93
451.59	963.55
451.96	951.67
452.33	935.81
452.70	921.67
453.07	904.17
453.43	884.33
453.80	867.48
454.17	851.71
454.54	835.52
454.91	819.10
455.28	801.93
455.65	786.83
456.02	775.40
456.38	762.50
456.75	747.24
457.12	734.12
457.49	721.02
457.86	706.86
458.23	695.95
458.59	684.48
458.96	672.21
459.33	661.60
459.70	650.48
460.07	642.14
460.43	632.00
460.80	623.07
461.17	615.45
461.54	607.40
461.91	599.00
462.27	590.86
462.64	583.90
463.01	576.50
463.38	569.64
463.74	558.40
464.11	551.50
464.48	545.64
464.85	539.12
465.21	534.79
465.58	529.81
465.95	523.57
466.32	518.43
466.68	513.19
467.05	508.00
467.42	503.57
467.78	498.29
468.15	493.60
468.52	489.62
468.88	484.17
469.25	479.79
469.62	476.71
469.98	472.71
470.35	469.19
470.72	465.76
471.08	461.02
471.45	458.40
471.82	455.79
472.18	452.31
472.55	449.90
472.92	446.21
473.28	443.24
473.65	440.57
474.02	437.67
474.38	436.00
474.75	434.24
475.11	431.50
475.48	429.88
475.85	428.24
476.21	426.29
476.58	424.86
476.94	423.43
477.31	422.33
477.67	421.17
478.04	419.76
478.41	419.00
478.77	420.45
479.14	419.52
479.50	418.88
479.87	418.38
480.23	418.02
480.60	417.45
480.96	416.90
481.33	417.38
481.69	417.26
482.06	416.71
482.42	416.88
482.79	417.69
483.15	418.05
483.52	418.83
483.88	419.55
484.25	419.86
484.61	420.55
484.98	421.07
485.34	422.81
485.71	424.62
486.07	425.88
486.44	425.21
486.80	426.62
487.17	427.98
487.53	430.26
487.90	432.52
488.26	435.55
488.62	438.88
488.99	440.52
489.35	443.43
489.72	446.19
490.08	448.88
490.44	451.62
490.81	454.81
491.17	457.33
491.54	460.83
491.90	464.76
492.26	468.33
492.63	472.14
492.99	475.71
493.36	479.60
493.72	483.88
494.08	488.93
494.45	493.95
494.81	499.07
495.17	503.64
495.54	508.64
495.90	513.40
496.26	518.12
496.63	523.67
496.99	529.26
497.35	535.50
497.72	541.40
498.08	547.45
498.44	553.67
498.80	560.76
499.17	567.10
499.53	573.36
499.89	580.50
500.26	586.81
500.62	593.21
500.98	600.79
501.34	607.55
501.71	614.86
502.07	621.40
502.43	628.57
502.79	635.48
503.16	642.57
503.52	649.90
503.88	656.95
504.24	664.74
504.60	672.62
504.97	680.14
505.33	687.79
505.69	695.98
506.05	703.43
506.41	710.48
506.78	718.31
507.14	725.90
507.50	733.64
507.86	741.38
508.22	749.86
508.59	757.12
508.95	765.21
509.31	773.62
509.67	781.45
510.03	788.74
510.39	796.64
510.75	804.24
511.12	811.90
511.48	820.05
511.84	827.83
512.20	835.05
512.56	842.26
512.92	849.69
513.28	857.45
513.64	864.69
514.00	872.40
514.37	879.31
514.73	887.36
515.09	894.69
515.45	901.62
515.81	907.86
516.17	914.88
516.53	921.17
516.89	926.74
517.25	933.60
517.61	940.31
517.97	946.93
518.33	953.71
518.69	960.67
519.05	967.07
519.41	972.79
519.77	979.86
520.13	985.74
520.49	991.98
520.85	997.07
521.21	1004.14
521.57	1009.60
521.93	1014.90
522.29	1020.19
522.65	1025.48
523.01	1032.29
523.37	1037.48
523.73	1042.67
524.09	1048.52
524.45	1053.31
524.81	1058.02
525.17	1064.00
525.53	1068.38
525.89	1072.14
526.25	1076.40
526.61	1079.93
526.97	1084.69
527.33	1089.21
527.68	1095.55
528.04	1099.50
528.40	1103.98
528.76	1108.33
529.12	1112.57
529.48	1118.02
529.84	1122.12
530.20	1126.43
530.56	1129.74
530.91	1134.90
531.27	1139.57
531.63	1144.33
531.99	1149.02
532.35	1153.17
532.71	1156.48
533.07	1161.55
533.42	1169.19
533.78	1173.67
534.14	1178.69
534.50	1183.45
534.86	1187.26
535.21	1190.07
535.57	1195.48
535.93	1199.24
536.29	1203.33
536.65	1208.05
537.00	1210.71
537.36	1214.67
537.72	1218.40
538.08	1222.12
538.44	1224.67
538.79	1227.74
539.15	1230.79
539.51	1234.43
539.87	1238.38
540.22	1242.31
540.58	1245.67
540.94	1246.79
541.29	1250.12
541.65	1252.43
542.01	1255.93
542.37	1258.93
542.72	1261.26
543.08	1263.17
543.44	1266.67
543.79	1268.07
544.15	1270.43
544.51	1273.93
544.87	1277.36
545.22	1280.40
545.58	1283.40
545.94	1287.00
546.29	1289.31
546.65	1291.19
547.01	1293.71
547.36	1296.55
547.72	1299.19
548.07	1302.00
548.43	1304.12
548.79	1306.50
549.14	1309.69
549.50	1312.86
549.86	1314.48
550.21	1317.33
550.57	1320.98
550.92	1323.64
551.28	1327.38
551.64	1330.24
551.99	1333.60
552.35	1336.24
552.70	1338.48
553.06	1341.95
553.41	1344.29
553.77	1350.00
554.13	1354.36
554.48	1358.48
554.84	1362.55
555.19	1366.14
555.55	1371.93
555.90	1374.98
556.26	1378.95
556.61	1382.88
556.97	1385.21
557.32	1390.17
557.68	1394.50
558.03	1397.45
558.39	1401.86
558.74	1405.69
559.10	1410.19
559.45	1414.95
559.81	1419.24
560.16	1423.52
560.52	1427.29
560.87	1432.38
561.23	1434.43
561.58	1439.81
561.94	1442.36
562.29	1446.64
562.64	1450.64
563.00	1452.81
563.35	1458.60
563.71	1463.76
564.06	1469.19
564.42	1474.19
564.77	1480.86
565.12	1487.05
565.48	1494.40
565.83	1499.74
566.19	1506.07
566.54	1511.12
566.89	1516.07
567.25	1522.26
567.60	1529.52
567.96	1537.86
568.31	1544.64
568.66	1551.55
569.02	1556.02
569.37	1563.38
569.72	1568.57
570.08	1573.76
570.43	1579.02
570.78	1584.19
571.14	1589.10
571.49	1594.14
571.84	1599.95
572.20	1603.55
572.55	1608.48
572.90	1612.21
573.26	1615.90
573.61	1619.33
573.96	1624.31
574.31	1628.36
574.67	1631.93
575.02	1634.90
575.37	1636.90
575.72	1639.43
576.08	1643.12
576.43	1646.05
576.78	1649.19
577.13	1653.00
577.49	1655.62
577.84	1659.64
578.19	1664.05
578.54	1668.02
578.90	1671.88
579.25	1674.81
579.60	1677.29
579.95	1679.48
580.30	1682.19
580.66	1686.36
581.01	1690.19
581.36	1693.05
581.71	1696.88
582.06	1700.52
582.42	1704.14
582.77	1706.79
583.12	1711.00
583.47	1714.33
583.82	1717.95
584.17	1721.26
584.53	1724.19
584.88	1728.07
585.23	1731.52
585.58	1732.81
585.93	1734.24
586.28	1736.29
586.63	1739.36
586.98	1742.88
587.34	1747.19
587.69	1749.93
588.04	1752.19
588.39	1753.64
588.74	1754.21
589.09	1755.07
589.44	1754.40
589.79	1755.93
590.14	1758.00
590.49	1758.60
590.84	1759.38
591.19	1761.29
591.54	1762.62
591.89	1762.86
592.25	1766.64
592.60	1766.62
592.95	1768.33
593.30	1770.33
593.65	1771.64
594.00	1771.76
594.35	1777.50
594.70	1775.86
595.05	1776.79
595.40	1776.76
595.75	1778.21
596.10	1780.43
596.45	1781.17
596.80	1784.24
597.15	1785.24
597.50	1785.26
597.85	1786.45
598.19	1786.19
598.54	1786.26
598.89	1786.29
599.24	1788.62
599.59	1787.55
599.94	1788.10
600.29	1788.55
600.64	1788.17
600.99	1787.57
601.34	1788.40
601.69	1783.10
602.04	1783.10
602.39	1781.19
602.74	1781.14
603.08	1780.57
603.43	1780.48
603.78	1780.43
604.13	1779.60
604.48	1777.76
604.83	1778.17
605.18	1777.64
605.53	1778.31
605.87	1777.40
606.22	1776.29
606.57	1773.60
606.92	1771.21
607.27	1769.98
607.62	1769.05
607.96	1768.62
608.31	1768.12
608.66	1766.00
609.01	1763.26
609.36	1763.10
609.70	1761.90
610.05	1759.86
610.40	1757.50
610.75	1754.79
611.10	1753.26
611.44	1750.40
611.79	1748.86
612.14	1745.02
612.49	1741.19
612.83	1737.83
613.18	1734.88
613.53	1731.17
613.88	1727.74
614.22	1725.48
614.57	1720.79
614.92	1716.00
615.27	1711.81
615.61	1706.69
615.96	1702.90
616.31	1699.83
616.65	1695.86
617.00	1692.17
617.35	1688.48
617.70	1684.88
618.04	1680.79
618.39	1675.95
618.74	1671.93
619.08	1666.83
619.43	1663.10
619.78	1659.24
620.12	1654.90
620.47	1650.52
620.82	1646.62
621.16	1642.17
621.51	1638.33
621.85	1634.90
622.20	1630.79
622.55	1625.57
622.89	1622.29
623.24	1618.40
623.59	1613.93
623.93	1609.38
624.28	1605.81
624.62	1603.93
624.97	1600.81
625.32	1596.64
625.66	1592.43
626.01	1587.81
626.35	1584.40
626.70	1580.40
627.04	1577.07
627.39	1572.67
627.73	1569.00
628.08	1566.05
628.43	1562.17
628.77	1557.40
629.12	1554.19
629.46	1550.43
629.81	1546.93
630.15	1541.86
630.50	1536.69
630.84	1532.45
631.19	1527.00
631.53	1521.79
631.88	1513.90
632.22	1506.74
632.57	1502.76
632.91	1497.40
633.26	1492.88
633.60	1487.12
633.95	1481.36
634.29	1475.29
634.64	1470.52
634.98	1464.69
635.32	1459.14
635.67	1454.98
636.01	1450.00
636.36	1443.60
636.70	1438.90
637.05	1433.38
637.39	1428.71
637.73	1424.64
638.08	1420.05
638.42	1415.48
638.77	1410.64
639.11	1406.31
639.45	1401.64
639.80	1395.74
640.14	1390.62
640.49	1384.45
640.83	1379.00
641.17	1374.26
641.52	1368.48
641.86	1362.60
642.20	1358.36
642.55	1352.17
642.89	1346.29
643.23	1339.67
643.58	1335.19
643.92	1328.02
644.26	1322.29
644.61	1316.02
644.95	1309.31
645.29	1302.29
645.64	1295.86
645.98	1289.02
646.32	1283.00
646.66	1276.93
647.01	1270.38
647.35	1264.67
647.69	1259.74
648.04	1253.95
648.38	1247.14
648.72	1241.55
649.06	1235.24
649.41	1228.43
649.75	1221.95
650.09	1215.07
650.43	1209.19
650.78	1202.14
651.12	1196.33
651.46	1189.90
651.80	1183.62
652.14	1177.19
652.49	1171.69
652.83	1165.14
653.17	1158.79
653.51	1151.76
653.85	1145.79
654.20	1138.90
654.54	1131.57
654.88	1124.02
655.22	1118.55
655.56	1111.40
655.90	1104.17
656.25	1096.86
656.59	1090.43
656.93	1084.12
657.27	1078.57
657.61	1071.19
657.95	1064.64
658.29	1058.81
658.64	1052.52
658.98	1045.79
659.32	1039.14
659.66	1032.36
660.00	1025.74
660.34	1019.19
660.68	1012.79
661.02	1005.74
661.36	1000.00
661.70	994.19
662.05	988.12
662.39	981.60
662.73	976.79
663.07	971.81
663.41	966.48
663.75	959.52
664.09	953.45
664.43	946.74
664.77	940.81
665.11	934.81
665.45	928.71
665.79	922.71
666.13	917.19
666.47	911.50
666.81	905.90
667.15	900.33
667.49	895.43
667.83	890.74
668.17	884.62
668.51	879.12
668.85	874.10
669.19	869.17
669.53	862.21
669.87	856.07
670.21	849.86
670.55	844.21
670.89	840.33
671.23	835.10
671.57	829.43
671.91	824.79
672.25	819.67
672.58	814.69
672.92	808.83
673.26	803.12
673.60	797.86
673.94	792.24
674.28	787.40
674.62	782.48
674.96	776.69
675.30	772.55
675.64	767.31
675.97	761.81
676.31	756.50
676.65	752.40
676.99	748.10
677.33	743.38
677.67	738.69
678.01	733.02
678.34	728.24
678.68	723.95
679.02	718.62
679.36	713.67
679.70	708.12
680.04	703.26
680.37	698.50
680.71	693.55
681.05	689.40
681.39	684.60
681.73	679.21
682.06	674.62
682.40	669.90
682.74	665.90
683.08	661.79
683.42	657.05
683.75	652.38
684.09	647.40
684.43	642.79
684.77	637.98
685.10	633.14
685.44	628.62
685.78	623.95
686.12	619.57
686.45	615.31
686.79	611.38
687.13	607.90
687.46	603.64
687.80	600.40
688.14	596.07
688.48	592.14
688.81	588.38
689.15	585.07
689.49	581.05
689.82	577.05
690.16	572.14
690.50	568.24
690.83	563.90
691.17	559.52
691.51	555.33
691.84	551.98
692.18	547.86
692.52	543.76
692.85	540.50
693.19	537.67
693.52	534.05
693.86	530.12
694.20	526.00
694.53	522.71
694.87	518.19
695.21	513.95
695.54	510.19
695.88	506.07
696.21	501.52
696.55	497.69
696.88	493.95
697.22	490.69
697.56	487.55
697.89	484.36
698.23	481.33
698.56	478.36
698.90	475.19
699.23	471.81
699.57	468.83
699.90	465.31
700.24	461.69
700.58	458.60
700.91	455.86
701.25	454.81
701.58	452.67
701.92	450.29
702.25	447.62
702.59	444.64
702.92	442.19
703.26	439.74
703.59	437.45
703.93	436.21
704.26	433.81
704.60	431.17
704.93	428.57
705.26	425.90
705.60	423.74
705.93	420.55
706.27	418.93
706.60	417.12
706.94	415.14
707.27	412.31
707.61	409.55
707.94	406.86
708.27	402.52
708.61	399.52
708.94	397.48
709.28	395.33
709.61	393.07
709.94	390.93
710.28	388.67
710.61	386.52
710.95	382.69
711.28	382.05
711.61	379.86
711.95	377.98
712.28	375.98
712.61	373.40
712.95	372.43
713.28	371.00
713.61	368.45
713.95	366.00
714.28	364.57
714.61	362.95
714.95	360.86
715.28	359.00
715.61	356.88
715.95	354.50
716.28	352.50
716.61	350.79
716.95	348.74
717.28	346.93
717.61	344.57
717.94	342.79
718.28	339.38
718.61	337.40
718.94	335.43
719.27	333.64
719.61	332.26
719.94	330.07
720.27	327.55
720.60	325.60
720.94	324.14
721.27	322.71
721.60	321.52
721.93	320.07
722.27	319.50
722.60	318.26
722.93	316.88
723.26	315.88
723.59	314.40
723.93	313.40
724.26	312.12
724.59	311.19
724.92	310.36
725.25	310.02
725.59	309.05
725.92	308.38
726.25	307.38
726.58	306.45
726.91	305.62
727.24	304.95
727.57	304.10
727.91	302.83
728.24	301.67
728.57	300.00
728.90	299.33
729.23	297.57
729.56	297.64
729.89	296.79
730.22	295.43
730.55	294.40
730.89	293.48
731.22	292.64
731.55	291.48
731.88	290.62
732.21	289.29
732.54	288.40
732.87	287.31
733.20	286.60
733.53	285.40
733.86	284.50
734.19	283.05
734.52	282.67
734.85	283.24
735.18	282.24
735.51	282.43
735.84	281.69
736.17	281.55
736.50	279.79
736.83	281.33
737.16	280.95
737.49	280.36
737.82	279.57
738.15	279.00
738.48	278.48
738.81	277.52
739.14	276.21
739.47	275.19
739.80	274.52
740.13	273.95
740.46	273.02
740.79	272.02
741.12	271.69
741.45	270.48
741.78	268.69
742.11	268.57
742.44	267.45
742.77	267.45
743.10	266.52
743.43	265.67
743.75	263.02
744.08	264.69
744.41	263.90
744.74	263.12
745.07	262.21
745.40	261.90
745.73	262.19
746.06	261.86
746.39	261.69
746.71	261.10
747.04	260.21
747.37	259.76
747.70	259.62
748.03	259.17
748.36	259.05
748.68	258.50
749.01	257.60
749.34	256.95
749.67	256.07
750.00	255.83
750.33	257.00
750.65	256.64
750.98	253.64
751.31	253.21
751.64	252.86
751.97	253.60
752.29	253.05
752.62	251.86
752.95	251.33
753.28	250.81
753.60	250.21
753.93	250.38
754.26	249.90
754.59	248.83
754.91	247.98
755.24	247.29
755.57	246.95
755.90	246.45
756.22	245.76
756.55	245.10
756.88	244.33
757.20	242.62
757.53	241.69
757.86	241.67
758.19	241.38
758.51	240.93
758.84	239.36
759.17	239.02
759.49	238.60
759.82	239.31
760.15	239.17
760.47	238.69
760.80	237.76
761.13	237.95
761.45	237.76
761.78	237.43
762.11	237.07
762.43	236.50
762.76	236.07
763.08	236.17
763.41	236.02
763.74	235.64
764.06	235.19
764.39	235.19
764.71	234.93
765.04	234.62
765.37	234.26
765.69	234.29
766.02	233.76
766.34	233.45
766.67	232.21
767.00	232.21
767.32	233.14
767.65	234.07
767.97	233.67
768.30	233.52
768.62	233.38
768.95	233.26
769.27	233.24
769.60	233.55
769.92	232.90
770.25	232.33
770.57	232.00
770.90	231.98
771.22	231.52
771.55	230.90
771.87	230.90
772.20	230.67
772.52	232.24
772.85	234.50
773.17	234.36
773.50	234.40
773.82	233.88
774.15	233.02
774.47	231.52
774.80	231.05
775.12	230.60
775.45	230.26
775.77	230.07
776.09	229.88
776.42	229.40
776.74	230.12
777.07	229.93
777.39	229.95
777.72	229.38
778.04	229.10
778.36	228.98
778.69	228.86
779.01	228.95
779.33	226.79
779.66	224.33
779.98	223.88
780.31	223.79
780.63	224.50
780.95	224.45
781.28	224.43
781.60	224.40
781.92	224.45
782.25	224.38
782.57	224.12
782.89	223.74
783.22	223.55
783.54	222.71
783.86	222.81
784.19	222.50
784.51	223.12
784.83	222.90
785.16	222.88
