SpectraSuite Data File
++++++++++++++++++++++++++++++++++++
Date: Tue Apr 02 18:39:49 EDT 2013
User: group
Dark Spectrum Present: No
Reference Spectrum Present: No
Number of Sampled Component Spectra: 1
Spectrometers: USB2E7196
Integration Time (usec): 580000 (USB2E7196)
Spectra Averaged: 2 (USB2E7196)
Boxcar Smoothing: 10 (USB2E7196)
Correct for Electrical Dark: No (USB2E7196)
Strobe/Lamp Enabled: No (USB2E7196)
Correct for Detector Non-linearity: No (USB2E7196)
Correct for Stray Light: No (USB2E7196)
Number of Pixels in Processed Spectrum: 2048
>>>>>Begin Processed Spectral Data<<<<<
339.09	0.00
339.48	194.00
339.86	193.50
340.24	201.00
340.63	198.50
341.01	233.00
341.39	201.00
341.78	212.00
342.16	215.00
342.54	207.50
342.93	199.62
343.31	209.48
343.69	209.90
344.07	210.38
344.46	211.10
344.84	211.79
345.22	210.64
345.60	211.05
345.99	211.02
346.37	210.86
346.75	210.86
347.13	211.05
347.52	210.83
347.90	211.50
348.28	211.48
348.66	211.86
349.05	211.12
349.43	211.69
349.81	211.71
350.19	211.86
350.57	212.00
350.96	212.07
351.34	212.52
351.72	212.98
352.10	213.36
352.48	212.98
352.87	212.67
353.25	212.57
353.63	212.48
354.01	212.31
354.39	212.31
354.77	212.31
355.15	212.67
355.54	212.52
355.92	211.86
356.30	211.83
356.68	213.19
357.06	213.26
357.44	212.67
357.82	212.64
358.20	213.43
358.58	213.36
358.97	213.31
359.35	213.50
359.73	213.81
360.11	213.83
360.49	213.88
360.87	214.10
361.25	214.31
361.63	215.21
362.01	215.48
362.39	215.36
362.77	215.52
363.15	215.45
363.53	215.67
363.91	216.00
364.29	215.95
364.67	213.93
365.05	214.14
365.43	214.36
365.81	214.79
366.19	215.02
366.57	215.64
366.95	215.69
367.33	215.14
367.71	215.00
368.09	215.24
368.47	215.48
368.85	215.45
369.23	215.90
369.61	215.07
369.99	215.57
370.37	215.79
370.75	216.88
371.13	216.45
371.51	216.12
371.89	216.17
372.27	216.40
372.65	216.50
373.03	216.33
373.41	216.24
373.78	215.93
374.16	214.76
374.54	214.26
374.92	214.05
375.30	214.26
375.68	213.98
376.06	214.05
376.44	213.79
376.82	213.86
377.19	213.74
377.57	213.74
377.95	213.26
378.33	213.36
378.71	212.02
379.09	212.50
379.47	213.07
379.84	212.90
380.22	212.71
380.60	212.55
380.98	212.50
381.36	212.71
381.73	212.81
382.11	213.24
382.49	213.21
382.87	212.95
383.25	213.00
383.62	215.36
384.00	215.02
384.38	215.14
384.76	215.62
385.13	216.31
385.51	216.55
385.89	216.33
386.27	216.33
386.64	216.79
387.02	216.67
387.40	216.36
387.78	216.62
388.15	216.71
388.53	216.71
388.91	216.86
389.29	216.71
389.66	216.79
390.04	216.64
390.42	217.14
390.79	217.12
391.17	217.02
391.55	214.81
391.92	214.90
392.30	215.19
392.68	214.71
393.05	214.71
393.43	214.60
393.81	214.55
394.18	214.31
394.56	214.55
394.94	214.74
395.31	214.50
395.69	214.86
396.06	215.19
396.44	215.14
396.82	214.88
397.19	215.81
397.57	215.79
397.95	216.21
398.32	215.67
398.70	216.00
399.07	216.52
399.45	216.31
399.82	216.36
400.20	216.29
400.58	216.14
400.95	215.14
401.33	215.55
401.70	217.17
402.08	217.00
402.45	216.79
402.83	217.52
403.20	218.00
403.58	218.10
403.95	218.57
404.33	219.05
404.71	219.69
405.08	220.79
405.46	221.17
405.83	221.50
406.21	221.95
406.58	222.50
406.96	222.74
407.33	223.55
407.70	224.10
408.08	226.19
408.45	227.60
408.83	228.95
409.20	229.38
409.58	228.98
409.95	230.55
410.33	231.76
410.70	231.79
411.08	232.93
411.45	234.02
411.82	234.74
412.20	236.36
412.57	238.76
412.95	238.67
413.32	240.52
413.69	242.12
414.07	243.83
414.44	245.86
414.82	248.19
415.19	250.71
415.56	253.14
415.94	254.69
416.31	257.62
416.68	260.74
417.06	264.38
417.43	268.26
417.81	271.74
418.18	275.62
418.55	280.07
418.93	284.45
419.30	288.90
419.67	294.05
420.04	299.17
420.42	303.74
420.79	311.43
421.16	317.50
421.54	325.00
421.91	332.00
422.28	338.69
422.66	345.38
423.03	353.62
423.40	361.36
423.77	369.24
424.15	376.81
424.52	385.07
424.89	394.93
425.26	403.26
425.64	411.62
426.01	420.69
426.38	430.38
426.75	440.71
427.13	451.10
427.50	461.24
427.87	472.10
428.24	483.21
428.61	492.38
428.99	504.43
429.36	515.67
429.73	527.60
430.10	540.50
430.47	553.71
430.85	565.86
431.22	579.43
431.59	595.21
431.96	608.57
432.33	624.24
432.70	638.95
433.08	656.67
433.45	673.67
433.82	690.52
434.19	709.17
434.56	727.62
434.93	744.36
435.30	762.26
435.68	781.07
436.05	799.64
436.42	818.17
436.79	835.07
437.16	854.40
437.53	874.48
437.90	893.86
438.27	912.69
438.64	932.14
439.01	950.76
439.38	966.26
439.75	983.60
440.13	1001.50
440.50	1018.05
440.87	1032.50
441.24	1046.93
441.61	1062.40
441.98	1074.07
442.35	1086.88
442.72	1101.12
443.09	1115.67
443.46	1123.57
443.83	1129.31
444.20	1134.81
444.57	1141.50
444.94	1144.21
445.31	1147.83
445.68	1153.55
446.05	1155.76
446.42	1154.31
446.79	1153.71
447.16	1151.12
447.53	1149.40
447.90	1142.55
448.27	1136.07
448.64	1126.98
449.01	1119.86
449.37	1107.90
449.74	1095.81
450.11	1083.17
450.48	1066.67
450.85	1049.02
451.22	1036.14
451.59	1023.12
451.96	1010.52
452.33	994.10
452.70	978.07
453.07	959.17
453.43	937.81
453.80	919.69
454.17	902.24
454.54	884.76
454.91	867.36
455.28	849.50
455.65	833.31
456.02	820.07
456.38	805.12
456.75	788.38
457.12	773.88
457.49	759.64
457.86	744.38
458.23	733.95
458.59	721.14
458.96	707.74
459.33	696.21
459.70	684.57
460.07	675.07
460.43	665.48
460.80	656.14
461.17	648.10
461.54	638.83
461.91	630.33
462.27	621.33
462.64	613.31
463.01	605.83
463.38	598.31
463.74	587.17
464.11	580.14
464.48	574.07
464.85	566.88
465.21	562.38
465.58	556.79
465.95	549.45
466.32	544.00
466.68	538.50
467.05	532.48
467.42	526.64
467.78	520.98
468.15	515.19
468.52	511.17
468.88	505.17
469.25	500.07
469.62	496.60
469.98	492.24
470.35	488.48
470.72	484.48
471.08	479.86
471.45	476.50
471.82	473.48
472.18	469.26
472.55	466.64
472.92	462.57
473.28	459.83
473.65	456.90
474.02	453.62
474.38	451.31
474.75	449.60
475.11	447.57
475.48	445.55
475.85	443.71
476.21	441.45
476.58	440.31
476.94	438.95
477.31	437.29
477.67	436.10
478.04	435.24
478.41	434.17
478.77	435.29
479.14	434.02
479.50	433.26
479.87	433.10
480.23	433.14
480.60	432.67
480.96	432.12
481.33	433.40
481.69	433.90
482.06	433.86
482.42	434.33
482.79	434.69
483.15	434.98
483.52	436.00
483.88	436.43
484.25	436.93
484.61	438.07
484.98	438.93
485.34	440.52
485.71	441.95
486.07	443.48
486.44	443.24
486.80	444.93
487.17	446.60
487.53	449.24
487.90	451.48
488.26	454.55
488.62	457.93
488.99	459.33
489.35	462.00
489.72	464.90
490.08	467.88
490.44	470.69
490.81	474.60
491.17	478.17
491.54	482.21
491.90	486.40
492.26	490.55
492.63	495.21
492.99	499.21
493.36	503.74
493.72	508.69
494.08	513.57
494.45	518.95
494.81	524.48
495.17	529.52
495.54	535.12
495.90	539.98
496.26	545.40
496.63	551.62
496.99	558.17
497.35	564.12
497.72	570.29
498.08	576.60
498.44	583.05
498.80	590.05
499.17	596.74
499.53	603.31
499.89	610.43
500.26	617.19
500.62	624.43
500.98	632.17
501.34	639.50
501.71	647.64
502.07	655.79
502.43	663.26
502.79	671.17
503.16	679.19
503.52	687.64
503.88	694.98
504.24	703.19
504.60	711.95
504.97	721.45
505.33	730.36
505.69	740.10
506.05	748.74
506.41	757.10
506.78	765.88
507.14	774.64
507.50	783.81
507.86	793.19
508.22	802.36
508.59	811.40
508.95	820.14
509.31	829.93
509.67	838.71
510.03	847.81
510.39	856.45
510.75	865.45
511.12	874.48
511.48	884.24
511.84	892.93
512.20	901.71
512.56	910.40
512.92	919.26
513.28	928.12
513.64	936.88
514.00	945.40
514.37	953.67
514.73	962.71
515.09	971.33
515.45	979.24
515.81	987.62
516.17	995.17
516.53	1003.12
516.89	1009.81
517.25	1017.60
517.61	1026.24
517.97	1033.76
518.33	1041.48
518.69	1049.14
519.05	1056.33
519.41	1064.60
519.77	1072.52
520.13	1079.48
520.49	1085.69
520.85	1092.19
521.21	1100.14
521.57	1108.17
521.93	1114.69
522.29	1121.83
522.65	1128.40
523.01	1135.43
523.37	1142.00
523.73	1149.38
524.09	1155.62
524.45	1162.12
524.81	1168.07
525.17	1174.79
525.53	1181.14
525.89	1186.90
526.25	1192.71
526.61	1198.48
526.97	1203.50
527.33	1209.07
527.68	1216.14
528.04	1222.48
528.40	1228.55
528.76	1234.02
529.12	1239.33
529.48	1246.40
529.84	1250.93
530.20	1256.60
530.56	1262.83
530.91	1268.52
531.27	1273.98
531.63	1280.62
531.99	1285.79
532.35	1291.29
532.71	1295.98
533.07	1302.26
533.42	1310.26
533.78	1316.05
534.14	1322.69
534.50	1328.76
534.86	1334.60
535.21	1339.14
535.57	1345.07
535.93	1349.12
536.29	1354.88
536.65	1360.36
537.00	1364.79
537.36	1370.40
537.72	1375.07
538.08	1379.19
538.44	1383.48
538.79	1388.38
539.15	1392.86
539.51	1397.98
539.87	1403.45
540.22	1408.36
540.58	1412.62
540.94	1414.71
541.29	1419.55
541.65	1422.38
542.01	1427.57
542.37	1431.24
542.72	1434.52
543.08	1437.98
543.44	1443.00
543.79	1445.14
544.15	1449.00
544.51	1453.14
544.87	1457.62
545.22	1462.24
545.58	1466.19
545.94	1470.14
546.29	1473.64
546.65	1476.67
547.01	1480.36
547.36	1483.81
547.72	1486.86
548.07	1490.67
548.43	1494.83
548.79	1498.12
549.14	1502.00
549.50	1504.38
549.86	1507.69
550.21	1511.88
550.57	1515.98
550.92	1518.69
551.28	1523.50
551.64	1527.12
551.99	1530.86
552.35	1533.17
552.70	1535.98
553.06	1540.57
553.41	1543.90
553.77	1548.29
554.13	1552.93
554.48	1557.29
554.84	1561.76
555.19	1566.36
555.55	1572.21
555.90	1576.19
556.26	1580.55
556.61	1584.48
556.97	1588.98
557.32	1592.95
557.68	1596.55
558.03	1600.45
558.39	1605.31
558.74	1608.69
559.10	1612.67
559.45	1616.81
559.81	1622.62
560.16	1626.83
560.52	1630.76
560.87	1636.29
561.23	1640.69
561.58	1646.31
561.94	1650.71
562.29	1654.83
562.64	1659.62
563.00	1662.31
563.35	1666.69
563.71	1671.07
564.06	1676.33
564.42	1680.98
564.77	1686.33
565.12	1691.10
565.48	1698.36
565.83	1703.07
566.19	1709.12
566.54	1713.38
566.89	1717.98
567.25	1723.07
567.60	1730.12
567.96	1737.00
568.31	1742.00
568.66	1746.52
569.02	1750.17
569.37	1754.29
569.72	1758.31
570.08	1761.57
570.43	1765.43
570.78	1768.57
571.14	1772.55
571.49	1775.90
571.84	1779.88
572.20	1783.05
572.55	1787.05
572.90	1788.50
573.26	1792.00
573.61	1793.38
573.96	1797.36
574.31	1800.62
574.67	1802.33
575.02	1803.31
575.37	1804.07
575.72	1804.69
576.08	1806.76
576.43	1808.33
576.78	1809.88
577.13	1811.79
577.49	1814.17
577.84	1816.02
578.19	1818.26
578.54	1820.43
578.90	1822.45
579.25	1822.50
579.60	1822.67
579.95	1823.29
580.30	1824.43
580.66	1824.64
581.01	1826.71
581.36	1827.26
581.71	1828.62
582.06	1830.90
582.42	1830.98
582.77	1830.29
583.12	1831.69
583.47	1831.76
583.82	1831.93
584.17	1832.79
584.53	1833.43
584.88	1833.33
585.23	1834.36
585.58	1834.69
585.93	1833.55
586.28	1833.62
586.63	1834.02
586.98	1835.48
587.34	1836.19
587.69	1835.24
588.04	1835.98
588.39	1836.05
588.74	1833.64
589.09	1831.52
589.44	1828.19
589.79	1827.55
590.14	1826.52
590.49	1825.00
590.84	1822.88
591.19	1822.45
591.54	1820.90
591.89	1818.57
592.25	1818.81
592.60	1815.33
592.95	1813.90
593.30	1813.02
593.65	1809.76
594.00	1806.50
594.35	1809.38
594.70	1805.81
595.05	1803.95
595.40	1800.45
595.75	1796.76
596.10	1795.83
596.45	1794.64
596.80	1793.40
597.15	1791.98
597.50	1789.76
597.85	1788.76
598.19	1786.71
598.54	1783.86
598.89	1781.48
599.24	1779.93
599.59	1775.00
599.94	1773.88
600.29	1771.14
600.64	1768.07
600.99	1766.69
601.34	1766.21
601.69	1757.21
602.04	1755.02
602.39	1751.52
602.74	1750.26
603.08	1747.86
603.43	1746.36
603.78	1744.05
604.13	1740.93
604.48	1736.76
604.83	1734.33
605.18	1730.21
605.53	1727.48
605.87	1723.05
606.22	1719.14
606.57	1715.69
606.92	1712.45
607.27	1709.12
607.62	1705.71
607.96	1702.48
608.31	1699.14
608.66	1694.76
609.01	1691.43
609.36	1688.60
609.70	1684.88
610.05	1679.79
610.40	1676.55
610.75	1670.90
611.10	1665.45
611.44	1659.67
611.79	1654.24
612.14	1649.05
612.49	1643.88
612.83	1639.29
613.18	1634.83
613.53	1630.07
613.88	1623.95
614.22	1618.67
614.57	1612.02
614.92	1605.93
615.27	1600.31
615.61	1593.36
615.96	1586.88
616.31	1581.40
616.65	1575.71
617.00	1570.74
617.35	1565.38
617.70	1559.21
618.04	1554.14
618.39	1548.26
618.74	1543.45
619.08	1537.69
619.43	1531.76
619.78	1526.86
620.12	1521.38
620.47	1516.36
620.82	1510.81
621.16	1505.05
621.51	1500.12
621.85	1494.17
622.20	1488.69
622.55	1481.95
622.89	1476.36
623.24	1471.71
623.59	1466.10
623.93	1459.83
624.28	1453.79
624.62	1450.43
624.97	1445.45
625.32	1438.88
625.66	1433.86
626.01	1428.33
626.35	1423.81
626.70	1418.26
627.04	1412.50
627.39	1406.00
627.73	1400.26
628.08	1394.79
628.43	1388.98
628.77	1383.17
629.12	1377.55
629.46	1371.31
629.81	1367.05
630.15	1361.86
630.50	1355.57
630.84	1349.07
631.19	1342.38
631.53	1335.19
631.88	1325.74
632.22	1317.55
632.57	1311.98
632.91	1304.93
633.26	1298.90
633.60	1292.12
633.95	1285.93
634.29	1278.74
634.64	1272.52
634.98	1265.50
635.32	1259.48
635.67	1253.83
636.01	1246.93
636.36	1240.81
636.70	1236.10
637.05	1229.12
637.39	1222.60
637.73	1216.79
638.08	1211.64
638.42	1206.02
638.77	1201.31
639.11	1195.95
639.45	1190.74
639.80	1184.14
640.14	1178.07
640.49	1171.50
640.83	1165.17
641.17	1159.05
641.52	1153.17
641.86	1146.69
642.20	1141.71
642.55	1134.43
642.89	1128.29
643.23	1122.00
643.58	1116.33
643.92	1108.98
644.26	1101.83
644.61	1095.50
644.95	1088.36
645.29	1080.76
645.64	1074.38
645.98	1067.21
646.32	1060.76
646.66	1053.88
647.01	1046.55
647.35	1040.33
647.69	1033.76
648.04	1027.90
648.38	1021.90
648.72	1015.93
649.06	1009.83
649.41	1002.00
649.75	995.76
650.09	989.02
650.43	982.86
650.78	976.74
651.12	969.76
651.46	963.07
651.80	956.88
652.14	951.10
652.49	945.48
652.83	939.69
653.17	933.24
653.51	927.02
653.85	920.90
654.20	915.40
654.54	908.93
654.88	902.57
655.22	896.64
655.56	889.50
655.90	883.21
656.25	877.00
656.59	871.21
656.93	865.40
657.27	860.12
657.61	854.05
657.95	848.05
658.29	842.74
658.64	837.90
658.98	831.67
659.32	825.38
659.66	819.50
660.00	813.36
660.34	808.00
660.68	802.43
661.02	796.62
661.36	790.95
661.70	785.71
662.05	780.76
662.39	775.88
662.73	771.50
663.07	767.19
663.41	761.83
663.75	757.12
664.09	752.05
664.43	745.76
664.77	740.21
665.11	733.71
665.45	728.10
665.79	722.88
666.13	717.98
666.47	713.29
666.81	708.07
667.15	702.60
667.49	698.19
667.83	693.52
668.17	689.10
668.51	684.17
668.85	679.57
669.19	675.74
669.53	669.64
669.87	663.95
670.21	658.07
670.55	653.00
670.89	648.57
671.23	643.43
671.57	639.45
671.91	635.43
672.25	631.90
672.58	628.79
672.92	624.55
673.26	620.21
673.60	615.83
673.94	611.71
674.28	607.67
674.62	603.14
674.96	599.12
675.30	595.48
675.64	591.71
675.97	587.62
676.31	583.02
676.65	579.05
676.99	576.62
677.33	572.74
677.67	569.69
678.01	565.57
678.34	562.45
678.68	559.12
679.02	555.17
679.36	550.95
679.70	546.19
680.04	542.31
680.37	538.86
680.71	534.81
681.05	531.12
681.39	527.83
681.73	524.50
682.06	520.98
682.40	517.17
682.74	513.93
683.08	511.14
683.42	507.05
683.75	504.36
684.09	499.86
684.43	496.38
684.77	492.52
685.10	489.05
685.44	485.50
685.78	482.07
686.12	478.64
686.45	475.71
686.79	472.45
687.13	469.43
687.46	466.05
687.80	463.83
688.14	460.79
688.48	457.95
688.81	454.69
689.15	452.33
689.49	449.00
689.82	445.98
690.16	441.81
690.50	439.33
690.83	436.00
691.17	432.71
691.51	429.95
691.84	427.50
692.18	424.64
692.52	422.07
692.85	419.57
693.19	417.69
693.52	415.31
693.86	412.79
694.20	410.43
694.53	408.10
694.87	405.26
695.21	402.64
695.54	400.17
695.88	397.60
696.21	394.14
696.55	391.98
696.88	389.69
697.22	387.79
697.56	385.83
697.89	383.52
698.23	381.95
698.56	379.60
698.90	377.93
699.23	375.81
699.57	373.71
699.90	371.33
700.24	369.07
700.58	366.93
700.91	365.26
701.25	364.67
701.58	363.05
701.92	361.86
702.25	360.12
702.59	358.00
702.92	356.19
703.26	354.50
703.59	352.88
703.93	352.62
704.26	351.14
704.60	349.55
704.93	347.98
705.26	346.02
705.60	344.88
705.93	342.57
706.27	341.79
706.60	340.55
706.94	339.98
707.27	337.86
707.61	336.24
707.94	334.86
708.27	331.88
708.61	330.07
708.94	328.29
709.28	327.19
709.61	325.83
709.94	324.62
710.28	323.31
710.61	321.81
710.95	318.67
711.28	318.67
711.61	317.36
711.95	316.48
712.28	315.29
712.61	313.88
712.95	313.57
713.28	312.98
713.61	311.57
713.95	309.64
714.28	308.74
714.61	307.81
714.95	306.38
715.28	304.93
715.61	303.71
715.95	302.64
716.28	301.12
716.61	300.45
716.95	299.12
717.28	297.79
717.61	296.52
717.94	295.57
718.28	292.93
718.61	291.48
718.94	290.17
719.27	289.24
719.61	288.31
719.94	286.90
720.27	284.74
720.60	283.26
720.94	282.14
721.27	281.24
721.60	280.50
721.93	279.40
722.27	279.29
722.60	278.52
722.93	277.21
723.26	276.67
723.59	275.45
723.93	275.19
724.26	274.83
724.59	274.14
724.92	273.69
725.25	273.50
725.59	273.00
725.92	272.31
726.25	271.64
726.58	271.14
726.91	270.38
727.24	269.81
727.57	269.36
727.91	268.60
728.24	268.31
728.57	267.29
728.90	267.10
729.23	265.76
729.56	266.07
729.89	265.60
730.22	264.74
730.55	264.02
730.89	263.10
731.22	262.26
731.55	261.76
731.88	261.12
732.21	260.43
732.54	259.69
732.87	259.17
733.20	258.76
733.53	258.19
733.86	257.93
734.19	257.52
734.52	257.43
734.85	258.38
735.18	257.50
735.51	257.60
735.84	257.26
736.17	257.60
736.50	256.19
736.83	258.12
737.16	257.81
737.49	257.33
737.82	256.64
738.15	256.57
738.48	255.98
738.81	255.62
739.14	254.95
739.47	254.24
739.80	253.67
740.13	253.38
740.46	252.60
740.79	251.74
741.12	251.05
741.45	250.36
741.78	248.76
742.11	249.02
742.44	248.33
742.77	248.24
743.10	247.48
743.43	247.00
743.75	244.50
744.08	246.86
744.41	246.43
744.74	246.26
745.07	245.55
745.40	245.57
745.73	246.10
746.06	245.60
746.39	245.79
746.71	245.64
747.04	245.07
747.37	244.74
747.70	244.93
748.03	244.83
748.36	244.71
748.68	244.45
749.01	243.48
749.34	243.31
749.67	242.90
750.00	243.10
750.33	244.45
750.65	244.38
750.98	241.31
751.31	241.19
751.64	241.02
751.97	241.86
752.29	241.29
752.62	240.00
752.95	239.86
753.28	239.31
753.60	238.76
753.93	238.95
754.26	238.67
754.59	237.86
754.91	237.36
755.24	236.81
755.57	236.19
755.90	235.90
756.22	235.48
756.55	234.60
756.88	233.52
757.20	231.81
757.53	231.00
757.86	230.88
758.19	230.88
758.51	230.67
758.84	229.38
759.17	229.40
759.49	229.19
759.82	229.98
760.15	230.21
760.47	230.07
760.80	229.14
761.13	229.45
761.45	228.98
761.78	228.81
762.11	229.05
762.43	229.02
762.76	228.98
763.08	228.93
763.41	229.00
763.74	228.90
764.06	228.71
764.39	228.48
764.71	228.19
765.04	227.81
765.37	227.45
765.69	227.38
766.02	226.98
766.34	226.79
766.67	225.64
767.00	225.48
767.32	226.45
767.65	227.86
767.97	227.60
768.30	227.83
768.62	227.86
768.95	227.31
769.27	227.29
769.60	227.33
769.92	226.88
770.25	226.60
770.57	226.50
770.90	226.19
771.22	225.98
771.55	226.07
771.87	225.88
772.20	225.45
772.52	226.90
772.85	229.12
773.17	228.93
773.50	228.90
773.82	228.45
774.15	227.40
774.47	225.83
774.80	225.64
775.12	225.79
775.45	225.67
775.77	225.69
776.09	225.62
776.42	225.62
776.74	226.26
777.07	225.74
777.39	225.52
777.72	225.67
778.04	225.98
778.36	225.60
778.69	225.79
779.01	225.90
779.33	224.02
779.66	221.83
779.98	221.74
780.31	221.45
780.63	222.02
780.95	222.29
781.28	222.31
781.60	221.88
781.92	221.38
782.25	221.19
782.57	221.17
782.89	220.81
783.22	220.40
783.54	219.79
783.86	220.21
784.19	220.02
784.51	220.60
784.83	220.31
785.16	220.26
785.48	220.12
