SpectraSuite Data File
++++++++++++++++++++++++++++++++++++
Date: Tue Apr 02 18:44:38 EDT 2013
User: group
Dark Spectrum Present: No
Reference Spectrum Present: No
Number of Sampled Component Spectra: 1
Spectrometers: USB2E7196
Integration Time (usec): 580000 (USB2E7196)
Spectra Averaged: 2 (USB2E7196)
Boxcar Smoothing: 10 (USB2E7196)
Correct for Electrical Dark: No (USB2E7196)
Strobe/Lamp Enabled: No (USB2E7196)
Correct for Detector Non-linearity: No (USB2E7196)
Correct for Stray Light: No (USB2E7196)
Number of Pixels in Processed Spectrum: 2048
>>>>>Begin Processed Spectral Data<<<<<
339.09	0.00
339.48	194.50
339.86	195.00
340.24	199.00
340.63	197.00
341.01	233.50
341.39	200.00
341.78	208.00
342.16	209.50
342.54	200.00
342.93	197.36
343.31	207.17
343.69	207.55
344.07	207.95
344.46	208.64
344.84	209.31
345.22	208.00
345.60	208.48
345.99	208.38
346.37	208.38
346.75	208.76
347.13	208.83
347.52	208.50
347.90	209.12
348.28	209.31
348.66	209.88
349.05	209.26
349.43	209.62
349.81	209.69
350.19	209.83
350.57	209.95
350.96	210.02
351.34	210.14
351.72	210.38
352.10	210.48
352.48	209.98
352.87	209.93
353.25	209.93
353.63	209.95
354.01	210.00
354.39	210.05
354.77	210.00
355.15	210.57
355.54	210.88
355.92	210.31
356.30	210.38
356.68	211.52
357.06	211.83
357.44	211.57
357.82	211.57
358.20	212.45
358.58	212.45
358.97	212.71
359.35	213.36
359.73	213.90
360.11	213.79
360.49	214.21
360.87	214.10
361.25	214.38
361.63	215.12
362.01	215.48
362.39	215.36
362.77	215.57
363.15	215.48
363.53	215.38
363.91	215.55
364.29	215.50
364.67	213.74
365.05	213.83
365.43	213.98
365.81	214.31
366.19	214.57
366.57	215.43
366.95	215.29
367.33	214.76
367.71	214.50
368.09	215.17
368.47	215.07
368.85	215.17
369.23	215.69
369.61	214.83
369.99	215.36
370.37	215.71
370.75	216.79
371.13	216.36
371.51	216.10
371.89	216.14
372.27	216.29
372.65	216.36
373.03	216.36
373.41	216.24
373.78	216.31
374.16	215.12
374.54	214.48
374.92	214.29
375.30	214.40
375.68	214.31
376.06	214.52
376.44	214.48
376.82	214.57
377.19	214.38
377.57	214.36
377.95	213.67
378.33	213.67
378.71	212.43
379.09	212.69
379.47	213.00
379.84	212.83
380.22	212.67
380.60	212.43
380.98	212.38
381.36	212.43
381.73	212.05
382.11	212.64
382.49	212.55
382.87	212.57
383.25	212.40
383.62	214.71
384.00	214.00
384.38	214.26
384.76	214.74
385.13	215.38
385.51	215.48
385.89	215.57
386.27	215.55
386.64	216.10
387.02	215.86
387.40	215.62
387.78	215.83
388.15	216.02
388.53	215.95
388.91	215.90
389.29	215.86
389.66	216.17
390.04	215.81
390.42	216.19
390.79	216.07
391.17	216.00
391.55	213.67
391.92	213.90
392.30	214.00
392.68	213.52
393.05	213.48
393.43	213.60
393.81	213.48
394.18	213.17
394.56	212.93
394.94	213.43
395.31	213.40
395.69	214.14
396.06	214.21
396.44	214.29
396.82	214.33
397.19	215.38
397.57	215.19
397.95	215.60
398.32	215.26
398.70	215.76
399.07	216.38
399.45	216.50
399.82	216.17
400.20	216.02
400.58	216.02
400.95	215.05
401.33	215.48
401.70	217.07
402.08	216.98
402.45	217.07
402.83	217.79
403.20	218.31
403.58	218.12
403.95	218.76
404.33	219.29
404.71	219.57
405.08	220.71
405.46	221.12
405.83	221.52
406.21	222.02
406.58	222.19
406.96	222.36
407.33	222.83
407.70	223.90
408.08	226.10
408.45	227.05
408.83	228.31
409.20	228.62
409.58	228.24
409.95	229.71
410.33	230.64
410.70	230.83
411.08	231.52
411.45	232.40
411.82	233.14
412.20	234.95
412.57	237.43
412.95	237.17
413.32	238.93
413.69	240.17
414.07	241.69
414.44	243.74
414.82	245.93
415.19	248.26
415.56	250.24
415.94	251.40
416.31	254.21
416.68	256.81
417.06	260.17
417.43	263.57
417.81	266.69
418.18	270.31
418.55	273.83
418.93	278.14
419.30	282.45
419.67	286.79
420.04	291.19
420.42	295.12
420.79	302.07
421.16	307.55
421.54	314.21
421.91	320.14
422.28	326.19
422.66	332.62
423.03	340.48
423.40	347.60
423.77	354.83
424.15	361.81
424.52	369.19
424.89	377.88
425.26	385.19
425.64	392.64
426.01	401.07
426.38	409.79
426.75	419.17
427.13	428.19
427.50	437.93
427.87	447.88
428.24	458.19
428.61	466.50
428.99	477.83
429.36	488.24
429.73	499.52
430.10	510.83
430.47	522.69
430.85	533.17
431.22	545.31
431.59	559.83
431.96	573.17
432.33	587.52
432.70	601.14
433.08	617.62
433.45	633.36
433.82	648.24
434.19	665.29
434.56	681.67
434.93	697.76
435.30	713.31
435.68	730.62
436.05	746.95
436.42	764.36
436.79	779.79
437.16	797.12
437.53	814.57
437.90	832.86
438.27	849.83
438.64	868.21
439.01	885.62
439.38	898.90
439.75	913.55
440.13	930.17
440.50	945.57
440.87	958.62
441.24	971.71
441.61	986.45
441.98	997.21
442.35	1009.38
442.72	1022.02
443.09	1035.60
443.46	1042.64
443.83	1048.81
444.20	1053.33
444.57	1059.45
444.94	1062.69
445.31	1066.29
445.68	1071.24
446.05	1073.45
446.42	1071.86
446.79	1070.50
447.16	1069.05
447.53	1066.74
447.90	1060.10
448.27	1054.31
448.64	1044.93
449.01	1038.93
449.37	1027.43
449.74	1017.07
450.11	1005.79
450.48	990.98
450.85	975.24
451.22	963.33
451.59	951.33
451.96	939.64
452.33	924.07
452.70	910.19
453.07	893.48
453.43	873.93
453.80	857.05
454.17	841.50
454.54	826.26
454.91	810.24
455.28	794.93
455.65	780.43
456.02	768.50
456.38	756.07
456.75	740.45
457.12	727.83
457.49	714.81
457.86	700.21
458.23	690.55
458.59	678.64
458.96	665.90
459.33	654.86
459.70	644.12
460.07	635.64
460.43	625.90
460.80	617.31
461.17	610.31
461.54	601.93
461.91	593.95
462.27	586.14
462.64	578.93
463.01	571.83
463.38	565.95
463.74	555.24
464.11	548.64
464.48	542.69
464.85	536.24
465.21	531.67
465.58	527.24
465.95	520.26
466.32	515.81
466.68	511.19
467.05	506.21
467.42	501.33
467.78	496.40
468.15	491.29
468.52	487.33
468.88	481.40
469.25	477.14
469.62	473.69
469.98	469.43
470.35	466.29
470.72	462.55
471.08	457.60
471.45	455.07
471.82	451.98
472.18	448.71
472.55	446.31
472.92	442.31
473.28	439.05
473.65	436.21
474.02	433.31
474.38	431.69
474.75	430.12
475.11	427.76
475.48	426.17
475.85	424.19
476.21	422.57
476.58	421.71
476.94	420.31
477.31	418.50
477.67	416.86
478.04	416.00
478.41	415.26
478.77	416.33
479.14	415.07
479.50	415.07
479.87	415.17
480.23	414.86
480.60	415.10
480.96	415.00
481.33	415.95
481.69	415.76
482.06	415.38
482.42	415.38
482.79	416.05
483.15	416.02
483.52	417.17
483.88	417.69
484.25	418.31
484.61	419.19
484.98	420.38
485.34	422.33
485.71	423.17
486.07	424.52
486.44	424.02
486.80	425.57
487.17	427.07
487.53	429.24
487.90	431.40
488.26	434.50
488.62	437.48
488.99	439.40
489.35	442.10
489.72	444.62
490.08	447.24
490.44	450.14
490.81	453.62
491.17	456.98
491.54	460.67
491.90	464.14
492.26	467.40
492.63	471.48
492.99	474.81
493.36	478.50
493.72	483.55
494.08	487.60
494.45	492.24
494.81	496.88
495.17	500.95
495.54	506.02
495.90	509.95
496.26	514.52
496.63	520.12
496.99	525.33
497.35	531.00
497.72	536.93
498.08	542.38
498.44	548.17
498.80	555.19
499.17	561.05
499.53	567.14
499.89	574.40
500.26	580.26
500.62	587.07
500.98	594.98
501.34	601.00
501.71	609.17
502.07	616.45
502.43	623.50
502.79	630.02
503.16	637.00
503.52	644.69
503.88	651.76
504.24	659.05
504.60	666.71
504.97	674.69
505.33	682.57
505.69	690.81
506.05	699.29
506.41	706.07
506.78	714.07
507.14	721.88
507.50	729.86
507.86	738.33
508.22	746.21
508.59	752.98
508.95	761.12
509.31	769.90
509.67	777.40
510.03	785.36
510.39	793.62
510.75	801.38
511.12	809.31
511.48	817.60
511.84	825.14
512.20	832.38
512.56	839.88
512.92	847.31
513.28	854.95
513.64	861.38
514.00	869.00
514.37	875.60
514.73	882.90
515.09	890.29
515.45	896.48
515.81	903.21
516.17	910.43
516.53	916.21
516.89	920.71
517.25	927.36
517.61	934.33
517.97	941.21
518.33	947.90
518.69	954.17
519.05	959.86
519.41	966.02
519.77	973.83
520.13	979.79
520.49	985.21
520.85	991.21
521.21	998.19
521.57	1003.33
521.93	1009.33
522.29	1014.57
522.65	1018.98
523.01	1025.29
523.37	1030.64
523.73	1036.02
524.09	1041.07
524.45	1046.14
524.81	1050.62
525.17	1055.19
525.53	1059.74
525.89	1063.93
526.25	1068.55
526.61	1072.64
526.97	1076.55
527.33	1080.19
527.68	1085.67
528.04	1090.21
528.40	1093.95
528.76	1097.52
529.12	1102.00
529.48	1105.86
529.84	1109.86
530.20	1114.33
530.56	1118.40
530.91	1123.48
531.27	1127.38
531.63	1132.69
531.99	1137.07
532.35	1140.62
532.71	1144.67
533.07	1149.24
533.42	1155.86
533.78	1159.48
534.14	1164.60
534.50	1169.05
534.86	1173.60
535.21	1176.12
535.57	1180.02
535.93	1183.74
536.29	1188.57
536.65	1192.52
537.00	1196.50
537.36	1200.90
537.72	1204.33
538.08	1207.57
538.44	1210.12
538.79	1213.52
539.15	1215.67
539.51	1219.40
539.87	1223.45
540.22	1226.74
540.58	1229.50
540.94	1230.02
541.29	1233.00
541.65	1234.81
542.01	1237.83
542.37	1239.69
542.72	1242.57
543.08	1244.74
543.44	1247.40
543.79	1247.83
544.15	1251.00
544.51	1254.17
544.87	1256.95
545.22	1260.40
545.58	1263.69
545.94	1266.00
546.29	1268.95
546.65	1272.05
547.01	1274.55
547.36	1277.02
547.72	1279.14
548.07	1281.93
548.43	1285.02
548.79	1287.64
549.14	1290.95
549.50	1294.10
549.86	1296.88
550.21	1299.48
550.57	1303.00
550.92	1305.36
551.28	1309.83
551.64	1312.33
551.99	1314.95
552.35	1317.43
552.70	1319.81
553.06	1323.05
553.41	1325.88
553.77	1330.83
554.13	1334.60
554.48	1338.69
554.84	1342.88
555.19	1346.64
555.55	1352.24
555.90	1356.12
556.26	1359.57
556.61	1363.26
556.97	1366.00
557.32	1370.02
557.68	1374.12
558.03	1377.21
558.39	1381.43
558.74	1385.31
559.10	1389.74
559.45	1394.05
559.81	1398.21
560.16	1402.26
560.52	1405.64
560.87	1410.95
561.23	1413.86
561.58	1419.71
561.94	1422.83
562.29	1426.50
562.64	1431.55
563.00	1434.43
563.35	1439.21
563.71	1444.38
564.06	1449.83
564.42	1455.52
564.77	1461.86
565.12	1467.93
565.48	1475.62
565.83	1482.60
566.19	1487.86
566.54	1492.52
566.89	1497.79
567.25	1504.64
567.60	1512.00
567.96	1519.93
568.31	1526.17
568.66	1532.71
569.02	1536.95
569.37	1543.26
569.72	1549.33
570.08	1554.21
570.43	1559.33
570.78	1564.60
571.14	1570.48
571.49	1575.60
571.84	1581.60
572.20	1585.45
572.55	1589.76
572.90	1592.43
573.26	1596.26
573.61	1600.71
573.96	1606.48
574.31	1611.43
574.67	1614.31
575.02	1617.38
575.37	1620.00
575.72	1622.90
576.08	1625.67
576.43	1628.43
576.78	1631.86
577.13	1635.45
577.49	1639.31
577.84	1644.14
578.19	1647.95
578.54	1651.45
578.90	1655.45
579.25	1658.76
579.60	1662.12
579.95	1665.79
580.30	1670.12
580.66	1674.36
581.01	1678.60
581.36	1680.55
581.71	1683.64
582.06	1688.52
582.42	1692.21
582.77	1695.48
583.12	1699.50
583.47	1702.93
583.82	1707.21
584.17	1710.69
584.53	1715.05
584.88	1717.95
585.23	1720.29
585.58	1722.79
585.93	1725.19
586.28	1728.10
586.63	1730.24
586.98	1733.21
587.34	1736.17
587.69	1738.33
588.04	1739.95
588.39	1741.64
588.74	1743.90
589.09	1747.00
589.44	1747.02
589.79	1749.19
590.14	1751.48
590.49	1752.74
590.84	1754.14
591.19	1756.24
591.54	1758.21
591.89	1758.45
592.25	1762.57
592.60	1763.93
592.95	1765.74
593.30	1768.07
593.65	1768.88
594.00	1770.38
594.35	1777.21
594.70	1777.90
595.05	1779.29
595.40	1780.26
595.75	1780.95
596.10	1781.95
596.45	1782.38
596.80	1784.48
597.15	1784.88
597.50	1784.00
597.85	1786.26
598.19	1786.64
598.54	1786.60
598.89	1786.86
599.24	1788.60
599.59	1786.95
599.94	1786.98
600.29	1786.67
600.64	1786.45
600.99	1786.33
601.34	1786.83
601.69	1780.90
602.04	1779.21
602.39	1778.74
602.74	1778.31
603.08	1778.67
603.43	1778.83
603.78	1778.02
604.13	1777.26
604.48	1776.69
604.83	1776.86
605.18	1776.00
605.53	1775.62
605.87	1774.24
606.22	1773.76
606.57	1770.98
606.92	1769.17
607.27	1768.29
607.62	1767.81
607.96	1766.64
608.31	1766.86
608.66	1765.21
609.01	1763.07
609.36	1763.62
609.70	1762.26
610.05	1760.38
610.40	1758.33
610.75	1756.07
611.10	1754.24
611.44	1751.57
611.79	1748.67
612.14	1746.57
612.49	1742.38
612.83	1740.10
613.18	1737.36
613.53	1732.98
613.88	1730.14
614.22	1727.79
614.57	1723.81
614.92	1719.00
615.27	1715.05
615.61	1709.88
615.96	1706.36
616.31	1703.90
616.65	1700.05
617.00	1697.00
617.35	1694.40
617.70	1690.57
618.04	1686.93
618.39	1683.62
618.74	1680.40
619.08	1677.24
619.43	1674.07
619.78	1671.67
620.12	1668.24
620.47	1664.43
620.82	1660.60
621.16	1656.62
621.51	1653.76
621.85	1649.71
622.20	1646.52
622.55	1643.00
622.89	1640.05
623.24	1636.55
623.59	1632.40
623.93	1628.55
624.28	1623.60
624.62	1620.21
624.97	1617.86
625.32	1614.19
625.66	1609.88
626.01	1605.64
626.35	1602.17
626.70	1597.60
627.04	1593.45
627.39	1588.52
627.73	1586.05
628.08	1583.81
628.43	1580.21
628.77	1575.26
629.12	1572.24
629.46	1569.98
629.81	1566.17
630.15	1561.02
630.50	1556.24
630.84	1552.43
631.19	1547.31
631.53	1542.88
631.88	1536.57
632.22	1529.67
632.57	1525.67
632.91	1520.83
633.26	1516.60
633.60	1511.38
633.95	1505.90
634.29	1500.67
634.64	1497.36
634.98	1491.76
635.32	1487.40
635.67	1484.17
636.01	1479.98
636.36	1474.45
636.70	1469.05
637.05	1464.83
637.39	1460.98
637.73	1456.21
638.08	1452.12
638.42	1448.24
638.77	1444.86
639.11	1440.55
639.45	1436.74
639.80	1431.17
640.14	1426.07
640.49	1420.62
640.83	1415.12
641.17	1411.40
641.52	1407.02
641.86	1401.76
642.20	1398.26
642.55	1391.62
642.89	1384.74
643.23	1378.83
643.58	1375.14
643.92	1368.48
644.26	1362.21
644.61	1357.00
644.95	1351.00
645.29	1343.71
645.64	1338.33
645.98	1331.86
646.32	1326.67
646.66	1320.02
647.01	1313.76
647.35	1308.71
647.69	1303.67
648.04	1298.83
648.38	1292.45
648.72	1286.21
649.06	1279.62
649.41	1272.55
649.75	1266.64
650.09	1261.67
650.43	1255.14
650.78	1247.86
651.12	1243.10
651.46	1236.40
651.80	1229.88
652.14	1224.76
652.49	1219.17
652.83	1212.00
653.17	1205.00
653.51	1198.07
653.85	1192.86
654.20	1186.76
654.54	1180.14
654.88	1173.36
655.22	1168.10
655.56	1161.48
655.90	1154.83
656.25	1148.14
656.59	1141.93
656.93	1135.83
657.27	1129.90
657.61	1123.93
657.95	1118.67
658.29	1111.43
658.64	1106.02
658.98	1099.10
659.32	1091.95
659.66	1085.14
660.00	1078.98
660.34	1073.29
660.68	1067.88
661.02	1061.21
661.36	1054.93
661.70	1048.50
662.05	1042.43
662.39	1035.29
662.73	1029.76
663.07	1024.71
663.41	1019.10
663.75	1013.29
664.09	1007.48
664.43	1000.93
664.77	994.86
665.11	988.07
665.45	982.62
665.79	976.50
666.13	970.64
666.47	964.90
666.81	959.67
667.15	953.64
667.49	948.55
667.83	942.98
668.17	937.64
668.51	932.31
668.85	927.29
669.19	922.86
669.53	916.74
669.87	911.12
670.21	905.10
670.55	899.36
670.89	893.69
671.23	888.07
671.57	882.74
671.91	877.43
672.25	872.24
672.58	867.45
672.92	861.76
673.26	856.83
673.60	851.38
673.94	846.31
674.28	841.76
674.62	836.14
674.96	830.74
675.30	825.76
675.64	821.26
675.97	815.50
676.31	809.26
676.65	803.98
676.99	800.10
677.33	794.83
677.67	790.40
678.01	784.62
678.34	780.12
678.68	775.81
679.02	770.90
679.36	765.55
679.70	759.76
680.04	755.19
680.37	750.33
680.71	745.74
681.05	741.24
681.39	736.48
681.73	732.02
682.06	726.81
682.40	721.93
682.74	717.29
683.08	713.52
683.42	708.74
683.75	704.69
684.09	698.64
684.43	693.67
684.77	688.10
685.10	683.95
685.44	679.05
685.78	673.02
686.12	668.17
686.45	664.00
686.79	659.45
687.13	655.21
687.46	651.12
687.80	647.57
688.14	643.14
688.48	638.50
688.81	633.86
689.15	630.93
689.49	626.21
689.82	621.69
690.16	616.62
690.50	612.74
690.83	607.98
691.17	603.71
691.51	599.48
691.84	596.19
692.18	591.95
692.52	588.19
692.85	584.90
693.19	582.21
693.52	578.24
693.86	573.93
694.20	569.67
694.53	565.31
694.87	560.62
695.21	556.55
695.54	553.48
695.88	549.38
696.21	543.95
696.55	539.93
696.88	536.12
697.22	532.74
697.56	528.69
697.89	525.31
698.23	522.21
698.56	518.55
698.90	514.62
699.23	510.98
699.57	507.29
699.90	503.74
700.24	499.24
700.58	495.76
700.91	493.21
701.25	491.57
701.58	488.93
701.92	485.76
702.25	482.38
702.59	478.43
702.92	475.43
703.26	472.64
703.59	469.81
703.93	468.43
704.26	465.24
704.60	462.74
704.93	459.38
705.26	455.95
705.60	453.62
705.93	450.48
706.27	448.31
706.60	445.98
706.94	444.00
707.27	441.12
707.61	438.43
707.94	435.36
708.27	431.05
708.61	427.93
708.94	425.31
709.28	422.76
709.61	420.36
709.94	418.02
710.28	415.90
710.61	413.50
710.95	409.12
711.28	408.26
711.61	405.76
711.95	403.83
712.28	401.36
712.61	398.76
712.95	397.79
713.28	396.36
713.61	393.57
713.95	390.50
714.28	388.67
714.61	386.52
714.95	384.17
715.28	382.12
715.61	379.90
715.95	377.93
716.28	375.48
716.61	373.81
716.95	371.45
717.28	369.07
717.61	367.17
717.94	365.24
718.28	361.60
718.61	359.62
718.94	357.50
719.27	355.67
719.61	353.81
719.94	351.24
720.27	348.21
720.60	346.50
720.94	344.86
721.27	343.29
721.60	342.02
721.93	340.62
722.27	339.67
722.60	338.45
722.93	336.83
723.26	335.90
723.59	333.90
723.93	332.79
724.26	331.55
724.59	329.86
724.92	328.79
725.25	328.50
725.59	327.19
725.92	326.05
726.25	324.74
726.58	323.81
726.91	322.24
727.24	321.52
727.57	320.19
727.91	318.74
728.24	317.57
728.57	315.93
728.90	314.93
729.23	313.21
729.56	312.60
729.89	311.48
730.22	310.10
730.55	309.24
730.89	308.29
731.22	307.07
731.55	306.40
731.88	305.57
732.21	303.83
732.54	302.52
732.87	301.52
733.20	300.74
733.53	299.62
733.86	299.31
734.19	298.00
734.52	297.52
734.85	298.17
735.18	296.81
735.51	296.69
735.84	296.17
736.17	295.71
736.50	293.93
736.83	295.62
737.16	294.55
737.49	293.52
737.82	292.21
738.15	291.60
738.48	290.57
738.81	289.60
739.14	288.48
739.47	287.74
739.80	286.81
740.13	286.31
740.46	285.33
740.79	283.86
741.12	282.93
741.45	281.83
741.78	279.79
742.11	279.60
742.44	278.38
742.77	277.43
743.10	276.17
743.43	275.26
743.75	272.19
744.08	274.14
744.41	273.40
744.74	272.62
745.07	271.67
745.40	271.00
745.73	271.07
746.06	270.38
746.39	270.17
746.71	269.45
747.04	268.14
747.37	267.33
747.70	267.00
748.03	266.60
748.36	266.10
748.68	265.69
749.01	264.71
749.34	263.83
749.67	263.26
750.00	263.00
750.33	263.86
750.65	263.64
750.98	260.86
751.31	260.29
751.64	260.12
751.97	260.71
752.29	260.43
752.62	258.83
752.95	258.24
753.28	257.10
753.60	256.62
753.93	257.00
754.26	256.69
754.59	255.69
754.91	255.02
755.24	254.26
755.57	253.60
755.90	252.83
756.22	252.29
756.55	251.52
756.88	250.69
757.20	248.88
757.53	247.50
757.86	246.79
758.19	246.55
758.51	245.64
758.84	244.14
759.17	243.24
759.49	242.86
759.82	243.31
760.15	243.31
760.47	242.86
760.80	241.76
761.13	241.86
761.45	241.62
761.78	241.24
762.11	240.98
762.43	240.40
762.76	240.12
763.08	240.07
763.41	239.76
763.74	239.74
764.06	239.71
764.39	239.52
764.71	239.10
765.04	238.40
765.37	238.17
765.69	237.60
766.02	237.55
766.34	237.21
766.67	236.36
767.00	236.31
767.32	237.00
767.65	237.98
767.97	237.31
768.30	237.14
768.62	236.74
768.95	236.36
769.27	236.02
769.60	235.98
769.92	235.36
770.25	234.81
770.57	233.86
770.90	233.40
771.22	233.07
771.55	233.10
771.87	233.05
772.20	232.76
772.52	234.62
772.85	236.50
773.17	236.26
773.50	236.02
773.82	235.48
774.15	234.48
774.47	232.90
774.80	232.43
775.12	232.19
775.45	231.98
775.77	231.86
776.09	231.81
776.42	231.50
776.74	231.79
777.07	231.52
777.39	231.83
777.72	231.60
778.04	231.69
778.36	231.19
778.69	231.05
779.01	231.00
779.33	228.74
779.66	226.62
779.98	226.38
780.31	226.02
780.63	226.83
780.95	226.74
781.28	226.86
781.60	226.55
781.92	226.45
782.25	226.45
782.57	226.19
782.89	226.05
783.22	225.69
783.54	225.24
783.86	225.50
784.19	225.21
784.51	225.86
784.83	225.40
785.16	225.43
