SpectraSuite Data File
++++++++++++++++++++++++++++++++++++
Date: Tue Apr 02 18:37:32 EDT 2013
User: group
Dark Spectrum Present: No
Reference Spectrum Present: No
Number of Sampled Component Spectra: 1
Spectrometers: USB2E7196
Integration Time (usec): 580000 (USB2E7196)
Spectra Averaged: 2 (USB2E7196)
Boxcar Smoothing: 10 (USB2E7196)
Correct for Electrical Dark: No (USB2E7196)
Strobe/Lamp Enabled: No (USB2E7196)
Correct for Detector Non-linearity: No (USB2E7196)
Correct for Stray Light: No (USB2E7196)
Number of Pixels in Processed Spectrum: 2048
>>>>>Begin Processed Spectral Data<<<<<
339.09	0.00
339.48	198.00
339.86	199.50
340.24	201.00
340.63	202.50
341.01	236.00
341.39	202.50
341.78	212.00
342.16	213.50
342.54	208.50
342.93	200.60
343.31	210.43
343.69	210.81
344.07	211.21
344.46	211.88
344.84	212.21
345.22	211.02
345.60	211.50
345.99	211.40
346.37	211.31
346.75	211.19
347.13	211.10
347.52	211.00
347.90	211.38
348.28	211.43
348.66	211.90
349.05	211.48
349.43	211.74
349.81	211.90
350.19	211.98
350.57	211.98
350.96	211.86
351.34	212.21
351.72	212.43
352.10	212.43
352.48	211.93
352.87	211.90
353.25	211.88
353.63	211.52
354.01	211.62
354.39	211.64
354.77	211.81
355.15	212.38
355.54	212.02
355.92	211.33
356.30	211.17
356.68	212.24
357.06	212.29
357.44	211.79
357.82	211.88
358.20	212.64
358.58	212.24
358.97	212.33
359.35	212.62
359.73	212.81
360.11	212.76
360.49	213.12
360.87	212.98
361.25	213.07
361.63	213.93
362.01	213.90
362.39	213.79
362.77	213.95
363.15	214.05
363.53	214.36
363.91	214.33
364.29	214.31
364.67	212.43
365.05	212.62
365.43	213.14
365.81	213.00
366.19	213.24
366.57	214.29
366.95	214.14
367.33	213.67
367.71	213.86
368.09	214.17
368.47	214.10
368.85	214.24
369.23	214.52
369.61	213.64
369.99	214.17
370.37	214.52
370.75	215.43
371.13	214.83
371.51	214.64
371.89	215.10
372.27	215.38
372.65	215.24
373.03	215.19
373.41	214.98
373.78	215.12
374.16	213.93
374.54	213.24
374.92	213.21
375.30	213.17
375.68	212.62
376.06	212.86
376.44	212.90
376.82	213.17
377.19	213.29
377.57	213.40
377.95	212.90
378.33	212.69
378.71	211.52
379.09	211.93
379.47	212.12
379.84	212.00
380.22	211.79
380.60	211.71
380.98	211.48
381.36	211.38
381.73	211.19
382.11	211.67
382.49	211.93
382.87	211.76
383.25	211.93
383.62	214.62
384.00	214.12
384.38	214.17
384.76	214.24
385.13	214.95
385.51	214.98
385.89	214.76
386.27	214.83
386.64	215.10
387.02	214.88
387.40	214.86
387.78	214.98
388.15	215.07
388.53	215.07
388.91	215.24
389.29	215.26
389.66	215.48
390.04	215.26
390.42	215.64
390.79	215.71
391.17	215.57
391.55	213.14
391.92	213.26
392.30	213.52
392.68	213.24
393.05	213.12
393.43	213.40
393.81	213.55
394.18	213.14
394.56	213.57
394.94	213.81
395.31	213.88
395.69	214.38
396.06	214.90
396.44	215.19
396.82	215.19
397.19	216.40
397.57	216.31
397.95	216.71
398.32	216.19
398.70	216.60
399.07	217.26
399.45	217.19
399.82	217.14
400.20	216.90
400.58	217.10
400.95	216.38
401.33	216.76
401.70	218.36
402.08	218.60
402.45	218.26
402.83	219.02
403.20	219.07
403.58	219.12
403.95	219.31
404.33	219.81
404.71	220.14
405.08	221.00
405.46	221.43
405.83	221.88
406.21	222.12
406.58	222.52
406.96	222.81
407.33	223.50
407.70	224.69
408.08	226.79
408.45	227.71
408.83	228.79
409.20	229.24
409.58	228.71
409.95	230.33
410.33	231.55
410.70	231.90
411.08	233.52
411.45	234.40
411.82	235.33
412.20	236.95
412.57	239.52
412.95	239.52
413.32	241.69
413.69	243.29
414.07	245.60
414.44	247.79
414.82	249.98
415.19	252.69
415.56	255.07
415.94	257.00
416.31	260.33
416.68	263.62
417.06	267.45
417.43	271.45
417.81	275.21
418.18	279.88
418.55	284.33
418.93	288.81
419.30	293.93
419.67	299.52
420.04	304.62
420.42	309.64
420.79	317.86
421.16	323.81
421.54	331.86
421.91	338.69
422.28	346.21
422.66	354.26
423.03	363.14
423.40	371.05
423.77	378.88
424.15	387.52
424.52	396.90
424.89	406.98
425.26	416.17
425.64	425.40
426.01	435.14
426.38	445.95
426.75	457.24
427.13	468.19
427.50	479.29
427.87	491.21
428.24	502.76
428.61	513.17
428.99	526.76
429.36	538.79
429.73	552.40
430.10	565.43
430.47	579.29
430.85	592.10
431.22	607.10
431.59	625.29
431.96	639.83
432.33	656.17
432.70	672.26
433.08	691.62
433.45	710.00
433.82	727.93
434.19	747.86
434.56	767.05
434.93	785.31
435.30	804.62
435.68	825.55
436.05	846.40
436.42	866.76
436.79	885.98
437.16	907.83
437.53	929.17
437.90	950.62
438.27	971.64
438.64	994.10
439.01	1015.26
439.38	1032.40
439.75	1051.24
440.13	1071.76
440.50	1091.19
440.87	1107.02
441.24	1123.05
441.61	1140.55
441.98	1153.76
442.35	1168.98
442.72	1184.83
443.09	1200.81
443.46	1210.19
443.83	1217.26
444.20	1223.60
444.57	1230.74
444.94	1233.76
445.31	1238.31
445.68	1245.83
446.05	1248.57
446.42	1246.90
446.79	1245.07
447.16	1242.64
447.53	1240.76
447.90	1233.17
448.27	1225.76
448.64	1215.43
449.01	1208.57
449.37	1195.95
449.74	1183.14
450.11	1169.74
450.48	1151.95
450.85	1132.79
451.22	1117.62
451.59	1103.50
451.96	1089.14
452.33	1070.60
452.70	1054.55
453.07	1034.17
453.43	1010.14
453.80	989.81
454.17	971.55
454.54	953.69
454.91	933.48
455.28	915.05
455.65	897.48
456.02	882.93
456.38	867.64
456.75	848.31
457.12	832.07
457.49	816.93
457.86	799.88
458.23	788.67
458.59	775.02
458.96	761.26
459.33	747.98
459.70	735.43
460.07	725.52
460.43	713.55
460.80	702.64
461.17	693.98
461.54	684.07
461.91	674.31
462.27	664.26
462.64	656.40
463.01	647.24
463.38	639.19
463.74	626.83
464.11	619.19
464.48	612.81
464.85	605.76
465.21	600.19
465.58	594.33
465.95	586.55
466.32	580.69
466.68	574.52
467.05	568.81
467.42	562.62
467.78	556.95
468.15	551.00
468.52	547.21
468.88	540.86
469.25	535.67
469.62	531.29
469.98	526.62
470.35	522.81
470.72	518.64
471.08	513.24
471.45	510.21
471.82	506.79
472.18	502.50
472.55	499.52
472.92	495.17
473.28	491.71
473.65	488.38
474.02	485.38
474.38	482.76
474.75	480.67
475.11	478.33
475.48	476.14
475.85	474.43
476.21	472.64
476.58	471.55
476.94	470.12
477.31	468.67
477.67	467.10
478.04	465.83
478.41	465.24
478.77	466.52
479.14	465.10
479.50	464.76
479.87	464.40
480.23	464.05
480.60	463.98
480.96	464.00
481.33	465.02
481.69	465.05
482.06	465.60
482.42	465.90
482.79	466.67
483.15	467.19
483.52	468.10
483.88	468.74
484.25	469.67
484.61	470.55
484.98	471.81
485.34	474.52
485.71	476.62
486.07	478.05
486.44	478.07
486.80	480.64
487.17	482.45
487.53	485.76
487.90	488.45
488.26	492.40
488.62	495.81
488.99	498.55
489.35	501.86
489.72	505.55
490.08	509.10
490.44	512.64
490.81	517.02
491.17	521.26
491.54	525.83
491.90	530.62
492.26	535.88
492.63	540.67
492.99	545.45
493.36	550.83
493.72	557.21
494.08	563.02
494.45	569.64
494.81	576.33
495.17	582.26
495.54	589.14
495.90	595.14
496.26	601.95
496.63	609.67
496.99	617.07
497.35	624.48
497.72	631.81
498.08	639.50
498.44	647.05
498.80	655.57
499.17	663.81
499.53	671.69
499.89	680.83
500.26	689.71
500.62	698.12
500.98	706.71
501.34	715.07
501.71	725.64
502.07	734.07
502.43	742.95
502.79	752.05
503.16	761.00
503.52	770.62
503.88	779.26
504.24	788.52
504.60	798.79
504.97	808.90
505.33	818.79
505.69	830.02
506.05	839.64
506.41	849.40
506.78	859.14
507.14	869.98
507.50	880.05
507.86	890.10
508.22	900.12
508.59	910.62
508.95	921.31
509.31	931.74
509.67	942.10
510.03	951.55
510.39	961.74
510.75	972.14
511.12	982.14
511.48	992.69
511.84	1001.90
512.20	1011.40
512.56	1021.07
512.92	1032.19
513.28	1041.21
513.64	1051.74
514.00	1061.62
514.37	1072.55
514.73	1081.29
515.09	1090.83
515.45	1100.29
515.81	1109.48
516.17	1117.76
516.53	1125.90
516.89	1133.21
517.25	1142.86
517.61	1152.71
517.97	1161.00
518.33	1169.21
518.69	1177.05
519.05	1184.79
519.41	1194.10
519.77	1203.48
520.13	1210.36
520.49	1216.90
520.85	1223.79
521.21	1231.12
521.57	1238.05
521.93	1243.10
522.29	1250.86
522.65	1256.48
523.01	1264.02
523.37	1270.10
523.73	1276.81
524.09	1282.95
524.45	1289.21
524.81	1293.86
525.17	1299.69
525.53	1305.40
525.89	1311.19
526.25	1316.62
526.61	1322.36
526.97	1326.38
527.33	1330.38
527.68	1337.19
528.04	1341.26
528.40	1345.64
528.76	1349.36
529.12	1353.86
529.48	1359.60
529.84	1362.48
530.20	1366.48
530.56	1369.00
530.91	1373.26
531.27	1376.71
531.63	1381.05
531.99	1384.26
532.35	1387.43
532.71	1389.38
533.07	1392.86
533.42	1397.90
533.78	1401.98
534.14	1404.95
534.50	1407.69
534.86	1411.00
535.21	1412.48
535.57	1415.67
535.93	1418.79
536.29	1423.52
536.65	1426.64
537.00	1428.29
537.36	1431.05
537.72	1434.02
538.08	1437.31
538.44	1438.45
538.79	1440.12
539.15	1440.76
539.51	1443.17
539.87	1445.29
540.22	1448.17
540.58	1449.86
540.94	1449.50
541.29	1450.24
541.65	1451.67
542.01	1453.76
542.37	1453.95
542.72	1453.40
543.08	1453.74
543.44	1453.95
543.79	1452.05
544.15	1452.26
544.51	1452.45
544.87	1451.95
545.22	1451.19
545.58	1450.83
545.94	1452.00
546.29	1452.29
546.65	1452.74
547.01	1451.02
547.36	1450.07
547.72	1448.26
548.07	1446.98
548.43	1445.52
548.79	1444.31
549.14	1442.38
549.50	1440.10
549.86	1438.14
550.21	1437.76
550.57	1437.14
550.92	1435.45
551.28	1435.00
551.64	1433.33
551.99	1432.40
552.35	1431.88
552.70	1430.26
553.06	1428.21
553.41	1425.33
553.77	1425.40
554.13	1424.12
554.48	1423.60
554.84	1423.24
555.19	1422.14
555.55	1422.45
555.90	1421.24
556.26	1419.67
556.61	1418.71
556.97	1416.95
557.32	1416.24
557.68	1414.81
558.03	1413.60
558.39	1412.00
558.74	1410.60
559.10	1408.45
559.45	1406.14
559.81	1404.76
560.16	1403.38
560.52	1402.24
560.87	1401.76
561.23	1398.50
561.58	1397.98
561.94	1396.64
562.29	1394.83
562.64	1393.60
563.00	1390.10
563.35	1387.40
563.71	1386.10
564.06	1384.07
564.42	1383.19
564.77	1381.40
565.12	1380.69
565.48	1380.21
565.83	1380.02
566.19	1378.00
566.54	1375.83
566.89	1374.14
567.25	1373.90
567.60	1374.52
567.96	1374.55
568.31	1373.88
568.66	1372.86
569.02	1369.29
569.37	1366.26
569.72	1363.74
570.08	1362.02
570.43	1360.79
570.78	1360.38
571.14	1359.07
571.49	1358.00
571.84	1356.60
572.20	1354.55
572.55	1352.33
572.90	1348.36
573.26	1345.10
573.61	1342.24
573.96	1340.52
574.31	1338.52
574.67	1334.71
575.02	1329.81
575.37	1325.00
575.72	1320.71
576.08	1317.19
576.43	1314.33
576.78	1311.81
577.13	1308.33
577.49	1304.24
577.84	1301.00
578.19	1296.76
578.54	1292.74
578.90	1289.24
579.25	1284.93
579.60	1280.95
579.95	1275.79
580.30	1271.88
580.66	1268.00
581.01	1264.00
581.36	1259.64
581.71	1255.33
582.06	1251.55
582.42	1247.90
582.77	1243.86
583.12	1240.31
583.47	1236.76
583.82	1232.69
584.17	1228.60
584.53	1225.90
584.88	1222.29
585.23	1218.55
585.58	1215.24
585.93	1209.93
586.28	1205.64
586.63	1201.57
586.98	1197.57
587.34	1194.71
587.69	1190.40
588.04	1186.50
588.39	1182.71
588.74	1177.90
589.09	1174.21
589.44	1168.60
589.79	1164.86
590.14	1160.69
590.49	1155.55
590.84	1149.95
591.19	1145.86
591.54	1141.69
591.89	1135.88
592.25	1133.31
592.60	1127.79
592.95	1123.17
593.30	1119.95
593.65	1115.29
594.00	1110.36
594.35	1112.02
594.70	1106.21
595.05	1102.17
595.40	1097.93
595.75	1093.36
596.10	1089.95
596.45	1085.69
596.80	1080.98
597.15	1076.10
597.50	1071.29
597.85	1067.98
598.19	1064.17
598.54	1059.52
598.89	1055.05
599.24	1051.19
599.59	1045.19
599.94	1040.81
600.29	1036.05
600.64	1031.14
600.99	1026.79
601.34	1023.24
601.69	1012.81
602.04	1009.10
602.39	1004.14
602.74	999.43
603.08	994.83
603.43	991.00
603.78	986.02
604.13	982.21
604.48	977.86
604.83	973.69
605.18	969.33
605.53	965.29
605.87	961.24
606.22	957.26
606.57	953.29
606.92	948.83
607.27	944.93
607.62	940.48
607.96	936.38
608.31	931.95
608.66	927.33
609.01	922.90
609.36	919.07
609.70	915.50
610.05	911.10
610.40	907.26
610.75	902.31
611.10	898.19
611.44	893.95
611.79	889.31
612.14	885.60
612.49	880.57
612.83	875.64
613.18	870.55
613.53	865.60
613.88	860.43
614.22	855.31
614.57	850.90
614.92	846.07
615.27	841.86
615.61	836.67
615.96	831.76
616.31	827.26
616.65	823.07
617.00	818.24
617.35	814.55
617.70	810.05
618.04	805.69
618.39	801.21
618.74	796.88
619.08	792.71
619.43	788.07
619.78	783.36
620.12	779.98
620.47	776.52
620.82	772.14
621.16	767.90
621.51	765.24
621.85	760.60
622.20	756.98
622.55	752.38
622.89	749.05
623.24	746.10
623.59	742.38
623.93	738.76
624.28	735.74
624.62	733.83
624.97	732.00
625.32	728.19
625.66	724.55
626.01	721.05
626.35	717.76
626.70	713.98
627.04	711.26
627.39	707.64
627.73	704.62
628.08	701.67
628.43	698.40
628.77	694.31
629.12	690.90
629.46	688.14
629.81	685.07
630.15	681.55
630.50	677.40
630.84	673.74
631.19	669.69
631.53	665.93
631.88	660.07
632.22	654.67
632.57	651.76
632.91	648.14
633.26	645.21
633.60	641.29
633.95	637.90
634.29	633.57
634.64	630.10
634.98	626.02
635.32	622.98
635.67	619.98
636.01	616.38
636.36	613.05
636.70	610.00
637.05	607.10
637.39	604.21
637.73	601.81
638.08	599.10
638.42	596.12
638.77	593.10
639.11	590.33
639.45	587.48
639.80	584.07
640.14	581.21
640.49	577.90
640.83	574.69
641.17	571.52
641.52	569.02
641.86	566.36
642.20	564.31
642.55	560.88
642.89	557.45
643.23	554.62
643.58	552.98
643.92	549.24
644.26	546.38
644.61	543.45
644.95	540.31
645.29	536.95
645.64	534.55
645.98	531.45
646.32	528.86
646.66	525.93
647.01	522.95
647.35	520.74
647.69	518.29
648.04	515.79
648.38	513.40
648.72	511.10
649.06	508.07
649.41	504.64
649.75	502.07
650.09	499.71
650.43	497.12
650.78	493.71
651.12	491.02
651.46	488.00
651.80	485.21
652.14	482.33
652.49	480.62
652.83	477.48
653.17	474.88
653.51	472.00
653.85	469.60
654.20	467.33
654.54	464.43
654.88	461.17
655.22	459.83
655.56	457.24
655.90	454.57
656.25	452.14
656.59	449.95
656.93	447.93
657.27	446.52
657.61	444.33
657.95	442.45
658.29	440.76
658.64	438.86
658.98	436.79
659.32	435.02
659.66	432.50
660.00	430.95
660.34	429.24
660.68	427.24
661.02	425.36
661.36	423.26
661.70	420.90
662.05	419.71
662.39	417.45
662.73	416.40
663.07	415.90
663.41	414.43
663.75	412.43
664.09	410.71
664.43	408.19
664.77	406.57
665.11	404.36
665.45	402.69
665.79	401.36
666.13	399.57
666.47	397.43
666.81	395.93
667.15	393.74
667.49	392.24
667.83	391.17
668.17	389.31
668.51	387.69
668.85	386.36
669.19	385.19
669.53	382.90
669.87	380.86
670.21	378.38
670.55	377.05
670.89	376.69
671.23	374.74
671.57	373.38
671.91	372.05
672.25	371.05
672.58	369.86
672.92	367.86
673.26	367.10
673.60	366.24
673.94	365.10
674.28	363.81
674.62	362.69
674.96	360.88
675.30	359.74
675.64	358.55
675.97	357.52
676.31	355.57
676.65	354.88
676.99	354.10
677.33	352.60
677.67	351.07
678.01	348.90
678.34	347.93
678.68	347.10
679.02	345.60
679.36	344.26
679.70	342.52
680.04	341.43
680.37	339.67
680.71	338.02
681.05	336.55
681.39	335.88
681.73	334.40
682.06	333.33
682.40	332.31
682.74	331.81
683.08	331.31
683.42	330.14
683.75	328.90
684.09	327.36
684.43	326.33
684.77	324.90
685.10	323.81
685.44	322.79
685.78	321.36
686.12	319.95
686.45	318.62
686.79	317.26
687.13	316.52
687.46	315.50
687.80	315.33
688.14	314.36
688.48	313.07
688.81	312.26
689.15	311.93
689.49	310.67
689.82	309.38
690.16	307.62
690.50	306.90
690.83	305.88
691.17	304.40
691.51	303.24
691.84	302.62
692.18	301.74
692.52	300.67
692.85	300.10
693.19	300.36
693.52	299.64
693.86	298.88
694.20	298.00
694.53	297.43
694.87	296.24
695.21	295.26
695.54	294.33
695.88	293.12
696.21	291.24
696.55	290.71
696.88	289.79
697.22	289.05
697.56	288.33
697.89	287.50
698.23	287.19
698.56	286.43
698.90	285.69
699.23	284.67
699.57	283.90
699.90	282.95
700.24	281.60
700.58	281.10
700.91	280.60
701.25	281.21
701.58	280.93
701.92	280.48
702.25	280.24
702.59	279.33
702.92	278.74
703.26	278.69
703.59	277.88
703.93	278.93
704.26	278.55
704.60	277.88
704.93	276.98
705.26	276.05
705.60	276.00
705.93	274.86
706.27	274.88
706.60	275.17
706.94	275.50
707.27	274.55
707.61	273.88
707.94	273.67
708.27	271.88
708.61	270.60
708.94	269.79
709.28	269.26
709.61	268.62
709.94	268.33
710.28	267.74
710.61	267.17
710.95	264.69
711.28	265.50
711.61	264.95
711.95	265.07
712.28	264.52
712.61	263.83
712.95	264.69
713.28	264.98
713.61	263.88
713.95	262.57
714.28	262.60
714.61	261.88
714.95	261.07
715.28	260.29
715.61	260.00
715.95	259.62
716.28	258.60
716.61	258.76
716.95	258.17
717.28	257.48
717.61	257.10
717.94	256.90
718.28	254.52
718.61	253.95
718.94	252.81
719.27	252.57
719.61	252.07
719.94	251.10
720.27	249.71
720.60	248.90
720.94	248.57
721.27	247.95
721.60	248.02
721.93	247.43
722.27	247.69
722.60	247.50
722.93	246.74
723.26	246.79
723.59	246.17
723.93	245.88
724.26	245.95
724.59	245.31
724.92	245.00
725.25	245.60
725.59	245.50
725.92	245.86
726.25	245.67
726.58	245.52
726.91	245.12
727.24	245.24
727.57	245.29
727.91	244.57
728.24	244.57
728.57	243.86
728.90	244.07
729.23	243.12
729.56	243.83
729.89	243.74
730.22	243.17
730.55	242.67
730.89	242.52
731.22	242.05
731.55	242.17
731.88	242.00
732.21	241.19
732.54	240.55
732.87	240.14
733.20	239.71
733.53	239.38
733.86	239.31
734.19	238.74
734.52	238.67
734.85	239.76
735.18	239.12
735.51	239.64
735.84	239.52
736.17	240.14
736.50	238.64
736.83	240.93
737.16	240.57
737.49	240.45
737.82	239.81
738.15	239.71
738.48	239.52
738.81	239.19
739.14	239.05
739.47	238.81
739.80	238.52
740.13	238.83
740.46	238.33
740.79	237.71
741.12	237.60
741.45	236.90
741.78	235.71
742.11	236.26
742.44	235.45
742.77	235.50
743.10	234.67
743.43	234.52
743.75	232.05
744.08	234.74
744.41	234.74
744.74	234.88
745.07	234.45
745.40	234.60
745.73	235.26
746.06	235.26
746.39	235.60
746.71	235.48
747.04	234.62
747.37	234.48
747.70	234.76
748.03	234.38
748.36	234.62
748.68	234.62
749.01	233.79
749.34	233.71
749.67	233.26
750.00	233.45
750.33	234.98
750.65	235.02
750.98	232.31
751.31	232.02
751.64	231.76
751.97	232.74
752.29	232.21
752.62	231.26
752.95	230.71
753.28	230.24
753.60	229.60
753.93	230.19
754.26	230.19
754.59	229.55
754.91	229.21
755.24	228.90
755.57	228.50
755.90	228.45
756.22	228.05
756.55	227.69
756.88	227.07
757.20	225.40
757.53	224.71
757.86	224.52
758.19	224.50
758.51	224.57
758.84	223.43
759.17	223.19
759.49	223.21
759.82	224.43
760.15	224.62
760.47	224.83
760.80	224.21
761.13	224.38
761.45	224.07
761.78	224.10
762.11	224.17
762.43	224.12
762.76	223.83
763.08	224.00
763.41	224.02
763.74	224.00
764.06	223.81
764.39	223.67
764.71	223.52
765.04	223.17
765.37	222.62
765.69	222.38
766.02	222.36
766.34	221.98
766.67	220.81
767.00	220.71
767.32	221.67
767.65	222.52
767.97	222.33
768.30	222.38
768.62	222.52
768.95	222.26
769.27	222.17
769.60	222.40
769.92	221.83
770.25	221.60
770.57	221.33
770.90	221.21
771.22	221.05
771.55	221.29
771.87	221.43
772.20	221.43
772.52	223.07
772.85	225.36
773.17	225.50
773.50	225.40
773.82	225.19
774.15	224.12
774.47	223.00
774.80	222.98
775.12	223.21
775.45	222.95
775.77	222.98
776.09	223.10
776.42	223.14
776.74	224.17
777.07	223.95
777.39	224.10
777.72	224.10
778.04	224.45
778.36	224.24
778.69	224.33
779.01	224.50
779.33	222.93
779.66	220.79
779.98	220.48
780.31	220.43
780.63	221.17
780.95	221.43
781.28	221.55
781.60	221.12
781.92	220.93
782.25	220.86
782.57	220.74
782.89	220.45
783.22	220.12
783.54	219.43
783.86	219.50
784.19	219.38
784.51	219.76
784.83	219.55
785.16	219.29
785.48	219.07
785.80	219.00
786.12	219.17
786.45	218.93
786.77	219.02
787.09	218.93
787.42	218.29
787.74	218.29
788.06	218.10
