SpectraSuite Data File
++++++++++++++++++++++++++++++++++++
Date: Tue Apr 02 18:38:15 EDT 2013
User: group
Dark Spectrum Present: No
Reference Spectrum Present: No
Number of Sampled Component Spectra: 1
Spectrometers: USB2E7196
Integration Time (usec): 580000 (USB2E7196)
Spectra Averaged: 2 (USB2E7196)
Boxcar Smoothing: 10 (USB2E7196)
Correct for Electrical Dark: No (USB2E7196)
Strobe/Lamp Enabled: No (USB2E7196)
Correct for Detector Non-linearity: No (USB2E7196)
Correct for Stray Light: No (USB2E7196)
Number of Pixels in Processed Spectrum: 2048
>>>>>Begin Processed Spectral Data<<<<<
339.09	0.00
339.48	196.00
339.86	195.00
340.24	194.50
340.63	196.00
341.01	231.00
341.39	203.00
341.78	207.50
342.16	209.00
342.54	207.50
342.93	198.95
343.31	208.64
343.69	209.19
344.07	209.83
344.46	210.57
344.84	211.38
345.22	210.36
345.60	210.86
345.99	211.14
346.37	211.31
346.75	211.24
347.13	211.36
347.52	211.52
347.90	212.40
348.28	212.38
348.66	212.88
349.05	212.07
349.43	212.12
349.81	212.36
350.19	212.02
350.57	212.33
350.96	212.60
351.34	213.07
351.72	213.07
352.10	213.02
352.48	213.05
352.87	212.88
353.25	213.07
353.63	212.74
354.01	212.64
354.39	212.64
354.77	212.86
355.15	213.45
355.54	213.26
355.92	212.45
356.30	212.45
356.68	213.57
357.06	213.81
357.44	213.62
357.82	213.52
358.20	214.64
358.58	214.64
358.97	214.69
359.35	215.10
359.73	215.57
360.11	215.90
360.49	215.98
360.87	216.05
361.25	215.95
361.63	216.79
362.01	217.00
362.39	217.00
362.77	217.26
363.15	216.74
363.53	216.71
363.91	216.88
364.29	217.02
364.67	215.07
365.05	215.07
365.43	215.26
365.81	215.45
366.19	215.69
366.57	216.45
366.95	216.50
367.33	215.81
367.71	215.79
368.09	215.95
368.47	215.90
368.85	215.90
369.23	216.55
369.61	215.95
369.99	216.38
370.37	216.69
370.75	217.40
371.13	217.26
371.51	216.83
371.89	216.98
372.27	217.17
372.65	217.26
373.03	217.43
373.41	217.40
373.78	217.43
374.16	216.19
374.54	215.45
374.92	215.29
375.30	215.52
375.68	215.19
376.06	215.33
376.44	215.36
376.82	215.36
377.19	215.07
377.57	215.12
377.95	214.52
378.33	214.33
378.71	213.26
379.09	213.57
379.47	214.05
379.84	213.93
380.22	213.57
380.60	213.43
380.98	213.36
381.36	213.36
381.73	212.93
382.11	213.45
382.49	213.45
382.87	213.24
383.25	213.24
383.62	215.52
384.00	214.74
384.38	214.71
384.76	215.12
385.13	215.81
385.51	215.67
385.89	215.67
386.27	215.60
386.64	215.88
387.02	215.57
387.40	215.31
387.78	215.57
388.15	215.62
388.53	215.52
388.91	215.38
389.29	215.26
389.66	215.64
390.04	215.36
390.42	215.88
390.79	216.14
391.17	216.10
391.55	213.93
391.92	214.26
392.30	214.67
392.68	214.29
393.05	214.10
393.43	214.14
393.81	214.07
394.18	213.60
394.56	213.67
394.94	214.33
395.31	214.33
395.69	214.86
396.06	215.36
396.44	215.57
396.82	215.50
397.19	216.48
397.57	216.14
397.95	216.62
398.32	215.88
398.70	216.00
399.07	216.45
399.45	216.45
399.82	216.52
400.20	215.95
400.58	215.88
400.95	215.36
401.33	215.88
401.70	217.26
402.08	217.76
402.45	217.83
402.83	218.21
403.20	218.14
403.58	217.79
403.95	217.95
404.33	218.40
404.71	218.83
405.08	220.02
405.46	220.55
405.83	220.71
406.21	221.33
406.58	221.86
406.96	222.07
407.33	222.71
407.70	223.43
408.08	225.93
408.45	226.88
408.83	227.79
409.20	228.33
409.58	228.26
409.95	229.52
410.33	230.57
410.70	231.00
411.08	232.60
411.45	234.07
411.82	235.21
412.20	237.07
412.57	239.67
412.95	239.48
413.32	241.48
413.69	243.12
414.07	245.07
414.44	247.38
414.82	249.79
415.19	252.81
415.56	255.31
415.94	256.93
416.31	260.33
416.68	263.64
417.06	267.38
417.43	271.36
417.81	275.43
418.18	279.62
418.55	284.26
418.93	288.95
419.30	294.00
419.67	299.57
420.04	304.52
420.42	309.55
420.79	317.43
421.16	323.76
421.54	331.74
421.91	338.98
422.28	345.86
422.66	353.76
423.03	362.76
423.40	370.71
423.77	378.90
424.15	387.45
424.52	396.45
424.89	406.40
425.26	415.52
425.64	424.21
426.01	434.26
426.38	444.45
426.75	455.55
427.13	466.48
427.50	477.45
427.87	489.14
428.24	500.90
428.61	511.52
428.99	525.00
429.36	537.60
429.73	550.79
430.10	564.19
430.47	577.67
430.85	589.79
431.22	604.62
431.59	622.12
431.96	636.93
432.33	653.24
432.70	669.31
433.08	688.45
433.45	706.88
433.82	725.10
434.19	744.79
434.56	764.83
434.93	783.64
435.30	802.26
435.68	823.62
436.05	844.48
436.42	864.38
436.79	883.24
437.16	903.55
437.53	924.98
437.90	946.31
438.27	967.88
438.64	989.90
439.01	1011.00
439.38	1028.57
439.75	1046.52
440.13	1067.05
440.50	1085.76
440.87	1101.36
441.24	1117.50
441.61	1135.07
441.98	1148.57
442.35	1162.71
442.72	1178.38
443.09	1194.57
443.46	1204.05
443.83	1210.60
444.20	1216.67
444.57	1224.64
444.94	1228.62
445.31	1233.14
445.68	1240.26
446.05	1242.38
446.42	1241.10
446.79	1240.02
447.16	1237.19
447.53	1236.90
447.90	1229.50
448.27	1221.90
448.64	1212.07
449.01	1205.05
449.37	1191.50
449.74	1178.76
450.11	1165.52
450.48	1148.19
450.85	1130.02
451.22	1114.93
451.59	1100.40
451.96	1087.24
452.33	1067.79
452.70	1051.29
453.07	1031.50
453.43	1008.29
453.80	988.26
454.17	969.21
454.54	950.33
454.91	931.31
455.28	911.62
455.65	894.17
456.02	880.64
456.38	864.98
456.75	846.36
457.12	831.02
457.49	815.81
457.86	799.17
458.23	787.00
458.59	773.17
458.96	759.05
459.33	746.38
459.70	733.31
460.07	723.43
460.43	711.71
460.80	700.52
461.17	691.55
461.54	681.69
461.91	672.55
462.27	662.64
462.64	654.12
463.01	645.19
463.38	637.02
463.74	624.81
464.11	617.19
464.48	610.29
464.85	602.69
465.21	597.19
465.58	591.33
465.95	583.10
466.32	577.02
466.68	570.81
467.05	564.67
467.42	558.52
467.78	552.33
468.15	546.90
468.52	542.33
468.88	536.00
469.25	530.50
469.62	526.21
469.98	521.67
470.35	517.60
470.72	513.43
471.08	508.33
471.45	504.95
471.82	501.40
472.18	497.43
472.55	494.62
472.92	490.62
473.28	486.98
473.65	483.69
474.02	480.29
474.38	477.93
474.75	476.12
475.11	473.79
475.48	472.07
475.85	469.81
476.21	467.93
476.58	466.57
476.94	465.83
477.31	464.02
477.67	462.83
478.04	461.83
478.41	460.83
478.77	461.88
479.14	460.60
479.50	460.14
479.87	459.55
480.23	458.86
480.60	458.43
480.96	458.21
481.33	459.43
481.69	460.14
482.06	460.36
482.42	460.62
482.79	461.14
483.15	461.60
483.52	463.05
483.88	464.19
484.25	465.29
484.61	466.00
484.98	467.40
485.34	469.17
485.71	470.88
486.07	472.90
486.44	473.29
486.80	475.55
487.17	477.64
487.53	480.69
487.90	483.81
488.26	487.67
488.62	491.36
488.99	493.83
489.35	497.14
489.72	500.31
490.08	503.88
490.44	507.52
490.81	511.57
491.17	515.38
491.54	519.55
491.90	524.26
492.26	529.00
492.63	533.79
492.99	538.64
493.36	543.98
493.72	549.62
494.08	555.36
494.45	561.43
494.81	568.26
495.17	574.12
495.54	581.07
495.90	587.26
496.26	594.14
496.63	601.62
496.99	608.60
497.35	615.88
497.72	623.71
498.08	631.40
498.44	639.48
498.80	647.43
499.17	655.79
499.53	663.98
499.89	673.17
500.26	682.26
500.62	690.74
500.98	699.83
501.34	708.21
501.71	717.36
502.07	726.19
502.43	734.52
502.79	743.71
503.16	752.74
503.52	762.12
503.88	770.83
504.24	780.07
504.60	789.50
504.97	799.76
505.33	808.98
505.69	819.48
506.05	830.21
506.41	841.07
506.78	850.93
507.14	861.33
507.50	871.52
507.86	881.79
508.22	892.52
508.59	902.24
508.95	913.31
509.31	924.81
509.67	935.60
510.03	946.19
510.39	956.90
510.75	967.33
511.12	977.81
511.48	988.48
511.84	999.19
512.20	1009.93
512.56	1020.33
512.92	1031.21
513.28	1042.29
513.64	1051.81
514.00	1061.33
514.37	1071.79
514.73	1081.43
515.09	1091.07
515.45	1101.17
515.81	1110.74
516.17	1121.26
516.53	1130.33
516.89	1138.71
517.25	1148.24
517.61	1157.71
517.97	1166.36
518.33	1175.43
518.69	1184.07
519.05	1193.10
519.41	1201.45
519.77	1211.67
520.13	1219.93
520.49	1228.14
520.85	1235.71
521.21	1244.64
521.57	1253.14
521.93	1260.81
522.29	1268.76
522.65	1276.31
523.01	1283.50
523.37	1290.93
523.73	1297.62
524.09	1305.24
524.45	1311.74
524.81	1318.00
525.17	1324.43
525.53	1331.48
525.89	1337.98
526.25	1344.69
526.61	1350.48
526.97	1356.07
527.33	1361.17
527.68	1369.12
528.04	1373.62
528.40	1378.31
528.76	1383.52
529.12	1388.67
529.48	1394.05
529.84	1398.79
530.20	1404.24
530.56	1410.36
530.91	1415.55
531.27	1420.62
531.63	1425.43
531.99	1429.29
532.35	1433.81
532.71	1438.14
533.07	1443.69
533.42	1450.24
533.78	1454.36
534.14	1458.50
534.50	1462.98
534.86	1467.17
535.21	1468.81
535.57	1474.36
535.93	1478.55
536.29	1483.07
536.65	1487.07
537.00	1490.69
537.36	1495.29
537.72	1497.83
538.08	1499.69
538.44	1502.43
538.79	1505.31
539.15	1508.05
539.51	1512.81
539.87	1515.81
540.22	1518.17
540.58	1520.10
540.94	1520.12
541.29	1522.24
541.65	1523.60
542.01	1525.14
542.37	1525.81
542.72	1527.26
543.08	1527.88
543.44	1529.26
543.79	1528.74
544.15	1530.05
544.51	1531.55
544.87	1533.00
545.22	1533.81
545.58	1534.98
545.94	1535.79
546.29	1536.29
546.65	1535.81
547.01	1535.19
547.36	1535.21
547.72	1536.19
548.07	1535.95
548.43	1536.14
548.79	1536.33
549.14	1536.19
549.50	1536.95
549.86	1535.67
550.21	1535.71
550.57	1535.36
550.92	1534.17
551.28	1534.38
551.64	1532.88
551.99	1532.24
552.35	1530.17
552.70	1529.90
553.06	1529.81
553.41	1529.26
553.77	1529.52
554.13	1529.29
554.48	1528.88
554.84	1528.43
555.19	1526.62
555.55	1527.29
555.90	1526.10
556.26	1524.98
556.61	1524.33
556.97	1523.05
557.32	1523.67
557.68	1522.71
558.03	1522.74
558.39	1522.02
558.74	1520.36
559.10	1519.50
559.45	1518.43
559.81	1517.02
560.16	1515.21
560.52	1513.12
560.87	1511.64
561.23	1508.90
561.58	1508.76
561.94	1507.36
562.29	1505.98
562.64	1505.45
563.00	1501.36
563.35	1499.12
563.71	1498.07
564.06	1497.43
564.42	1495.60
564.77	1494.05
565.12	1492.62
565.48	1492.50
565.83	1491.74
566.19	1490.48
566.54	1489.10
566.89	1486.33
567.25	1485.45
567.60	1485.83
567.96	1486.43
568.31	1485.79
568.66	1485.31
569.02	1482.24
569.37	1479.50
569.72	1478.36
570.08	1475.86
570.43	1474.50
570.78	1472.71
571.14	1469.90
571.49	1467.93
571.84	1466.45
572.20	1463.81
572.55	1461.38
572.90	1456.38
573.26	1452.95
573.61	1450.02
573.96	1446.67
574.31	1443.69
574.67	1440.21
575.02	1435.43
575.37	1430.17
575.72	1425.90
576.08	1421.83
576.43	1418.29
576.78	1415.26
577.13	1410.36
577.49	1406.33
577.84	1402.33
578.19	1398.74
578.54	1395.43
578.90	1391.07
579.25	1386.36
579.60	1381.45
579.95	1376.48
580.30	1372.10
580.66	1368.12
581.01	1363.45
581.36	1359.02
581.71	1355.50
582.06	1351.17
582.42	1346.88
582.77	1341.81
583.12	1336.33
583.47	1331.69
583.82	1327.19
584.17	1322.43
584.53	1319.17
584.88	1314.57
585.23	1311.17
585.58	1306.26
585.93	1301.00
586.28	1296.02
586.63	1291.36
586.98	1287.60
587.34	1283.71
587.69	1278.93
588.04	1274.64
588.39	1270.48
588.74	1264.90
589.09	1258.95
589.44	1253.10
589.79	1248.29
590.14	1243.88
590.49	1239.48
590.84	1234.17
591.19	1229.17
591.54	1224.52
591.89	1217.98
592.25	1215.40
592.60	1209.02
592.95	1204.67
593.30	1200.10
593.65	1195.45
594.00	1189.98
594.35	1190.26
594.70	1184.88
595.05	1181.05
595.40	1175.88
595.75	1170.79
596.10	1166.36
596.45	1162.36
596.80	1158.50
597.15	1153.52
597.50	1147.67
597.85	1143.38
598.19	1138.36
598.54	1133.19
598.89	1127.86
599.24	1123.69
599.59	1116.64
599.94	1111.98
600.29	1106.14
600.64	1100.81
600.99	1095.88
601.34	1092.02
601.69	1081.60
602.04	1076.55
602.39	1070.62
602.74	1065.67
603.08	1060.14
603.43	1056.79
603.78	1051.98
604.13	1046.95
604.48	1041.74
604.83	1037.55
605.18	1032.79
605.53	1028.31
605.87	1023.79
606.22	1018.90
606.57	1013.69
606.92	1008.74
607.27	1004.21
607.62	1000.19
607.96	995.10
608.31	990.07
608.66	985.00
609.01	980.48
609.36	976.26
609.70	972.33
610.05	967.48
610.40	963.48
610.75	957.79
611.10	952.76
611.44	947.33
611.79	942.57
612.14	938.17
612.49	932.21
612.83	926.67
613.18	921.50
613.53	917.19
613.88	911.57
614.22	906.83
614.57	901.69
614.92	896.36
615.27	892.10
615.61	886.81
615.96	881.29
616.31	875.60
616.65	871.02
617.00	865.64
617.35	860.31
617.70	854.88
618.04	849.86
618.39	844.67
618.74	840.48
619.08	835.48
619.43	831.38
619.78	827.38
620.12	823.48
620.47	819.24
620.82	814.14
621.16	810.24
621.51	807.17
621.85	802.57
622.20	798.38
622.55	793.05
622.89	788.81
623.24	785.62
623.59	781.71
623.93	777.26
624.28	773.10
624.62	771.62
624.97	769.17
625.32	765.19
625.66	761.57
626.01	757.26
626.35	753.60
626.70	748.76
627.04	745.10
627.39	740.93
627.73	738.26
628.08	734.90
628.43	731.26
628.77	725.83
629.12	722.14
629.46	718.90
629.81	716.29
630.15	712.52
630.50	707.48
630.84	703.17
631.19	699.36
631.53	695.86
631.88	689.52
632.22	684.26
632.57	681.14
632.91	677.29
633.26	673.45
633.60	669.29
633.95	665.19
634.29	660.81
634.64	656.95
634.98	652.05
635.32	649.12
635.67	645.50
636.01	642.12
636.36	638.29
636.70	635.19
637.05	630.81
637.39	627.57
637.73	624.83
638.08	622.57
638.42	618.60
638.77	615.26
639.11	612.21
639.45	608.95
639.80	604.40
640.14	601.10
640.49	598.40
640.83	595.64
641.17	592.81
641.52	589.83
641.86	586.90
642.20	584.52
642.55	580.43
642.89	576.98
643.23	574.10
643.58	571.79
643.92	567.79
644.26	564.69
644.61	562.10
644.95	558.76
645.29	555.07
645.64	553.12
645.98	549.19
646.32	546.60
646.66	543.62
647.01	540.76
647.35	537.83
647.69	534.57
648.04	532.05
648.38	529.45
648.72	526.71
649.06	523.45
649.41	520.02
649.75	517.07
650.09	514.48
650.43	511.29
650.78	507.79
651.12	504.79
651.46	502.17
651.80	498.88
652.14	495.67
652.49	493.24
652.83	489.88
653.17	487.43
653.51	484.12
653.85	481.36
654.20	479.40
654.54	476.48
654.88	473.64
655.22	471.40
655.56	468.36
655.90	465.88
656.25	463.55
656.59	461.05
656.93	458.74
657.27	457.19
657.61	454.57
657.95	452.52
658.29	450.14
658.64	448.74
658.98	446.40
659.32	444.31
659.66	442.05
660.00	439.79
660.34	438.36
660.68	436.26
661.02	434.07
661.36	431.36
661.70	429.62
662.05	427.29
662.39	424.95
662.73	423.93
663.07	422.74
663.41	420.81
663.75	418.43
664.09	416.45
664.43	413.86
664.77	412.12
665.11	410.10
665.45	408.40
665.79	406.55
666.13	404.55
666.47	402.64
666.81	400.76
667.15	398.40
667.49	396.76
667.83	395.93
668.17	394.45
668.51	393.00
668.85	391.50
669.19	390.79
669.53	388.57
669.87	386.14
670.21	383.71
670.55	382.24
670.89	381.71
671.23	380.02
671.57	378.38
671.91	377.33
672.25	376.02
672.58	375.52
672.92	373.24
673.26	371.88
673.60	370.71
673.94	369.29
674.28	368.38
674.62	367.12
674.96	365.00
675.30	363.95
675.64	362.90
675.97	361.52
676.31	360.02
676.65	358.88
676.99	358.21
677.33	356.98
677.67	355.71
678.01	353.57
678.34	352.48
678.68	352.02
679.02	350.48
679.36	348.69
679.70	346.74
680.04	345.38
680.37	343.93
680.71	342.67
681.05	341.19
681.39	340.00
681.73	338.38
682.06	337.29
682.40	335.55
682.74	334.48
683.08	334.07
683.42	332.55
683.75	331.40
684.09	329.79
684.43	328.43
684.77	327.00
685.10	326.12
685.44	325.05
685.78	323.31
686.12	322.17
686.45	321.57
686.79	320.19
687.13	319.38
687.46	318.31
687.80	317.64
688.14	316.55
688.48	315.83
688.81	314.81
689.15	314.48
689.49	313.43
689.82	312.33
690.16	310.40
690.50	309.17
690.83	308.12
691.17	306.52
691.51	305.81
691.84	305.60
692.18	304.62
692.52	303.52
692.85	302.83
693.19	302.83
693.52	301.71
693.86	300.36
694.20	299.60
694.53	299.21
694.87	297.81
695.21	296.95
695.54	295.90
695.88	294.76
696.21	292.95
696.55	292.33
696.88	291.40
697.22	290.26
697.56	289.95
697.89	289.05
698.23	288.86
698.56	287.71
698.90	286.86
699.23	285.95
699.57	285.43
699.90	284.19
700.24	282.52
700.58	281.90
700.91	281.88
701.25	282.36
701.58	282.31
701.92	282.24
702.25	281.50
702.59	280.62
702.92	280.05
703.26	279.86
703.59	279.26
703.93	280.40
704.26	280.40
704.60	279.60
704.93	278.74
705.26	277.90
705.60	277.83
705.93	276.79
706.27	276.71
706.60	276.38
706.94	276.90
707.27	276.10
707.61	275.40
707.94	274.60
708.27	272.50
708.61	270.93
708.94	270.17
709.28	269.79
709.61	269.26
709.94	268.83
710.28	267.95
710.61	267.57
710.95	265.10
711.28	265.83
711.61	265.29
711.95	265.33
712.28	264.64
712.61	263.95
712.95	264.45
713.28	264.55
713.61	263.57
713.95	262.05
714.28	261.81
714.61	261.17
714.95	260.60
715.28	260.00
715.61	259.76
715.95	259.43
716.28	258.95
716.61	258.98
716.95	258.21
717.28	257.74
717.61	256.93
717.94	256.36
718.28	254.17
718.61	253.60
718.94	252.86
719.27	252.33
719.61	251.90
719.94	250.74
720.27	249.21
720.60	248.76
720.94	248.88
721.27	248.62
721.60	248.79
721.93	248.38
722.27	248.79
722.60	248.55
722.93	247.86
723.26	247.69
723.59	246.64
723.93	246.64
724.26	246.50
724.59	246.29
724.92	246.19
725.25	246.57
725.59	246.57
725.92	246.57
726.25	246.60
726.58	246.31
726.91	245.98
727.24	246.33
727.57	246.12
727.91	245.29
728.24	245.07
728.57	244.48
728.90	244.50
729.23	243.79
729.56	244.21
729.89	244.10
730.22	243.64
730.55	243.36
730.89	242.83
731.22	242.45
731.55	241.95
731.88	241.90
732.21	241.38
732.54	240.74
732.87	240.48
733.20	240.14
733.53	240.02
733.86	239.86
734.19	239.21
734.52	239.14
734.85	240.33
735.18	239.86
735.51	240.31
735.84	240.33
736.17	240.52
736.50	239.07
736.83	241.19
737.16	240.88
737.49	240.90
737.82	240.69
738.15	240.98
738.48	240.81
738.81	240.14
739.14	239.52
739.47	239.31
739.80	238.81
740.13	238.76
740.46	238.12
740.79	237.69
741.12	237.36
741.45	236.76
741.78	235.50
742.11	236.14
742.44	235.33
742.77	235.50
743.10	235.14
743.43	235.36
743.75	233.00
744.08	235.55
744.41	235.00
744.74	234.79
745.07	233.95
745.40	234.10
745.73	234.90
746.06	235.07
746.39	235.26
746.71	235.10
747.04	234.64
747.37	234.52
747.70	234.71
748.03	234.69
748.36	234.86
748.68	234.50
749.01	233.57
749.34	233.40
749.67	232.76
750.00	232.74
750.33	233.95
750.65	234.00
750.98	231.17
751.31	231.21
751.64	231.14
751.97	232.19
752.29	232.14
752.62	231.17
752.95	230.86
753.28	230.45
753.60	230.29
753.93	230.79
754.26	230.79
754.59	230.10
754.91	229.69
755.24	229.64
755.57	229.52
755.90	229.26
756.22	229.14
756.55	228.83
756.88	228.52
757.20	226.86
757.53	226.21
757.86	226.24
758.19	226.24
758.51	226.26
758.84	225.07
759.17	224.60
759.49	224.81
759.82	225.67
760.15	225.64
760.47	225.26
760.80	224.57
761.13	224.86
761.45	224.69
761.78	224.45
762.11	224.33
762.43	224.07
762.76	223.98
763.08	224.00
763.41	223.86
763.74	223.79
764.06	223.83
764.39	223.60
764.71	223.33
765.04	222.95
765.37	222.57
765.69	222.40
766.02	222.31
766.34	221.81
766.67	221.00
767.00	221.40
767.32	222.64
767.65	223.67
767.97	223.26
768.30	223.38
768.62	223.36
768.95	222.98
769.27	222.86
769.60	223.17
769.92	222.60
770.25	222.43
770.57	221.76
770.90	221.79
771.22	221.64
771.55	221.71
771.87	221.86
772.20	221.71
772.52	223.21
772.85	225.52
773.17	225.64
773.50	225.43
773.82	224.76
774.15	223.52
774.47	222.19
774.80	222.05
775.12	222.05
775.45	221.98
775.77	222.10
776.09	222.26
776.42	222.10
776.74	223.00
777.07	222.74
777.39	223.07
777.72	222.64
778.04	223.07
778.36	223.02
778.69	222.98
779.01	223.14
779.33	221.60
779.66	219.31
779.98	218.95
780.31	219.00
780.63	219.95
780.95	220.52
781.28	220.64
781.60	220.48
781.92	220.33
782.25	220.45
782.57	220.36
782.89	220.19
783.22	220.14
783.54	219.43
783.86	219.67
784.19	219.40
784.51	220.14
784.83	219.74
785.16	219.60
785.48	219.45
785.80	219.45
786.12	219.43
786.45	219.33
786.77	219.69
787.09	219.45
787.42	218.60
787.74	218.52
