SpectraSuite Data File
++++++++++++++++++++++++++++++++++++
Date: Tue Apr 02 18:38:17 EDT 2013
User: group
Dark Spectrum Present: No
Reference Spectrum Present: No
Number of Sampled Component Spectra: 1
Spectrometers: USB2E7196
Integration Time (usec): 580000 (USB2E7196)
Spectra Averaged: 2 (USB2E7196)
Boxcar Smoothing: 10 (USB2E7196)
Correct for Electrical Dark: No (USB2E7196)
Strobe/Lamp Enabled: No (USB2E7196)
Correct for Detector Non-linearity: No (USB2E7196)
Correct for Stray Light: No (USB2E7196)
Number of Pixels in Processed Spectrum: 2048
>>>>>Begin Processed Spectral Data<<<<<
339.09	0.00
339.48	193.50
339.86	194.50
340.24	194.50
340.63	200.50
341.01	235.00
341.39	200.00
341.78	209.00
342.16	211.00
342.54	206.00
342.93	198.98
343.31	208.81
343.69	209.43
344.07	209.93
344.46	210.64
344.84	211.14
345.22	210.02
345.60	210.55
345.99	210.67
346.37	210.60
346.75	210.67
347.13	210.76
347.52	210.69
347.90	211.31
348.28	211.24
348.66	211.60
349.05	211.07
349.43	211.17
349.81	211.38
350.19	211.10
350.57	211.07
350.96	211.43
351.34	211.67
351.72	211.86
352.10	211.98
352.48	212.02
352.87	211.81
353.25	211.81
353.63	211.67
354.01	211.57
354.39	211.69
354.77	211.98
355.15	212.52
355.54	212.26
355.92	211.79
356.30	211.64
356.68	213.05
357.06	213.00
357.44	212.79
357.82	212.67
358.20	213.86
358.58	213.81
358.97	213.93
359.35	214.17
359.73	214.60
360.11	214.83
360.49	214.93
360.87	214.88
361.25	215.07
361.63	215.81
362.01	215.98
362.39	215.88
362.77	216.21
363.15	216.12
363.53	216.17
363.91	216.19
364.29	216.33
364.67	214.29
365.05	214.60
365.43	214.93
365.81	215.31
366.19	215.19
366.57	216.12
366.95	215.93
367.33	215.57
367.71	215.38
368.09	215.52
368.47	215.62
368.85	215.93
369.23	216.29
369.61	215.76
369.99	216.31
370.37	216.64
370.75	216.98
371.13	216.64
371.51	216.52
371.89	216.83
372.27	217.05
372.65	217.31
373.03	217.29
373.41	217.07
373.78	216.88
374.16	215.88
374.54	215.45
374.92	215.45
375.30	215.57
375.68	215.36
376.06	215.71
376.44	215.50
376.82	215.55
377.19	215.31
377.57	215.21
377.95	214.52
378.33	214.36
378.71	213.45
379.09	213.60
379.47	214.05
379.84	213.64
380.22	213.31
380.60	213.02
380.98	212.93
381.36	212.98
381.73	212.83
382.11	213.26
382.49	213.26
382.87	213.02
383.25	213.12
383.62	215.33
384.00	214.74
384.38	214.71
384.76	215.05
385.13	216.14
385.51	216.02
385.89	216.07
386.27	216.29
386.64	216.48
387.02	216.38
387.40	215.95
387.78	216.24
388.15	216.57
388.53	216.45
388.91	216.43
389.29	216.21
389.66	216.55
390.04	216.40
390.42	216.67
390.79	216.81
391.17	216.62
391.55	214.40
391.92	214.48
392.30	214.98
392.68	214.69
393.05	214.21
393.43	214.33
393.81	214.31
394.18	213.64
394.56	213.74
394.94	214.24
395.31	214.26
395.69	215.07
396.06	215.12
396.44	215.43
396.82	215.36
397.19	216.45
397.57	216.05
397.95	216.40
398.32	215.76
398.70	215.88
399.07	216.29
399.45	216.38
399.82	216.40
400.20	216.29
400.58	216.17
400.95	215.40
401.33	215.95
401.70	217.62
402.08	218.07
402.45	218.29
402.83	218.74
403.20	219.14
403.58	218.71
403.95	219.14
404.33	219.48
404.71	219.90
405.08	221.29
405.46	221.60
405.83	221.76
406.21	222.14
406.58	222.69
406.96	223.29
407.33	223.93
407.70	224.83
408.08	226.74
408.45	227.69
408.83	228.88
409.20	229.29
409.58	228.83
409.95	230.00
410.33	230.95
410.70	231.33
411.08	232.71
411.45	233.98
411.82	235.14
412.20	236.98
412.57	239.48
412.95	239.07
413.32	241.48
413.69	243.29
414.07	245.40
414.44	247.45
414.82	249.83
415.19	252.86
415.56	255.14
415.94	256.81
416.31	260.10
416.68	263.26
417.06	267.19
417.43	271.19
417.81	275.50
418.18	279.93
418.55	284.48
418.93	288.83
419.30	293.76
419.67	298.98
420.04	304.05
420.42	309.12
420.79	317.33
421.16	323.81
421.54	331.88
421.91	339.31
422.28	346.71
422.66	354.24
423.03	362.83
423.40	371.38
423.77	380.05
424.15	388.43
424.52	397.31
424.89	406.93
425.26	415.74
425.64	424.64
426.01	434.26
426.38	444.83
426.75	456.21
427.13	467.21
427.50	478.64
427.87	490.19
428.24	501.98
428.61	512.12
428.99	525.38
429.36	537.60
429.73	550.76
430.10	564.05
430.47	577.81
430.85	591.14
431.22	605.83
431.59	623.10
431.96	638.33
432.33	655.12
432.70	671.93
433.08	691.64
433.45	709.38
433.82	727.29
434.19	747.10
434.56	766.52
434.93	784.88
435.30	804.00
435.68	825.55
436.05	846.36
436.42	866.31
436.79	884.83
437.16	905.57
437.53	927.24
437.90	949.05
438.27	970.48
438.64	992.10
439.01	1012.88
439.38	1028.98
439.75	1046.95
440.13	1067.10
440.50	1086.21
440.87	1101.76
441.24	1118.33
441.61	1136.74
441.98	1150.17
442.35	1165.07
442.72	1181.67
443.09	1198.05
443.46	1207.14
443.83	1213.50
444.20	1220.38
444.57	1228.24
444.94	1231.33
445.31	1235.50
445.68	1241.83
446.05	1243.52
446.42	1242.33
446.79	1240.98
447.16	1239.64
447.53	1238.43
447.90	1231.14
448.27	1223.67
448.64	1213.12
449.01	1205.57
449.37	1192.29
449.74	1179.62
450.11	1165.71
450.48	1147.93
450.85	1128.88
451.22	1113.60
451.59	1099.69
451.96	1084.81
452.33	1066.19
452.70	1049.83
453.07	1029.52
453.43	1006.24
453.80	986.69
454.17	967.36
454.54	948.55
454.91	928.98
455.28	910.14
455.65	892.60
456.02	877.64
456.38	862.52
456.75	843.95
457.12	827.98
457.49	812.14
457.86	795.64
458.23	783.52
458.59	769.31
458.96	755.40
459.33	742.50
459.70	730.86
460.07	720.79
460.43	709.81
460.80	699.33
461.17	690.76
461.54	680.57
461.91	671.67
462.27	662.07
462.64	653.74
463.01	644.31
463.38	636.55
463.74	624.93
464.11	617.31
464.48	610.33
464.85	603.24
465.21	598.00
465.58	592.00
465.95	583.60
466.32	577.88
466.68	571.81
467.05	565.79
467.42	559.69
467.78	553.74
468.15	548.17
468.52	544.02
468.88	537.45
469.25	532.52
469.62	527.71
469.98	522.86
470.35	518.79
470.72	515.07
471.08	509.74
471.45	506.24
471.82	502.64
472.18	498.79
472.55	495.69
472.92	491.71
473.28	488.64
473.65	485.69
474.02	482.38
474.38	480.05
474.75	477.79
475.11	475.12
475.48	472.62
475.85	470.36
476.21	467.69
476.58	466.52
476.94	464.98
477.31	463.95
477.67	463.19
478.04	462.05
478.41	460.83
478.77	461.90
479.14	460.24
479.50	459.90
479.87	460.05
480.23	459.52
480.60	459.24
480.96	458.90
481.33	459.90
481.69	460.45
482.06	460.74
482.42	461.14
482.79	461.76
483.15	462.21
483.52	463.38
483.88	464.26
484.25	464.83
484.61	466.19
484.98	466.88
485.34	468.81
485.71	471.14
486.07	473.40
486.44	473.60
486.80	476.31
487.17	478.10
487.53	480.67
487.90	483.43
488.26	487.05
488.62	490.50
488.99	493.14
489.35	496.45
489.72	499.67
490.08	503.05
490.44	506.55
490.81	510.79
491.17	514.69
491.54	519.43
491.90	524.24
492.26	528.74
492.63	533.57
492.99	537.71
493.36	542.31
493.72	547.90
494.08	553.76
494.45	559.98
494.81	566.29
495.17	571.69
495.54	578.50
495.90	584.50
496.26	590.81
496.63	597.64
496.99	604.00
497.35	611.07
497.72	618.74
498.08	625.81
498.44	633.98
498.80	642.12
499.17	649.98
499.53	658.12
499.89	666.88
500.26	675.81
500.62	684.57
500.98	694.00
501.34	702.86
501.71	711.71
502.07	720.83
502.43	730.17
502.79	740.24
503.16	749.36
503.52	759.17
503.88	769.00
504.24	778.90
504.60	789.00
504.97	799.67
505.33	809.60
505.69	821.29
506.05	831.40
506.41	841.71
506.78	852.81
507.14	862.67
507.50	872.93
507.86	883.12
508.22	894.12
508.59	903.60
508.95	914.26
509.31	925.71
509.67	936.29
510.03	947.12
510.39	958.07
510.75	968.86
511.12	978.93
511.48	989.40
511.84	1000.31
512.20	1011.12
512.56	1021.71
512.92	1033.19
513.28	1043.50
513.64	1054.55
514.00	1064.88
514.37	1075.19
514.73	1086.55
515.09	1097.74
515.45	1107.69
515.81	1117.62
516.17	1128.45
516.53	1138.24
516.89	1147.31
517.25	1157.07
517.61	1166.71
517.97	1175.79
518.33	1184.38
518.69	1194.33
519.05	1203.62
519.41	1212.50
519.77	1222.83
520.13	1231.48
520.49	1239.12
520.85	1247.12
521.21	1255.67
521.57	1265.00
521.93	1272.40
522.29	1280.67
522.65	1287.48
523.01	1296.36
523.37	1303.86
523.73	1311.24
524.09	1318.19
524.45	1325.55
524.81	1331.93
525.17	1338.79
525.53	1345.71
525.89	1353.00
526.25	1359.71
526.61	1366.00
526.97	1372.26
527.33	1378.07
527.68	1384.95
528.04	1391.40
528.40	1397.60
528.76	1403.00
529.12	1407.69
529.48	1414.33
529.84	1419.31
530.20	1425.62
530.56	1430.69
530.91	1435.52
531.27	1441.12
531.63	1447.00
531.99	1452.00
532.35	1457.43
532.71	1462.48
533.07	1467.86
533.42	1476.14
533.78	1480.57
534.14	1485.83
534.50	1490.05
534.86	1494.83
535.21	1498.93
535.57	1503.95
535.93	1507.95
536.29	1513.10
536.65	1518.12
537.00	1521.12
537.36	1525.00
537.72	1528.26
538.08	1531.88
538.44	1536.00
538.79	1539.57
539.15	1542.33
539.51	1546.57
539.87	1550.02
540.22	1553.71
540.58	1556.71
540.94	1556.62
541.29	1559.31
541.65	1560.55
542.01	1563.31
542.37	1565.07
542.72	1565.83
543.08	1566.57
543.44	1569.07
543.79	1569.55
544.15	1571.10
544.51	1573.52
544.87	1575.14
545.22	1576.64
545.58	1578.02
545.94	1578.81
546.29	1579.71
546.65	1580.07
547.01	1580.26
547.36	1580.38
547.72	1580.50
548.07	1580.83
548.43	1580.74
548.79	1580.45
549.14	1580.50
549.50	1581.14
549.86	1579.38
550.21	1580.17
550.57	1580.52
550.92	1579.38
551.28	1579.33
551.64	1578.71
551.99	1578.26
552.35	1577.60
552.70	1576.93
553.06	1576.36
553.41	1576.00
553.77	1576.17
554.13	1576.55
554.48	1576.74
554.84	1577.12
555.19	1576.14
555.55	1576.50
555.90	1576.33
556.26	1576.57
556.61	1576.50
556.97	1574.93
557.32	1574.81
557.68	1573.02
558.03	1572.14
558.39	1570.48
558.74	1569.81
559.10	1568.64
559.45	1566.64
559.81	1565.76
560.16	1564.12
560.52	1562.74
560.87	1561.19
561.23	1558.88
561.58	1558.62
561.94	1556.64
562.29	1554.90
562.64	1554.60
563.00	1551.36
563.35	1549.33
563.71	1547.48
564.06	1546.62
564.42	1546.43
564.77	1546.05
565.12	1545.81
565.48	1546.93
565.83	1547.21
566.19	1545.98
566.54	1544.55
566.89	1543.60
567.25	1542.60
567.60	1543.10
567.96	1543.33
568.31	1543.79
568.66	1542.83
569.02	1539.76
569.37	1536.93
569.72	1535.43
570.08	1532.48
570.43	1531.19
570.78	1530.31
571.14	1529.52
571.49	1527.86
571.84	1524.83
572.20	1521.93
572.55	1519.67
572.90	1514.86
573.26	1512.48
573.61	1508.76
573.96	1506.12
574.31	1503.24
574.67	1499.26
575.02	1494.88
575.37	1489.98
575.72	1485.29
576.08	1481.60
576.43	1478.14
576.78	1474.81
577.13	1470.62
577.49	1466.55
577.84	1462.86
578.19	1458.10
578.54	1453.40
578.90	1449.10
579.25	1445.10
579.60	1441.40
579.95	1436.60
580.30	1432.79
580.66	1428.43
581.01	1425.40
581.36	1420.52
581.71	1416.43
582.06	1413.33
582.42	1409.14
582.77	1404.05
583.12	1399.64
583.47	1394.86
583.82	1390.74
584.17	1386.95
584.53	1382.83
584.88	1378.43
585.23	1374.17
585.58	1368.88
585.93	1363.02
586.28	1358.38
586.63	1353.83
586.98	1349.05
587.34	1345.64
587.69	1340.26
588.04	1334.50
588.39	1328.60
588.74	1323.33
589.09	1318.67
589.44	1312.62
589.79	1307.64
590.14	1303.40
590.49	1298.07
590.84	1292.95
591.19	1288.05
591.54	1282.29
591.89	1276.17
592.25	1272.83
592.60	1267.36
592.95	1263.71
593.30	1259.60
593.65	1253.76
594.00	1247.55
594.35	1248.38
594.70	1242.00
595.05	1236.74
595.40	1231.93
595.75	1226.62
596.10	1222.31
596.45	1216.48
596.80	1211.31
597.15	1206.17
597.50	1200.17
597.85	1195.88
598.19	1190.74
598.54	1184.98
598.89	1180.33
599.24	1175.83
599.59	1169.48
599.94	1163.86
600.29	1158.81
600.64	1153.62
600.99	1149.43
601.34	1144.98
601.69	1133.79
602.04	1127.88
602.39	1122.57
602.74	1117.31
603.08	1112.69
603.43	1108.05
603.78	1103.24
604.13	1098.55
604.48	1092.83
604.83	1088.05
605.18	1083.02
605.53	1077.90
605.87	1072.90
606.22	1067.57
606.57	1062.67
606.92	1056.98
607.27	1052.93
607.62	1046.83
607.96	1041.45
608.31	1036.33
608.66	1031.62
609.01	1026.05
609.36	1021.64
609.70	1017.02
610.05	1011.81
610.40	1006.38
610.75	1000.40
611.10	995.12
611.44	990.12
611.79	985.17
612.14	980.31
612.49	973.93
612.83	968.90
613.18	962.95
613.53	957.33
613.88	951.50
614.22	946.45
614.57	939.95
614.92	934.05
615.27	928.74
615.61	922.81
615.96	916.57
616.31	911.88
616.65	907.64
617.00	902.17
617.35	897.14
617.70	892.05
618.04	886.45
618.39	881.64
618.74	876.40
619.08	871.26
619.43	866.19
619.78	861.95
620.12	857.24
620.47	853.02
620.82	848.26
621.16	843.48
621.51	839.62
621.85	834.76
622.20	831.21
622.55	826.55
622.89	821.79
623.24	818.29
623.59	813.71
623.93	808.81
624.28	805.05
624.62	802.95
624.97	800.29
625.32	796.64
625.66	792.24
626.01	787.64
626.35	783.60
626.70	779.93
627.04	775.36
627.39	770.43
627.73	767.38
628.08	763.52
628.43	759.40
628.77	754.17
629.12	750.64
629.46	746.17
629.81	741.98
630.15	737.81
630.50	733.48
630.84	729.02
631.19	725.02
631.53	720.74
631.88	714.21
632.22	708.36
632.57	704.86
632.91	700.98
633.26	697.31
633.60	693.21
633.95	688.86
634.29	684.90
634.64	681.62
634.98	677.14
635.32	673.81
635.67	670.95
636.01	668.02
636.36	664.26
636.70	661.36
637.05	657.88
637.39	654.57
637.73	651.10
638.08	648.57
638.42	644.14
638.77	640.74
639.11	637.21
639.45	633.52
639.80	629.60
640.14	625.76
640.49	621.55
640.83	617.90
641.17	614.88
641.52	611.31
641.86	607.93
642.20	604.88
642.55	601.00
642.89	597.12
643.23	593.45
643.58	590.50
643.92	585.98
644.26	582.55
644.61	579.38
644.95	575.81
645.29	571.67
645.64	569.14
645.98	565.17
646.32	562.60
646.66	559.55
647.01	556.00
647.35	552.93
647.69	550.50
648.04	547.62
648.38	544.10
648.72	541.24
649.06	537.90
649.41	534.33
649.75	531.12
650.09	528.07
650.43	524.90
650.78	521.10
651.12	518.26
651.46	514.83
651.80	511.55
652.14	508.71
652.49	506.05
652.83	502.95
653.17	500.10
653.51	496.79
653.85	494.07
654.20	491.26
654.54	488.24
654.88	485.05
655.22	483.33
655.56	480.50
655.90	478.24
656.25	475.71
656.59	473.05
656.93	470.60
657.27	468.38
657.61	465.69
657.95	463.69
658.29	461.10
658.64	459.38
658.98	457.02
659.32	454.62
659.66	451.95
660.00	449.83
660.34	447.60
660.68	445.12
661.02	443.02
661.36	440.64
661.70	438.57
662.05	436.76
662.39	434.10
662.73	432.71
663.07	431.14
663.41	429.38
663.75	426.88
664.09	425.10
664.43	422.48
664.77	420.31
665.11	417.83
665.45	416.38
665.79	414.95
666.13	412.98
666.47	411.24
666.81	409.81
667.15	407.29
667.49	406.07
667.83	405.14
668.17	402.90
668.51	401.17
668.85	399.76
669.19	398.81
669.53	396.31
669.87	393.79
670.21	391.38
670.55	389.60
670.89	389.02
671.23	387.17
671.57	385.76
671.91	384.38
672.25	383.21
672.58	381.88
672.92	379.40
673.26	377.79
673.60	375.86
673.94	374.31
674.28	373.21
674.62	372.05
674.96	369.79
675.30	368.74
675.64	367.69
675.97	366.12
676.31	364.02
676.65	362.62
676.99	362.14
677.33	360.31
677.67	358.55
678.01	356.43
678.34	354.98
678.68	353.79
679.02	352.26
679.36	350.48
679.70	348.74
680.04	347.69
680.37	346.52
680.71	345.07
681.05	343.83
681.39	342.90
681.73	341.02
682.06	340.05
682.40	338.60
682.74	337.36
683.08	336.81
683.42	335.02
683.75	334.19
684.09	331.98
684.43	331.14
684.77	330.24
685.10	329.02
685.44	328.29
685.78	327.19
686.12	325.90
686.45	324.79
686.79	323.45
687.13	322.67
687.46	321.69
687.80	321.00
688.14	319.67
688.48	318.62
688.81	317.76
689.15	317.00
689.49	316.00
689.82	314.57
690.16	312.48
690.50	311.88
690.83	310.71
691.17	309.86
691.51	308.71
691.84	307.76
692.18	306.71
692.52	305.52
692.85	304.64
693.19	304.69
693.52	303.90
693.86	302.79
694.20	301.86
694.53	300.69
694.87	299.67
695.21	298.71
695.54	297.79
695.88	296.21
696.21	294.71
696.55	293.74
696.88	293.19
697.22	292.36
697.56	292.02
697.89	291.07
698.23	290.81
698.56	289.93
698.90	289.14
699.23	288.26
699.57	287.60
699.90	286.74
700.24	285.24
700.58	284.64
700.91	284.33
701.25	284.67
701.58	284.74
701.92	284.60
702.25	283.93
702.59	282.57
702.92	281.95
703.26	281.71
703.59	281.00
703.93	281.79
704.26	281.40
704.60	280.48
704.93	279.81
705.26	278.69
705.60	278.43
705.93	277.48
706.27	277.48
706.60	277.12
706.94	277.36
707.27	276.57
707.61	276.05
707.94	275.45
708.27	273.31
708.61	271.52
708.94	270.62
709.28	269.98
709.61	269.48
709.94	269.29
710.28	268.48
710.61	268.19
710.95	266.14
711.28	267.10
711.61	266.36
711.95	266.17
712.28	265.48
712.61	264.67
712.95	265.24
713.28	265.71
713.61	264.52
713.95	262.95
714.28	262.81
714.61	262.19
714.95	261.45
715.28	260.71
715.61	260.52
715.95	260.10
716.28	259.45
716.61	259.45
716.95	258.79
717.28	258.10
717.61	257.69
717.94	257.19
718.28	255.19
718.61	254.60
718.94	253.83
719.27	253.62
719.61	253.43
719.94	252.17
720.27	250.24
720.60	249.95
720.94	249.71
721.27	248.98
721.60	248.71
721.93	248.17
722.27	248.62
722.60	248.48
722.93	248.05
723.26	247.76
723.59	246.95
723.93	246.86
724.26	246.86
724.59	246.14
724.92	245.86
725.25	246.17
725.59	245.79
725.92	245.62
726.25	245.10
726.58	244.79
726.91	244.67
727.24	244.88
727.57	244.48
727.91	243.83
728.24	244.02
728.57	243.48
728.90	243.76
729.23	242.95
729.56	243.52
729.89	243.21
730.22	242.86
730.55	242.71
730.89	242.43
731.22	242.02
731.55	241.62
731.88	241.50
732.21	240.88
732.54	240.67
732.87	240.50
733.20	240.29
733.53	240.12
733.86	240.10
734.19	239.48
734.52	239.64
734.85	240.93
735.18	240.29
735.51	240.90
735.84	240.74
736.17	241.07
736.50	239.81
736.83	242.14
737.16	242.19
737.49	241.90
737.82	241.62
738.15	241.81
738.48	241.79
738.81	241.29
739.14	240.67
739.47	240.33
739.80	240.19
740.13	240.36
740.46	239.60
740.79	238.79
741.12	238.71
741.45	238.12
741.78	236.81
742.11	237.33
742.44	236.52
742.77	236.50
743.10	235.69
743.43	235.43
743.75	232.83
744.08	235.31
744.41	235.10
744.74	234.71
745.07	233.88
745.40	234.19
745.73	235.00
746.06	234.95
746.39	234.98
746.71	234.52
747.04	234.00
747.37	234.02
747.70	234.36
748.03	234.29
748.36	234.31
748.68	234.12
749.01	233.14
749.34	232.95
749.67	232.69
750.00	232.98
750.33	234.45
750.65	234.52
750.98	231.67
751.31	231.81
751.64	231.71
751.97	232.81
752.29	232.36
752.62	231.31
752.95	231.12
753.28	230.79
753.60	230.67
753.93	230.95
754.26	230.90
754.59	230.24
754.91	229.83
755.24	229.76
755.57	229.45
755.90	229.48
756.22	229.17
756.55	228.64
756.88	228.33
757.20	226.90
757.53	226.00
757.86	225.64
758.19	225.55
758.51	225.52
758.84	224.40
759.17	224.10
759.49	224.07
759.82	224.93
760.15	225.07
760.47	224.95
760.80	224.26
761.13	224.40
761.45	224.29
761.78	224.17
762.11	224.17
762.43	223.98
762.76	223.71
763.08	223.95
763.41	223.86
763.74	223.62
764.06	223.36
764.39	223.36
764.71	223.36
765.04	223.10
765.37	222.76
765.69	222.60
766.02	222.67
766.34	222.24
766.67	221.48
767.00	222.05
767.32	222.88
767.65	224.36
767.97	224.19
768.30	224.00
768.62	224.07
768.95	223.69
769.27	223.31
769.60	223.55
769.92	223.17
770.25	223.02
770.57	222.76
770.90	222.76
771.22	222.71
771.55	222.95
771.87	222.98
772.20	223.02
772.52	224.71
772.85	226.95
773.17	227.24
773.50	227.10
773.82	226.33
774.15	225.38
774.47	223.83
774.80	223.50
775.12	223.57
775.45	223.52
775.77	223.43
776.09	223.90
776.42	223.88
776.74	224.33
777.07	223.90
777.39	223.90
777.72	223.71
778.04	223.86
778.36	223.36
778.69	223.38
779.01	223.43
779.33	221.62
779.66	219.43
779.98	219.19
780.31	219.21
780.63	219.90
780.95	220.45
781.28	220.62
781.60	220.55
781.92	220.38
782.25	220.12
782.57	220.19
782.89	219.86
783.22	219.60
783.54	218.98
783.86	219.21
784.19	218.88
784.51	219.43
784.83	218.93
785.16	218.86
785.48	218.74
785.80	218.81
786.12	218.86
786.45	218.38
786.77	218.31
787.09	218.10
787.42	217.43
