SpectraSuite Data File
++++++++++++++++++++++++++++++++++++
Date: Tue Apr 02 18:44:15 EDT 2013
User: group
Dark Spectrum Present: No
Reference Spectrum Present: No
Number of Sampled Component Spectra: 1
Spectrometers: USB2E7196
Integration Time (usec): 580000 (USB2E7196)
Spectra Averaged: 2 (USB2E7196)
Boxcar Smoothing: 10 (USB2E7196)
Correct for Electrical Dark: No (USB2E7196)
Strobe/Lamp Enabled: No (USB2E7196)
Correct for Detector Non-linearity: No (USB2E7196)
Correct for Stray Light: No (USB2E7196)
Number of Pixels in Processed Spectrum: 2048
>>>>>Begin Processed Spectral Data<<<<<
339.09	0.00
339.48	192.00
339.86	192.00
340.24	194.50
340.63	196.50
341.01	232.50
341.39	201.00
341.78	207.00
342.16	207.50
342.54	205.50
342.93	197.69
343.31	207.12
343.69	207.76
344.07	208.29
344.46	209.31
344.84	210.19
345.22	209.02
345.60	209.57
345.99	209.74
346.37	209.90
346.75	210.00
347.13	210.07
347.52	210.36
347.90	211.02
348.28	211.10
348.66	211.71
349.05	211.17
349.43	211.55
349.81	211.86
350.19	212.14
350.57	212.43
350.96	212.43
351.34	213.19
351.72	213.52
352.10	213.74
352.48	213.38
352.87	213.14
353.25	213.40
353.63	213.36
354.01	213.40
354.39	213.60
354.77	213.76
355.15	214.26
355.54	214.02
355.92	213.55
356.30	213.71
356.68	214.95
357.06	215.14
357.44	214.50
357.82	214.50
358.20	215.29
358.58	215.29
358.97	215.50
359.35	215.64
359.73	215.88
360.11	216.14
360.49	216.36
360.87	216.31
361.25	216.55
361.63	217.02
362.01	217.33
362.39	217.17
362.77	217.38
363.15	217.10
363.53	217.12
363.91	217.05
364.29	216.86
364.67	214.79
365.05	214.67
365.43	215.26
365.81	215.38
366.19	215.52
366.57	216.26
366.95	216.17
367.33	215.83
367.71	215.79
368.09	215.98
368.47	215.95
368.85	216.12
369.23	216.19
369.61	215.62
369.99	216.00
370.37	216.21
370.75	217.29
371.13	216.93
371.51	216.83
371.89	217.02
372.27	217.07
372.65	217.40
373.03	217.52
373.41	217.12
373.78	216.90
374.16	215.79
374.54	215.12
374.92	214.95
375.30	215.07
375.68	214.76
376.06	214.79
376.44	214.57
376.82	214.71
377.19	214.64
377.57	214.60
377.95	213.69
378.33	213.62
378.71	212.24
379.09	212.79
379.47	212.95
379.84	212.83
380.22	212.79
380.60	212.33
380.98	212.29
381.36	212.57
381.73	212.26
382.11	212.69
382.49	212.79
382.87	212.52
383.25	212.45
383.62	214.88
384.00	214.38
384.38	214.71
384.76	215.07
385.13	215.95
385.51	216.07
385.89	216.05
386.27	216.14
386.64	216.31
387.02	216.12
387.40	215.90
387.78	216.26
388.15	216.50
388.53	216.38
388.91	216.38
389.29	216.14
389.66	216.36
390.04	215.93
390.42	216.33
390.79	216.55
391.17	216.31
391.55	213.98
391.92	214.12
392.30	214.12
392.68	213.48
393.05	213.14
393.43	213.26
393.81	213.43
394.18	213.10
394.56	213.26
394.94	213.45
395.31	213.26
395.69	213.60
396.06	213.74
396.44	213.86
396.82	213.79
397.19	214.64
397.57	214.79
397.95	215.38
398.32	214.79
398.70	214.98
399.07	215.76
399.45	215.57
399.82	215.71
400.20	215.64
400.58	215.67
400.95	215.00
401.33	215.31
401.70	217.00
402.08	216.98
402.45	216.95
402.83	217.40
403.20	217.74
403.58	217.74
403.95	218.19
404.33	218.55
404.71	219.02
405.08	220.29
405.46	220.21
405.83	220.33
406.21	220.64
406.58	221.02
406.96	221.21
407.33	222.05
407.70	222.64
408.08	224.79
408.45	225.83
408.83	226.86
409.20	227.21
409.58	226.57
409.95	228.10
410.33	229.05
410.70	229.57
411.08	230.95
411.45	231.67
411.82	232.45
412.20	234.19
412.57	236.21
412.95	235.90
413.32	237.76
413.69	239.31
414.07	241.00
414.44	242.88
414.82	244.95
415.19	247.21
415.56	249.38
415.94	250.38
416.31	253.21
416.68	255.90
417.06	259.31
417.43	262.90
417.81	265.86
418.18	269.81
418.55	273.31
418.93	277.12
419.30	281.55
419.67	286.14
420.04	290.52
420.42	294.64
420.79	301.69
421.16	307.26
421.54	314.24
421.91	320.50
422.28	326.71
422.66	333.02
423.03	340.86
423.40	348.00
423.77	355.29
424.15	362.38
424.52	370.00
424.89	378.64
425.26	385.98
425.64	393.95
426.01	401.83
426.38	410.81
426.75	420.26
427.13	429.36
427.50	439.02
427.87	448.93
428.24	459.14
428.61	467.43
428.99	478.71
429.36	489.26
429.73	500.38
430.10	511.45
430.47	523.74
430.85	534.19
431.22	546.21
431.59	561.26
431.96	574.00
432.33	587.81
432.70	601.38
433.08	617.95
433.45	633.07
433.82	648.52
434.19	665.43
434.56	681.52
434.93	696.64
435.30	712.48
435.68	730.10
436.05	747.12
436.42	764.29
436.79	780.64
437.16	797.52
437.53	815.52
437.90	833.67
438.27	850.88
438.64	868.67
439.01	886.64
439.38	900.55
439.75	915.24
440.13	932.26
440.50	946.93
440.87	959.76
441.24	972.57
441.61	987.02
441.98	997.74
442.35	1009.60
442.72	1023.33
443.09	1036.88
443.46	1044.07
443.83	1049.95
444.20	1054.60
444.57	1060.17
444.94	1063.24
445.31	1066.64
445.68	1072.31
446.05	1073.45
446.42	1072.67
446.79	1070.81
447.16	1068.52
447.53	1066.93
447.90	1060.31
448.27	1054.55
448.64	1046.02
449.01	1040.52
449.37	1029.38
449.74	1018.57
450.11	1008.17
450.48	993.38
450.85	977.48
451.22	965.24
451.59	952.36
451.96	940.86
452.33	925.71
452.70	912.05
453.07	894.83
453.43	875.24
453.80	859.07
454.17	843.00
454.54	828.07
454.91	812.17
455.28	796.67
455.65	781.81
456.02	770.29
456.38	757.24
456.75	741.26
457.12	728.02
457.49	714.98
457.86	700.62
458.23	690.50
458.59	678.50
458.96	666.62
459.33	656.62
459.70	646.24
460.07	637.33
460.43	627.83
460.80	619.29
461.17	611.81
461.54	603.69
461.91	596.00
462.27	587.45
462.64	580.29
463.01	572.88
463.38	566.83
463.74	556.67
464.11	550.26
464.48	545.05
464.85	539.10
465.21	535.02
465.58	530.12
465.95	523.76
466.32	518.95
466.68	513.48
467.05	508.26
467.42	503.50
467.78	498.19
468.15	492.88
468.52	489.17
468.88	483.45
469.25	478.64
469.62	475.12
469.98	470.98
470.35	467.19
470.72	463.36
471.08	458.98
471.45	455.90
471.82	452.83
472.18	448.98
472.55	446.40
472.92	442.64
473.28	439.33
473.65	436.07
474.02	433.21
474.38	431.26
474.75	429.74
475.11	427.24
475.48	425.67
475.85	424.21
476.21	422.52
476.58	421.90
476.94	421.07
477.31	420.05
477.67	418.88
478.04	417.79
478.41	417.10
478.77	418.40
479.14	417.21
479.50	416.79
479.87	416.57
480.23	415.95
480.60	415.52
480.96	415.50
481.33	416.60
481.69	416.40
482.06	416.76
482.42	416.81
482.79	416.88
483.15	417.24
483.52	418.00
483.88	418.36
484.25	418.62
484.61	419.33
484.98	419.55
485.34	421.52
485.71	423.07
486.07	424.62
486.44	423.90
486.80	425.48
487.17	426.81
487.53	429.50
487.90	431.74
488.26	434.31
488.62	437.21
488.99	439.05
489.35	441.60
489.72	444.12
490.08	446.50
490.44	449.40
490.81	452.62
491.17	455.05
491.54	458.95
491.90	462.17
492.26	465.48
492.63	469.57
492.99	472.33
493.36	476.57
493.72	481.05
494.08	485.19
494.45	490.02
494.81	494.88
495.17	499.14
495.54	504.62
495.90	509.71
496.26	514.33
496.63	519.57
496.99	525.45
497.35	530.90
497.72	537.24
498.08	543.21
498.44	549.12
498.80	555.69
499.17	561.38
499.53	568.29
499.89	574.86
500.26	581.31
500.62	588.21
500.98	595.29
501.34	601.74
501.71	609.81
502.07	616.81
502.43	624.21
502.79	631.31
503.16	638.19
503.52	645.26
503.88	652.33
504.24	660.05
504.60	667.83
504.97	675.81
505.33	682.88
505.69	691.67
506.05	699.29
506.41	707.07
506.78	715.17
507.14	722.69
507.50	730.98
507.86	739.29
508.22	747.00
508.59	753.76
508.95	762.05
509.31	769.90
509.67	777.45
510.03	784.93
510.39	792.55
510.75	799.74
511.12	807.86
511.48	816.00
511.84	823.52
512.20	830.71
512.56	838.12
512.92	845.79
513.28	852.83
513.64	860.31
514.00	867.62
514.37	874.86
514.73	881.69
515.09	888.76
515.45	895.12
515.81	902.33
516.17	909.69
516.53	916.05
516.89	922.02
517.25	928.86
517.61	935.64
517.97	941.31
518.33	947.74
518.69	953.71
519.05	960.64
519.41	967.17
519.77	974.17
520.13	979.95
520.49	985.26
520.85	991.05
521.21	998.17
521.57	1003.48
521.93	1007.95
522.29	1013.86
522.65	1018.71
523.01	1024.33
523.37	1029.29
523.73	1034.71
524.09	1040.12
524.45	1045.17
524.81	1049.90
525.17	1054.83
525.53	1060.48
525.89	1065.69
526.25	1070.64
526.61	1074.07
526.97	1077.83
527.33	1082.21
527.68	1088.52
528.04	1093.55
528.40	1097.50
528.76	1100.86
529.12	1105.12
529.48	1110.76
529.84	1114.88
530.20	1119.67
530.56	1124.31
530.91	1129.57
531.27	1133.76
531.63	1137.71
531.99	1140.81
532.35	1144.67
532.71	1148.26
533.07	1152.55
533.42	1158.52
533.78	1162.17
534.14	1166.64
534.50	1171.40
534.86	1175.10
535.21	1177.17
535.57	1181.40
535.93	1184.57
536.29	1188.90
536.65	1194.12
537.00	1197.17
537.36	1200.90
537.72	1204.79
538.08	1208.38
538.44	1211.14
538.79	1214.21
539.15	1217.00
539.51	1221.21
539.87	1224.95
540.22	1229.12
540.58	1232.71
540.94	1234.33
541.29	1237.90
541.65	1240.76
542.01	1243.52
542.37	1246.50
542.72	1248.64
543.08	1250.50
543.44	1253.43
543.79	1254.98
544.15	1256.74
544.51	1260.36
544.87	1263.55
545.22	1265.95
545.58	1267.93
545.94	1270.69
546.29	1273.79
546.65	1276.79
547.01	1278.88
547.36	1280.79
547.72	1282.60
548.07	1284.98
548.43	1286.45
548.79	1288.74
549.14	1291.07
549.50	1292.60
549.86	1294.69
550.21	1298.43
550.57	1302.21
550.92	1304.95
551.28	1308.50
551.64	1311.31
551.99	1313.48
552.35	1316.17
552.70	1318.79
553.06	1322.24
553.41	1325.02
553.77	1329.43
554.13	1333.19
554.48	1338.17
554.84	1342.48
555.19	1346.36
555.55	1350.76
555.90	1354.79
556.26	1358.95
556.61	1362.60
556.97	1366.71
557.32	1370.64
557.68	1374.02
558.03	1377.48
558.39	1381.60
558.74	1385.26
559.10	1389.64
559.45	1393.36
559.81	1398.07
560.16	1401.52
560.52	1405.26
560.87	1409.67
561.23	1412.12
561.58	1418.36
561.94	1421.43
562.29	1425.95
562.64	1430.64
563.00	1434.69
563.35	1439.19
563.71	1444.14
564.06	1449.50
564.42	1455.02
564.77	1460.93
565.12	1466.86
565.48	1473.69
565.83	1480.55
566.19	1486.29
566.54	1491.19
566.89	1497.31
567.25	1502.55
567.60	1509.52
567.96	1517.88
568.31	1525.24
568.66	1532.48
569.02	1536.36
569.37	1541.69
569.72	1547.74
570.08	1552.81
570.43	1557.67
570.78	1564.00
571.14	1569.26
571.49	1574.60
571.84	1580.38
572.20	1584.86
572.55	1590.10
572.90	1593.76
573.26	1597.98
573.61	1602.21
573.96	1607.83
574.31	1612.62
574.67	1615.95
575.02	1619.21
575.37	1620.69
575.72	1622.62
576.08	1625.64
576.43	1629.14
576.78	1633.45
577.13	1636.86
577.49	1640.19
577.84	1644.64
578.19	1647.69
578.54	1651.45
578.90	1655.45
579.25	1658.86
579.60	1662.55
579.95	1665.17
580.30	1668.38
580.66	1671.79
581.01	1674.93
581.36	1677.45
581.71	1680.31
582.06	1685.00
582.42	1689.57
582.77	1693.14
583.12	1697.36
583.47	1700.60
583.82	1703.90
584.17	1707.17
584.53	1710.74
584.88	1714.71
585.23	1717.90
585.58	1720.88
585.93	1723.10
586.28	1725.33
586.63	1728.02
586.98	1730.74
587.34	1734.50
587.69	1737.00
588.04	1738.64
588.39	1741.93
588.74	1743.93
589.09	1747.02
589.44	1747.95
589.79	1749.67
590.14	1751.60
590.49	1752.74
590.84	1754.36
591.19	1756.60
591.54	1757.93
591.89	1758.45
592.25	1760.90
592.60	1761.50
592.95	1763.88
593.30	1765.48
593.65	1766.40
594.00	1767.00
594.35	1774.10
594.70	1773.83
595.05	1775.33
595.40	1777.38
595.75	1777.00
596.10	1778.45
596.45	1778.19
596.80	1779.76
597.15	1780.69
597.50	1781.50
597.85	1783.43
598.19	1783.50
598.54	1783.71
598.89	1785.10
599.24	1786.60
599.59	1786.05
599.94	1786.48
600.29	1785.81
600.64	1785.02
600.99	1785.79
601.34	1786.40
601.69	1779.64
602.04	1779.24
602.39	1778.55
602.74	1778.02
603.08	1778.19
603.43	1778.45
603.78	1778.14
604.13	1777.76
604.48	1776.26
604.83	1776.38
605.18	1775.52
605.53	1774.67
605.87	1773.43
606.22	1771.67
606.57	1769.95
606.92	1768.64
607.27	1767.76
607.62	1767.00
607.96	1767.26
608.31	1766.74
608.66	1765.60
609.01	1764.21
609.36	1763.95
609.70	1762.52
610.05	1759.76
610.40	1758.40
610.75	1755.52
611.10	1753.76
611.44	1750.05
611.79	1748.36
612.14	1745.81
612.49	1742.00
612.83	1740.45
613.18	1737.43
613.53	1733.95
613.88	1730.17
614.22	1725.90
614.57	1722.24
614.92	1718.14
615.27	1714.52
615.61	1710.31
615.96	1706.31
616.31	1702.83
616.65	1699.71
617.00	1696.71
617.35	1694.33
617.70	1691.19
618.04	1687.69
618.39	1683.50
618.74	1681.14
619.08	1677.24
619.43	1673.43
619.78	1670.88
620.12	1667.79
620.47	1664.50
620.82	1661.02
621.16	1657.55
621.51	1655.50
621.85	1651.38
622.20	1647.62
622.55	1642.81
622.89	1639.93
623.24	1637.00
623.59	1633.81
623.93	1629.38
624.28	1625.24
624.62	1622.02
624.97	1618.81
625.32	1614.67
625.66	1611.48
626.01	1607.17
626.35	1603.36
626.70	1598.57
627.04	1594.74
627.39	1589.88
627.73	1586.83
628.08	1583.48
628.43	1579.64
628.77	1575.10
629.12	1571.60
629.46	1568.76
629.81	1565.05
630.15	1559.12
630.50	1553.55
630.84	1548.83
631.19	1543.83
631.53	1538.79
631.88	1532.07
632.22	1525.64
632.57	1521.93
632.91	1516.74
633.26	1512.57
633.60	1507.60
633.95	1502.55
634.29	1497.69
634.64	1492.93
634.98	1486.88
635.32	1482.69
635.67	1479.40
636.01	1475.36
636.36	1470.40
636.70	1465.83
637.05	1461.60
637.39	1457.88
637.73	1454.33
638.08	1450.12
638.42	1446.00
638.77	1442.48
639.11	1438.93
639.45	1434.36
639.80	1428.83
640.14	1423.33
640.49	1417.19
640.83	1411.90
641.17	1407.98
641.52	1402.33
641.86	1397.88
642.20	1394.81
642.55	1389.69
642.89	1383.14
643.23	1376.64
643.58	1372.45
643.92	1366.57
644.26	1360.60
644.61	1355.36
644.95	1348.71
645.29	1342.50
645.64	1337.19
645.98	1330.48
646.32	1325.24
646.66	1318.90
647.01	1313.17
647.35	1308.76
647.69	1303.86
648.04	1298.81
648.38	1293.10
648.72	1287.62
649.06	1281.48
649.41	1273.83
649.75	1267.00
650.09	1260.76
650.43	1254.95
650.78	1248.29
651.12	1241.31
651.46	1235.36
651.80	1228.62
652.14	1222.74
652.49	1217.19
652.83	1210.14
653.17	1203.93
653.51	1196.31
653.85	1190.57
654.20	1184.05
654.54	1176.52
654.88	1169.38
655.22	1162.90
655.56	1155.62
655.90	1148.43
656.25	1141.93
656.59	1135.79
656.93	1128.86
657.27	1124.14
657.61	1117.81
657.95	1111.24
658.29	1105.00
658.64	1099.29
658.98	1092.52
659.32	1085.98
659.66	1079.62
660.00	1073.83
660.34	1067.24
660.68	1061.52
661.02	1055.31
661.36	1048.67
661.70	1042.52
662.05	1037.21
662.39	1031.74
662.73	1026.93
663.07	1022.00
663.41	1015.45
663.75	1009.55
664.09	1003.67
664.43	996.98
664.77	990.90
665.11	984.19
665.45	978.24
665.79	972.19
666.13	966.48
666.47	960.60
666.81	954.05
667.15	947.45
667.49	942.76
667.83	937.12
668.17	931.52
668.51	926.74
668.85	921.93
669.19	917.17
669.53	910.71
669.87	904.19
670.21	897.55
670.55	891.57
670.89	886.69
671.23	881.69
671.57	875.79
671.91	870.10
672.25	865.02
672.58	860.60
672.92	854.95
673.26	849.71
673.60	844.60
673.94	839.43
674.28	834.69
674.62	829.36
674.96	824.12
675.30	819.55
675.64	813.83
675.97	808.62
676.31	802.29
676.65	796.52
676.99	792.74
677.33	788.19
677.67	784.12
678.01	778.69
678.34	773.64
678.68	769.17
679.02	764.38
679.36	759.74
679.70	754.24
680.04	749.02
680.37	744.14
680.71	739.38
681.05	734.83
681.39	729.93
681.73	724.31
682.06	719.31
682.40	714.02
682.74	709.95
683.08	706.21
683.42	701.43
683.75	697.64
684.09	692.12
684.43	687.43
684.77	682.19
685.10	677.36
685.44	673.05
685.78	668.07
686.12	663.29
686.45	658.12
686.79	652.98
687.13	648.67
687.46	644.14
687.80	639.93
688.14	635.55
688.48	631.38
688.81	627.02
689.15	623.88
689.49	619.50
689.82	615.05
690.16	609.26
690.50	605.21
690.83	600.71
691.17	596.17
691.51	591.74
691.84	587.74
692.18	583.33
692.52	579.26
692.85	575.52
693.19	572.86
693.52	569.52
693.86	565.79
694.20	561.60
694.53	557.74
694.87	553.86
695.21	549.38
695.54	545.38
695.88	541.31
696.21	536.05
696.55	532.33
696.88	528.64
697.22	525.12
697.56	521.86
697.89	518.02
698.23	515.10
698.56	511.83
698.90	508.95
699.23	505.19
699.57	501.88
699.90	497.90
700.24	493.43
700.58	489.43
700.91	486.79
701.25	485.24
701.58	483.02
701.92	480.26
702.25	477.60
702.59	474.10
702.92	471.38
703.26	468.60
703.59	465.52
703.93	464.62
704.26	462.10
704.60	459.17
704.93	456.00
705.26	452.71
705.60	450.07
705.93	446.24
706.27	444.14
706.60	441.29
706.94	439.69
707.27	436.88
707.61	434.60
707.94	431.45
708.27	427.55
708.61	424.24
708.94	420.95
709.28	418.67
709.61	416.36
709.94	413.90
710.28	411.55
710.61	409.33
710.95	404.40
711.28	403.29
711.61	400.93
711.95	399.45
712.28	396.69
712.61	394.07
712.95	393.05
713.28	391.74
713.61	389.55
713.95	386.67
714.28	384.93
714.61	382.79
714.95	380.69
715.28	378.21
715.61	375.52
715.95	373.83
716.28	371.43
716.61	369.76
716.95	367.50
717.28	365.50
717.61	363.55
717.94	361.81
718.28	358.62
718.61	356.60
718.94	354.40
719.27	352.95
719.61	351.31
719.94	349.17
720.27	346.33
720.60	344.48
720.94	342.90
721.27	341.36
721.60	340.05
721.93	338.36
722.27	337.50
722.60	336.57
722.93	334.55
723.26	333.24
723.59	331.14
723.93	330.12
724.26	328.86
724.59	327.50
724.92	326.48
725.25	325.50
725.59	323.90
725.92	322.95
726.25	321.45
726.58	320.40
726.91	319.07
727.24	318.05
727.57	316.67
727.91	315.31
728.24	314.17
728.57	312.67
728.90	311.93
729.23	310.29
729.56	309.93
729.89	309.55
730.22	308.29
730.55	307.36
730.89	306.33
731.22	305.05
731.55	303.81
731.88	302.50
732.21	301.14
732.54	300.14
732.87	298.83
733.20	298.19
733.53	297.17
733.86	296.12
734.19	294.79
734.52	294.26
734.85	294.52
735.18	293.17
735.51	293.36
735.84	292.43
736.17	292.12
736.50	290.26
736.83	291.07
737.16	290.00
737.49	289.62
737.82	288.67
738.15	288.21
738.48	287.38
738.81	286.69
739.14	285.55
739.47	285.00
739.80	284.17
740.13	283.55
740.46	282.26
740.79	281.45
741.12	280.88
741.45	280.02
741.78	278.07
742.11	278.26
742.44	276.74
742.77	276.55
743.10	275.57
743.43	274.81
743.75	272.36
744.08	274.74
744.41	273.81
744.74	272.81
745.07	271.81
745.40	271.31
745.73	271.50
746.06	270.93
746.39	270.31
746.71	269.48
747.04	268.26
747.37	267.90
747.70	267.57
748.03	266.83
748.36	266.14
748.68	265.71
749.01	264.19
749.34	263.64
749.67	262.79
750.00	262.38
750.33	263.21
750.65	262.86
750.98	259.69
751.31	259.05
751.64	258.90
751.97	259.55
752.29	258.88
752.62	257.31
752.95	256.69
753.28	256.02
753.60	255.79
753.93	256.02
754.26	255.79
754.59	254.40
754.91	253.69
755.24	253.19
755.57	252.43
755.90	252.26
756.22	251.64
756.55	250.83
756.88	250.05
757.20	248.29
757.53	247.21
757.86	246.55
758.19	246.21
758.51	245.60
758.84	244.02
759.17	243.36
759.49	243.05
759.82	243.95
760.15	243.62
760.47	243.05
760.80	242.02
761.13	241.64
761.45	241.55
761.78	241.38
762.11	241.07
762.43	240.57
762.76	239.98
763.08	239.69
763.41	239.48
763.74	239.14
764.06	238.90
764.39	238.67
764.71	238.52
765.04	238.05
765.37	237.57
765.69	237.17
766.02	236.98
766.34	236.45
766.67	235.17
767.00	235.33
767.32	236.17
767.65	237.07
767.97	236.76
768.30	236.57
768.62	236.29
768.95	235.81
769.27	235.90
769.60	235.98
769.92	235.31
770.25	234.62
770.57	234.24
770.90	234.10
771.22	233.57
771.55	233.33
771.87	233.19
772.20	233.26
772.52	235.07
772.85	237.33
773.17	237.29
773.50	236.83
773.82	236.17
774.15	235.00
774.47	233.43
774.80	233.02
775.12	232.88
775.45	232.81
775.77	232.76
776.09	232.52
776.42	232.31
776.74	232.86
777.07	232.74
777.39	232.57
777.72	231.88
778.04	231.95
778.36	231.43
778.69	231.48
779.01	231.07
779.33	228.81
779.66	226.24
779.98	226.02
780.31	226.19
780.63	226.79
780.95	227.00
781.28	227.12
781.60	226.88
781.92	226.64
782.25	226.40
782.57	226.02
782.89	225.57
783.22	225.26
783.54	224.90
783.86	224.93
784.19	224.60
784.51	225.21
784.83	224.69
785.16	224.67
