SpectraSuite Data File
++++++++++++++++++++++++++++++++++++
Date: Tue Apr 02 18:42:35 EDT 2013
User: group
Dark Spectrum Present: No
Reference Spectrum Present: No
Number of Sampled Component Spectra: 1
Spectrometers: USB2E7196
Integration Time (usec): 580000 (USB2E7196)
Spectra Averaged: 2 (USB2E7196)
Boxcar Smoothing: 10 (USB2E7196)
Correct for Electrical Dark: No (USB2E7196)
Strobe/Lamp Enabled: No (USB2E7196)
Correct for Detector Non-linearity: No (USB2E7196)
Correct for Stray Light: No (USB2E7196)
Number of Pixels in Processed Spectrum: 2048
>>>>>Begin Processed Spectral Data<<<<<
339.09	0.00
339.48	192.50
339.86	194.00
340.24	196.00
340.63	193.00
341.01	227.50
341.39	199.00
341.78	207.00
342.16	211.50
342.54	205.00
342.93	197.10
343.31	206.67
343.69	207.29
344.07	207.93
344.46	208.81
344.84	209.62
345.22	208.71
345.60	209.17
345.99	209.31
346.37	209.50
346.75	209.64
347.13	210.10
347.52	210.45
347.90	211.26
348.28	211.31
348.66	211.93
349.05	211.50
349.43	211.88
349.81	212.14
350.19	212.17
350.57	212.57
350.96	212.83
351.34	213.43
351.72	213.62
352.10	213.86
352.48	213.60
352.87	213.71
353.25	213.62
353.63	213.57
354.01	213.69
354.39	213.74
354.77	214.00
355.15	214.43
355.54	214.21
355.92	213.86
356.30	213.98
356.68	215.36
357.06	215.69
357.44	215.64
357.82	215.55
358.20	216.50
358.58	216.40
358.97	216.55
359.35	217.02
359.73	217.50
360.11	217.43
360.49	217.69
360.87	217.64
361.25	218.07
361.63	218.93
362.01	219.07
362.39	218.81
362.77	218.81
363.15	218.69
363.53	218.50
363.91	218.40
364.29	218.26
364.67	216.05
365.05	215.81
365.43	215.67
365.81	215.83
366.19	215.90
366.57	216.81
366.95	216.52
367.33	215.86
367.71	215.76
368.09	215.93
368.47	215.67
368.85	215.60
369.23	215.93
369.61	215.17
369.99	215.62
370.37	215.69
370.75	216.81
371.13	216.55
371.51	216.38
371.89	216.43
372.27	216.60
372.65	216.71
373.03	216.86
373.41	216.74
373.78	216.52
374.16	215.36
374.54	214.79
374.92	214.74
375.30	214.90
375.68	214.60
376.06	215.00
376.44	214.90
376.82	215.19
377.19	215.07
377.57	214.86
377.95	214.19
378.33	214.07
378.71	212.50
379.09	212.83
379.47	213.17
379.84	212.98
380.22	212.98
380.60	212.69
380.98	212.19
381.36	212.36
381.73	212.12
382.11	212.55
382.49	212.50
382.87	212.19
383.25	212.10
383.62	214.43
384.00	213.74
384.38	213.93
384.76	214.10
385.13	215.05
385.51	215.12
385.89	214.98
386.27	215.05
386.64	215.69
387.02	215.19
387.40	215.02
387.78	215.17
388.15	215.07
388.53	215.05
388.91	215.40
389.29	215.05
389.66	215.33
390.04	215.19
390.42	215.33
390.79	215.48
391.17	215.45
391.55	213.07
391.92	213.43
392.30	213.50
392.68	213.10
393.05	212.90
393.43	213.14
393.81	213.17
394.18	212.81
394.56	212.71
394.94	213.33
395.31	212.93
395.69	213.76
396.06	214.14
396.44	214.40
396.82	214.02
397.19	215.24
397.57	215.12
397.95	215.57
398.32	215.14
398.70	215.31
399.07	215.71
399.45	215.74
399.82	215.62
400.20	215.50
400.58	215.50
400.95	214.36
401.33	214.83
401.70	216.69
402.08	216.88
402.45	216.88
402.83	217.43
403.20	217.93
403.58	217.64
403.95	218.17
404.33	218.55
404.71	219.10
405.08	220.21
405.46	220.64
405.83	220.81
406.21	221.12
406.58	221.52
406.96	221.83
407.33	222.57
407.70	223.33
408.08	225.55
408.45	226.45
408.83	227.69
409.20	228.00
409.58	227.43
409.95	228.71
410.33	229.67
410.70	229.69
411.08	231.02
411.45	231.93
411.82	232.48
412.20	234.14
412.57	236.48
412.95	236.05
413.32	237.74
413.69	239.21
414.07	241.07
414.44	242.88
414.82	244.81
415.19	247.26
415.56	249.67
415.94	251.07
416.31	254.05
416.68	256.55
417.06	259.93
417.43	263.29
417.81	266.79
418.18	270.55
418.55	274.43
418.93	278.26
419.30	282.45
419.67	287.12
420.04	291.24
420.42	295.38
420.79	302.57
421.16	308.00
421.54	315.00
421.91	321.17
422.28	327.67
422.66	334.29
423.03	341.98
423.40	349.10
423.77	356.07
424.15	363.43
424.52	371.14
424.89	379.90
425.26	387.81
425.64	395.57
426.01	403.93
426.38	413.21
426.75	423.00
427.13	432.64
427.50	442.33
427.87	452.29
428.24	462.19
428.61	470.50
428.99	481.67
429.36	492.24
429.73	503.19
430.10	515.02
430.47	526.67
430.85	537.36
431.22	549.67
431.59	564.98
431.96	577.79
432.33	592.45
432.70	606.31
433.08	622.67
433.45	637.81
433.82	653.10
434.19	669.38
434.56	686.29
434.93	701.86
435.30	717.50
435.68	735.98
436.05	754.24
436.42	771.64
436.79	787.62
437.16	804.71
437.53	823.71
437.90	841.10
438.27	859.24
438.64	877.55
439.01	894.31
439.38	908.14
439.75	922.57
440.13	939.12
440.50	954.71
440.87	966.98
441.24	979.83
441.61	994.76
441.98	1006.43
442.35	1017.95
442.72	1031.40
443.09	1044.69
443.46	1051.33
443.83	1055.69
444.20	1060.12
444.57	1066.38
444.94	1069.74
445.31	1073.50
445.68	1079.12
446.05	1081.29
446.42	1079.83
446.79	1079.00
447.16	1076.69
447.53	1075.76
447.90	1069.43
448.27	1062.74
448.64	1054.48
449.01	1048.79
449.37	1037.17
449.74	1026.00
450.11	1014.93
450.48	999.52
450.85	983.83
451.22	971.52
451.59	960.14
451.96	948.67
452.33	933.07
452.70	918.76
453.07	900.90
453.43	881.17
453.80	863.67
454.17	848.19
454.54	832.57
454.91	816.43
455.28	800.38
455.65	785.69
456.02	774.26
456.38	761.50
456.75	745.76
457.12	732.26
457.49	719.24
457.86	704.79
458.23	695.29
458.59	684.29
458.96	672.67
459.33	661.29
459.70	651.02
460.07	642.81
460.43	632.93
460.80	624.36
461.17	616.98
461.54	609.12
461.91	600.36
462.27	592.10
462.64	584.79
463.01	577.57
463.38	570.50
463.74	559.19
464.11	552.12
464.48	546.64
464.85	540.50
465.21	536.29
465.58	531.57
465.95	524.31
466.32	518.79
466.68	513.60
467.05	508.69
467.42	503.45
467.78	497.95
468.15	493.17
468.52	489.26
468.88	483.60
469.25	478.57
469.62	475.55
469.98	471.31
470.35	467.95
470.72	463.83
471.08	459.48
471.45	457.43
471.82	454.95
472.18	451.62
472.55	449.40
472.92	445.14
473.28	441.81
473.65	439.26
474.02	436.48
474.38	434.33
474.75	432.31
475.11	430.19
475.48	428.40
475.85	426.69
476.21	424.33
476.58	423.21
476.94	422.31
477.31	421.19
477.67	419.93
478.04	418.43
478.41	417.90
478.77	419.21
479.14	417.21
479.50	416.43
479.87	415.90
480.23	415.74
480.60	415.90
480.96	416.02
481.33	416.90
481.69	417.10
482.06	417.14
482.42	417.55
482.79	417.64
483.15	418.02
483.52	418.74
483.88	419.48
484.25	419.86
484.61	420.57
484.98	420.95
485.34	422.90
485.71	424.81
486.07	426.12
486.44	425.74
486.80	427.86
487.17	429.36
487.53	432.33
487.90	434.31
488.26	436.95
488.62	439.81
488.99	441.29
489.35	443.55
489.72	446.10
490.08	449.05
490.44	451.67
490.81	454.93
491.17	458.24
491.54	461.67
491.90	465.52
492.26	468.90
492.63	472.90
492.99	476.10
493.36	480.14
493.72	484.81
494.08	489.14
494.45	493.79
494.81	499.17
495.17	502.95
495.54	507.98
495.90	512.90
496.26	517.48
496.63	523.24
496.99	528.71
497.35	534.33
497.72	540.31
498.08	546.69
498.44	552.60
498.80	558.69
499.17	564.69
499.53	571.26
499.89	578.14
500.26	584.55
500.62	591.71
500.98	599.07
501.34	605.52
501.71	612.74
502.07	620.00
502.43	626.74
502.79	633.95
503.16	640.95
503.52	647.76
503.88	654.69
504.24	661.90
504.60	669.81
504.97	677.62
505.33	684.88
505.69	693.33
506.05	700.62
506.41	708.05
506.78	716.45
507.14	724.12
507.50	731.98
507.86	739.50
508.22	747.74
508.59	754.45
508.95	762.29
509.31	771.38
509.67	778.86
510.03	786.57
510.39	794.21
510.75	802.50
511.12	810.02
511.48	818.38
511.84	825.88
512.20	833.74
512.56	840.93
512.92	848.67
513.28	855.90
513.64	864.00
514.00	871.71
514.37	879.17
514.73	886.52
515.09	893.62
515.45	901.36
515.81	907.98
516.17	916.17
516.53	922.79
516.89	928.24
517.25	935.38
517.61	942.31
517.97	949.38
518.33	955.36
518.69	962.67
519.05	969.31
519.41	976.02
519.77	983.17
520.13	989.48
520.49	994.98
520.85	1000.26
521.21	1006.71
521.57	1013.40
521.93	1018.12
522.29	1024.17
522.65	1029.21
523.01	1035.00
523.37	1039.76
523.73	1044.19
524.09	1049.55
524.45	1054.38
524.81	1059.12
525.17	1063.55
525.53	1067.83
525.89	1072.81
526.25	1077.21
526.61	1081.57
526.97	1085.93
527.33	1089.83
527.68	1095.81
528.04	1100.24
528.40	1104.62
528.76	1108.50
529.12	1112.45
529.48	1117.81
529.84	1121.60
530.20	1126.93
530.56	1130.76
530.91	1136.10
531.27	1140.50
531.63	1145.50
531.99	1149.21
532.35	1153.55
532.71	1157.31
533.07	1161.50
533.42	1167.88
533.78	1172.79
534.14	1177.07
534.50	1181.17
534.86	1185.50
535.21	1188.10
535.57	1192.62
535.93	1196.74
536.29	1201.10
536.65	1204.17
537.00	1207.76
537.36	1211.12
537.72	1214.43
538.08	1218.26
538.44	1221.21
538.79	1224.90
539.15	1227.14
539.51	1231.64
539.87	1235.12
540.22	1239.14
540.58	1243.24
540.94	1244.74
541.29	1247.57
541.65	1249.52
542.01	1252.45
542.37	1254.67
542.72	1257.31
543.08	1259.79
543.44	1262.24
543.79	1264.05
544.15	1268.24
544.51	1271.79
544.87	1275.33
545.22	1278.00
545.58	1281.10
545.94	1283.81
546.29	1286.52
546.65	1289.48
547.01	1292.14
547.36	1295.40
547.72	1298.21
548.07	1300.67
548.43	1302.86
548.79	1304.95
549.14	1308.29
549.50	1311.64
549.86	1313.71
550.21	1316.57
550.57	1320.76
550.92	1323.57
551.28	1327.14
551.64	1329.40
551.99	1332.38
552.35	1334.93
552.70	1337.64
553.06	1340.64
553.41	1343.79
553.77	1348.33
554.13	1351.98
554.48	1356.26
554.84	1359.86
555.19	1363.76
555.55	1368.69
555.90	1373.19
556.26	1377.98
556.61	1381.69
556.97	1384.48
557.32	1390.10
557.68	1393.79
558.03	1397.24
558.39	1401.14
558.74	1404.19
559.10	1408.64
559.45	1412.79
559.81	1417.83
560.16	1422.26
560.52	1426.86
560.87	1431.81
561.23	1435.62
561.58	1441.62
561.94	1445.64
562.29	1450.14
562.64	1455.05
563.00	1458.45
563.35	1462.88
563.71	1467.29
564.06	1472.57
564.42	1478.31
564.77	1482.57
565.12	1488.29
565.48	1495.07
565.83	1501.24
566.19	1507.67
566.54	1512.79
566.89	1517.90
567.25	1524.50
567.60	1531.71
567.96	1539.00
568.31	1545.43
568.66	1551.17
569.02	1556.00
569.37	1561.00
569.72	1566.95
570.08	1571.52
570.43	1577.05
570.78	1582.67
571.14	1588.02
571.49	1593.76
571.84	1598.93
572.20	1604.05
572.55	1609.98
572.90	1613.57
573.26	1617.76
573.61	1622.17
573.96	1627.31
574.31	1631.90
574.67	1635.19
575.02	1637.67
575.37	1639.86
575.72	1642.79
576.08	1646.93
576.43	1650.40
576.78	1654.67
577.13	1657.24
577.49	1661.07
577.84	1664.64
578.19	1668.24
578.54	1671.62
578.90	1675.21
579.25	1679.38
579.60	1683.21
579.95	1684.50
580.30	1687.50
580.66	1691.10
581.01	1694.60
581.36	1696.69
581.71	1699.02
582.06	1702.83
582.42	1706.60
582.77	1710.38
583.12	1713.43
583.47	1715.74
583.82	1718.79
584.17	1722.05
584.53	1726.33
584.88	1729.64
585.23	1733.67
585.58	1735.93
585.93	1737.83
586.28	1739.55
586.63	1741.19
586.98	1743.10
587.34	1747.86
587.69	1749.71
588.04	1752.24
588.39	1754.31
588.74	1755.83
589.09	1758.43
589.44	1758.31
589.79	1759.81
590.14	1760.43
590.49	1761.83
590.84	1762.86
591.19	1764.74
591.54	1764.93
591.89	1765.40
592.25	1768.79
592.60	1768.74
592.95	1769.76
593.30	1772.43
593.65	1773.88
594.00	1775.12
594.35	1781.55
594.70	1781.83
595.05	1782.76
595.40	1782.52
595.75	1783.19
596.10	1784.67
596.45	1785.50
596.80	1787.45
597.15	1788.40
597.50	1788.90
597.85	1789.57
598.19	1789.74
598.54	1789.95
598.89	1790.67
599.24	1790.19
599.59	1788.10
599.94	1787.38
600.29	1787.81
600.64	1786.95
600.99	1786.38
601.34	1786.55
601.69	1780.71
602.04	1779.60
602.39	1778.98
602.74	1780.50
603.08	1779.64
603.43	1780.29
603.78	1779.62
604.13	1778.33
604.48	1776.93
604.83	1776.55
605.18	1777.00
605.53	1776.45
605.87	1774.31
606.22	1773.10
606.57	1772.33
606.92	1771.14
607.27	1770.86
607.62	1770.40
607.96	1770.36
608.31	1770.12
608.66	1768.02
609.01	1766.79
609.36	1765.62
609.70	1764.31
610.05	1760.52
610.40	1758.93
610.75	1755.86
611.10	1753.81
611.44	1750.79
611.79	1748.14
612.14	1745.67
612.49	1740.83
612.83	1738.69
613.18	1736.57
613.53	1732.62
613.88	1729.43
614.22	1725.71
614.57	1720.88
614.92	1716.33
615.27	1711.00
615.61	1706.02
615.96	1701.90
616.31	1697.62
616.65	1694.79
617.00	1691.86
617.35	1689.79
617.70	1685.88
618.04	1681.69
618.39	1677.43
618.74	1674.86
619.08	1670.74
619.43	1666.90
619.78	1664.17
620.12	1659.83
620.47	1655.69
620.82	1651.93
621.16	1646.07
621.51	1642.83
621.85	1640.00
622.20	1635.55
622.55	1631.02
622.89	1627.45
623.24	1624.43
623.59	1620.26
623.93	1614.93
624.28	1609.90
624.62	1606.93
624.97	1603.48
625.32	1599.55
625.66	1596.43
626.01	1590.76
626.35	1587.36
626.70	1582.88
627.04	1579.17
627.39	1575.12
627.73	1571.98
628.08	1568.83
628.43	1566.31
628.77	1562.10
629.12	1558.38
629.46	1554.88
629.81	1550.48
630.15	1545.57
630.50	1540.55
630.84	1535.98
631.19	1530.79
631.53	1526.07
631.88	1518.40
632.22	1511.88
632.57	1507.76
632.91	1501.67
633.26	1497.31
633.60	1491.93
633.95	1486.40
634.29	1479.71
634.64	1474.24
634.98	1467.67
635.32	1463.07
635.67	1459.31
636.01	1454.55
636.36	1448.29
636.70	1443.33
637.05	1439.69
637.39	1435.67
637.73	1430.98
638.08	1427.14
638.42	1423.10
638.77	1418.14
639.11	1413.48
639.45	1408.48
639.80	1401.69
640.14	1396.31
640.49	1391.19
640.83	1386.00
641.17	1380.26
641.52	1375.67
641.86	1370.43
642.20	1367.02
642.55	1359.86
642.89	1352.69
643.23	1346.40
643.58	1341.43
643.92	1333.81
644.26	1326.26
644.61	1319.43
644.95	1313.26
645.29	1306.38
645.64	1299.98
645.98	1293.38
646.32	1288.02
646.66	1282.21
647.01	1276.31
647.35	1271.17
647.69	1265.60
648.04	1259.71
648.38	1254.40
648.72	1248.26
649.06	1242.17
649.41	1233.79
649.75	1226.98
650.09	1220.38
650.43	1213.31
650.78	1206.38
651.12	1200.95
651.46	1195.02
651.80	1188.60
652.14	1182.17
652.49	1176.07
652.83	1169.19
653.17	1162.64
653.51	1155.19
653.85	1148.76
654.20	1142.43
654.54	1134.55
654.88	1126.71
655.22	1119.98
655.56	1112.55
655.90	1105.69
656.25	1098.43
656.59	1092.69
656.93	1087.24
657.27	1082.12
657.61	1075.52
657.95	1069.12
658.29	1062.55
658.64	1056.62
658.98	1049.86
659.32	1042.43
659.66	1035.76
660.00	1029.40
660.34	1022.86
660.68	1016.83
661.02	1010.19
661.36	1002.88
661.70	996.29
662.05	990.33
662.39	984.07
662.73	978.98
663.07	973.67
663.41	967.62
663.75	961.05
664.09	954.79
664.43	948.24
664.77	942.40
665.11	936.88
665.45	930.69
665.79	924.52
666.13	919.17
666.47	913.98
666.81	907.43
667.15	901.10
667.49	896.05
667.83	890.88
668.17	885.21
668.51	880.60
668.85	875.81
669.19	871.67
669.53	865.71
669.87	859.17
670.21	852.64
670.55	847.62
670.89	843.17
671.23	838.36
671.57	832.50
671.91	827.64
672.25	821.29
672.58	816.95
672.92	811.12
673.26	805.79
673.60	800.60
673.94	796.10
674.28	791.43
674.62	786.50
674.96	780.74
675.30	776.40
675.64	771.00
675.97	765.19
676.31	758.79
676.65	753.81
676.99	750.00
677.33	745.24
677.67	740.38
678.01	734.69
678.34	729.69
678.68	725.50
679.02	720.43
679.36	715.86
679.70	710.60
680.04	706.24
680.37	701.33
680.71	696.29
681.05	691.57
681.39	687.07
681.73	681.93
682.06	677.36
682.40	672.69
682.74	668.60
683.08	665.43
683.42	660.38
683.75	656.31
684.09	651.45
684.43	647.19
684.77	642.43
685.10	637.60
685.44	632.71
685.78	627.52
686.12	623.19
686.45	619.05
686.79	614.60
687.13	610.62
687.46	606.40
687.80	603.21
688.14	599.17
688.48	595.10
688.81	591.14
689.15	587.81
689.49	583.57
689.82	579.52
690.16	574.50
690.50	571.24
690.83	567.14
691.17	562.36
691.51	558.00
691.84	554.19
692.18	550.36
692.52	546.74
692.85	543.64
693.19	540.93
693.52	537.07
693.86	533.17
694.20	529.40
694.53	525.69
694.87	521.29
695.21	516.93
695.54	513.17
695.88	509.26
696.21	504.62
696.55	501.26
696.88	497.62
697.22	494.31
697.56	491.26
697.89	487.79
698.23	485.45
698.56	482.17
698.90	479.29
699.23	475.71
699.57	472.45
699.90	468.76
700.24	464.62
700.58	461.55
700.91	458.57
701.25	457.12
701.58	454.88
701.92	452.76
702.25	449.93
702.59	446.64
702.92	444.14
703.26	441.79
703.59	438.64
703.93	437.76
704.26	435.26
704.60	432.43
704.93	429.64
705.26	426.50
705.60	424.62
705.93	421.38
706.27	419.86
706.60	417.88
706.94	416.64
707.27	413.71
707.61	411.52
707.94	409.17
708.27	405.29
708.61	402.33
708.94	399.57
709.28	398.00
709.61	395.90
709.94	393.26
710.28	391.36
710.61	389.33
710.95	385.33
711.28	384.45
711.61	381.93
711.95	380.38
712.28	378.33
712.61	375.74
712.95	374.79
713.28	373.40
713.61	371.19
713.95	368.24
714.28	366.69
714.61	364.69
714.95	362.55
715.28	360.52
715.61	358.45
715.95	356.52
716.28	354.14
716.61	352.88
716.95	351.29
717.28	349.17
717.61	347.21
717.94	345.36
718.28	341.83
718.61	340.21
718.94	337.76
719.27	336.05
719.61	334.69
719.94	332.26
720.27	329.69
720.60	327.86
720.94	326.48
721.27	325.29
721.60	324.17
721.93	322.98
722.27	322.14
722.60	321.10
722.93	319.83
723.26	318.40
723.59	316.62
723.93	315.71
724.26	314.67
724.59	313.50
724.92	312.69
725.25	312.43
725.59	311.62
725.92	310.98
726.25	309.98
726.58	309.05
726.91	308.12
727.24	307.48
727.57	306.52
727.91	305.07
728.24	303.95
728.57	302.64
728.90	301.60
729.23	300.10
729.56	299.88
729.89	298.55
730.22	297.83
730.55	296.95
730.89	295.81
731.22	294.67
731.55	293.67
731.88	292.64
732.21	291.17
732.54	289.74
732.87	289.02
733.20	288.10
733.53	287.14
733.86	286.43
734.19	284.93
734.52	284.31
734.85	285.10
735.18	283.86
735.51	283.79
735.84	283.14
736.17	282.67
736.50	280.67
736.83	282.24
737.16	281.24
737.49	280.36
737.82	279.57
738.15	278.79
738.48	278.07
738.81	277.36
739.14	276.52
739.47	275.88
739.80	274.81
740.13	274.40
740.46	273.12
740.79	271.95
741.12	271.45
741.45	270.55
741.78	268.64
742.11	268.93
742.44	267.88
742.77	267.60
743.10	266.48
743.43	266.00
743.75	263.26
744.08	265.40
744.41	264.79
744.74	263.90
745.07	263.00
745.40	262.79
745.73	262.76
746.06	262.14
746.39	261.90
746.71	261.31
747.04	260.31
747.37	259.64
747.70	259.43
748.03	259.26
748.36	258.86
748.68	258.05
749.01	256.57
749.34	255.83
749.67	255.10
750.00	255.17
750.33	256.17
750.65	255.93
750.98	253.00
751.31	252.69
751.64	252.40
751.97	253.52
752.29	253.00
752.62	251.81
752.95	251.36
753.28	250.74
753.60	250.29
753.93	250.26
754.26	250.21
754.59	249.40
754.91	248.45
755.24	247.95
755.57	247.76
755.90	247.48
756.22	246.79
756.55	246.29
756.88	245.64
757.20	243.79
757.53	242.83
757.86	242.29
758.19	241.95
758.51	241.64
758.84	240.10
759.17	239.40
759.49	239.12
759.82	239.76
760.15	239.57
760.47	238.98
760.80	238.31
761.13	238.38
761.45	238.17
761.78	237.86
762.11	237.83
762.43	237.50
762.76	237.05
763.08	237.10
763.41	236.86
763.74	236.45
764.06	236.31
764.39	236.05
764.71	236.02
765.04	235.55
765.37	234.83
765.69	234.55
766.02	234.29
766.34	233.98
766.67	232.93
767.00	233.14
767.32	234.24
767.65	235.29
767.97	234.71
768.30	234.69
768.62	234.38
768.95	233.81
769.27	233.45
769.60	233.60
769.92	233.02
770.25	232.45
770.57	231.93
770.90	231.79
771.22	231.50
771.55	231.40
771.87	231.43
772.20	231.40
772.52	232.71
772.85	235.02
773.17	234.81
773.50	234.52
773.82	233.74
774.15	232.48
774.47	230.86
774.80	230.62
775.12	230.29
775.45	230.14
775.77	229.83
776.09	229.79
776.42	229.69
776.74	230.26
777.07	229.88
777.39	229.83
777.72	229.52
778.04	229.71
778.36	229.02
778.69	228.95
779.01	228.93
779.33	227.05
779.66	224.60
779.98	224.26
780.31	224.05
780.63	224.67
780.95	224.90
781.28	224.79
781.60	224.57
781.92	224.40
782.25	224.33
782.57	224.38
782.89	224.07
783.22	223.83
783.54	223.17
783.86	223.43
784.19	223.29
784.51	223.98
784.83	223.52
785.16	223.52
