SpectraSuite Data File
++++++++++++++++++++++++++++++++++++
Date: Tue Apr 02 18:43:07 EDT 2013
User: group
Dark Spectrum Present: No
Reference Spectrum Present: No
Number of Sampled Component Spectra: 1
Spectrometers: USB2E7196
Integration Time (usec): 580000 (USB2E7196)
Spectra Averaged: 2 (USB2E7196)
Boxcar Smoothing: 10 (USB2E7196)
Correct for Electrical Dark: No (USB2E7196)
Strobe/Lamp Enabled: No (USB2E7196)
Correct for Detector Non-linearity: No (USB2E7196)
Correct for Stray Light: No (USB2E7196)
Number of Pixels in Processed Spectrum: 2048
>>>>>Begin Processed Spectral Data<<<<<
339.09	0.00
339.48	195.00
339.86	193.50
340.24	197.50
340.63	198.50
341.01	233.50
341.39	204.00
341.78	205.00
342.16	212.50
342.54	206.00
342.93	198.57
343.31	208.31
343.69	208.67
344.07	209.38
344.46	210.17
344.84	210.69
345.22	209.33
345.60	209.57
345.99	209.81
346.37	209.36
346.75	209.38
347.13	209.17
347.52	209.14
347.90	209.95
348.28	210.12
348.66	210.45
349.05	209.71
349.43	210.02
349.81	210.07
350.19	209.81
350.57	209.86
350.96	210.12
351.34	210.52
351.72	210.69
352.10	210.67
352.48	210.38
352.87	210.17
353.25	210.21
353.63	210.19
354.01	209.76
354.39	210.21
354.77	210.26
355.15	210.83
355.54	210.64
355.92	209.83
356.30	209.62
356.68	210.62
357.06	210.67
357.44	210.48
357.82	210.57
358.20	211.57
358.58	211.69
358.97	211.48
359.35	211.43
359.73	211.86
360.11	211.90
360.49	211.86
360.87	212.24
361.25	212.57
361.63	213.29
362.01	213.67
362.39	213.71
362.77	213.90
363.15	213.52
363.53	213.60
363.91	213.76
364.29	213.71
364.67	212.05
365.05	212.33
365.43	212.60
365.81	212.60
366.19	212.79
366.57	213.36
366.95	213.45
367.33	213.29
367.71	213.38
368.09	213.71
368.47	213.86
368.85	213.62
369.23	214.36
369.61	213.48
369.99	214.29
370.37	214.40
370.75	215.21
371.13	215.00
371.51	214.69
371.89	214.90
372.27	215.36
372.65	215.64
373.03	215.50
373.41	215.29
373.78	215.36
374.16	214.48
374.54	213.86
374.92	213.57
375.30	213.76
375.68	213.21
376.06	213.24
376.44	213.33
376.82	213.55
377.19	213.21
377.57	213.31
377.95	212.62
378.33	212.45
378.71	211.48
379.09	212.00
379.47	212.36
379.84	212.17
380.22	211.93
380.60	211.62
380.98	211.48
381.36	211.55
381.73	211.31
382.11	211.64
382.49	212.14
382.87	212.05
383.25	211.98
383.62	214.52
384.00	213.88
384.38	213.86
384.76	214.12
385.13	214.79
385.51	214.90
385.89	214.64
386.27	214.76
386.64	215.07
387.02	214.69
387.40	214.64
387.78	214.74
388.15	214.98
388.53	214.88
388.91	215.02
389.29	214.57
389.66	215.00
390.04	214.76
390.42	214.69
390.79	214.95
391.17	214.95
391.55	212.74
391.92	213.02
392.30	213.10
392.68	212.43
393.05	212.24
393.43	212.31
393.81	212.55
394.18	212.24
394.56	212.19
394.94	212.52
395.31	212.26
395.69	213.17
396.06	213.36
396.44	213.52
396.82	213.38
397.19	214.86
397.57	214.45
397.95	214.74
398.32	214.24
398.70	214.60
399.07	214.76
399.45	214.71
399.82	214.83
400.20	214.83
400.58	215.29
400.95	214.24
401.33	214.69
401.70	216.07
402.08	216.05
402.45	216.17
402.83	216.88
403.20	217.14
403.58	216.60
403.95	217.17
404.33	217.69
404.71	218.10
405.08	219.29
405.46	219.71
405.83	220.19
406.21	220.86
406.58	221.19
406.96	221.76
407.33	222.43
407.70	223.33
408.08	225.50
408.45	226.26
408.83	227.71
409.20	228.07
409.58	227.50
409.95	228.88
410.33	230.00
410.70	230.19
411.08	231.64
411.45	232.81
411.82	233.62
412.20	235.00
412.57	237.40
412.95	236.81
413.32	238.45
413.69	239.76
414.07	241.40
414.44	243.12
414.82	245.00
415.19	247.21
415.56	249.17
415.94	250.24
416.31	253.19
416.68	255.74
417.06	258.90
417.43	262.79
417.81	266.00
418.18	269.52
418.55	273.52
418.93	277.40
419.30	281.40
419.67	285.90
420.04	290.48
420.42	294.64
420.79	302.14
421.16	307.93
421.54	314.83
421.91	320.71
422.28	327.07
422.66	333.83
423.03	341.79
423.40	348.76
423.77	356.26
424.15	363.38
424.52	371.21
424.89	380.10
425.26	387.67
425.64	395.62
426.01	403.93
426.38	412.62
426.75	422.43
427.13	431.90
427.50	441.43
427.87	451.79
428.24	462.05
428.61	470.00
428.99	480.79
429.36	491.29
429.73	502.55
430.10	513.79
430.47	525.55
430.85	536.05
431.22	548.60
431.59	563.24
431.96	576.43
432.33	590.67
432.70	604.21
433.08	620.48
433.45	635.69
433.82	650.90
434.19	668.05
434.56	684.57
434.93	700.69
435.30	717.29
435.68	734.69
436.05	751.81
436.42	769.10
436.79	785.67
437.16	803.33
437.53	821.33
437.90	839.62
438.27	857.21
438.64	875.05
439.01	892.19
439.38	905.71
439.75	919.90
440.13	936.33
440.50	951.64
440.87	964.69
441.24	977.88
441.61	992.76
441.98	1003.48
442.35	1014.79
442.72	1027.83
443.09	1041.14
443.46	1048.40
443.83	1054.02
444.20	1059.07
444.57	1064.60
444.94	1067.76
445.31	1071.43
445.68	1077.26
446.05	1078.67
446.42	1077.86
446.79	1077.24
447.16	1075.57
447.53	1074.40
447.90	1068.17
448.27	1062.19
448.64	1053.02
449.01	1047.69
449.37	1036.52
449.74	1025.40
450.11	1014.50
450.48	999.43
450.85	982.38
451.22	969.93
451.59	957.83
451.96	945.88
452.33	930.29
452.70	915.40
453.07	898.74
453.43	878.64
453.80	862.24
454.17	846.45
454.54	829.88
454.91	813.31
455.28	797.52
455.65	782.43
456.02	771.10
456.38	758.95
456.75	742.48
457.12	728.90
457.49	715.86
457.86	701.52
458.23	691.55
458.59	680.71
458.96	668.64
459.33	657.76
459.70	647.71
460.07	639.74
460.43	630.21
460.80	621.17
461.17	613.69
461.54	605.29
461.91	597.29
462.27	589.60
462.64	582.81
463.01	575.50
463.38	569.26
463.74	558.24
464.11	551.33
464.48	545.86
464.85	539.95
465.21	536.33
465.58	531.55
465.95	524.29
466.32	519.19
466.68	513.98
467.05	509.02
467.42	503.52
467.78	498.07
468.15	492.95
468.52	489.33
468.88	483.79
469.25	479.12
469.62	475.62
469.98	471.79
470.35	468.57
470.72	465.00
471.08	460.43
471.45	457.71
471.82	454.95
472.18	451.17
472.55	448.93
472.92	444.69
473.28	441.83
473.65	439.31
474.02	436.21
474.38	434.57
474.75	432.64
475.11	430.29
475.48	428.71
475.85	427.24
476.21	424.98
476.58	424.02
476.94	422.95
477.31	421.33
477.67	419.88
478.04	418.62
478.41	417.69
478.77	418.71
479.14	417.36
479.50	416.60
479.87	416.40
480.23	415.45
480.60	415.07
480.96	414.79
481.33	415.79
481.69	416.14
482.06	415.79
482.42	415.90
482.79	416.21
483.15	416.21
483.52	417.21
483.88	418.05
484.25	418.40
484.61	419.14
484.98	420.31
485.34	422.36
485.71	423.69
486.07	424.67
486.44	424.86
486.80	426.90
487.17	427.98
487.53	430.57
487.90	432.81
488.26	436.33
488.62	438.90
488.99	440.48
489.35	442.71
489.72	445.52
490.08	448.38
490.44	450.79
490.81	454.33
491.17	457.33
491.54	460.43
491.90	464.64
492.26	468.45
492.63	472.17
492.99	475.05
493.36	479.24
493.72	484.19
494.08	487.90
494.45	492.38
494.81	497.60
495.17	501.71
495.54	506.95
495.90	511.29
496.26	516.71
496.63	522.76
496.99	528.31
497.35	533.55
497.72	539.24
498.08	545.67
498.44	551.43
498.80	557.60
499.17	564.00
499.53	570.07
499.89	577.10
500.26	584.07
500.62	590.88
500.98	597.98
501.34	604.33
501.71	612.17
502.07	619.19
502.43	625.93
502.79	632.95
503.16	639.69
503.52	646.60
503.88	653.33
504.24	660.60
504.60	668.52
504.97	676.71
505.33	683.74
505.69	691.69
506.05	699.24
506.41	707.31
506.78	715.19
507.14	722.64
507.50	730.00
507.86	737.43
508.22	746.00
508.59	753.52
508.95	761.48
509.31	770.33
509.67	778.43
510.03	786.36
510.39	794.40
510.75	802.36
511.12	810.43
511.48	818.74
511.84	826.33
512.20	833.64
512.56	841.43
512.92	849.88
513.28	857.64
513.64	865.45
514.00	872.57
514.37	879.90
514.73	887.45
515.09	895.10
515.45	901.79
515.81	908.60
516.17	915.57
516.53	922.26
516.89	927.26
517.25	933.62
517.61	941.21
517.97	947.90
518.33	954.45
518.69	960.86
519.05	966.60
519.41	972.76
519.77	980.45
520.13	985.88
520.49	990.88
520.85	996.81
521.21	1003.19
521.57	1009.14
521.93	1014.24
522.29	1019.40
522.65	1024.33
523.01	1030.50
523.37	1035.02
523.73	1040.31
524.09	1045.86
524.45	1051.19
524.81	1056.57
525.17	1061.05
525.53	1065.26
525.89	1069.24
526.25	1074.07
526.61	1078.07
526.97	1081.81
527.33	1085.29
527.68	1091.74
528.04	1096.79
528.40	1100.24
528.76	1103.86
529.12	1108.62
529.48	1113.98
529.84	1118.52
530.20	1123.21
530.56	1127.67
530.91	1132.67
531.27	1136.43
531.63	1140.50
531.99	1143.86
532.35	1147.43
532.71	1151.67
533.07	1156.00
533.42	1162.98
533.78	1166.86
534.14	1172.50
534.50	1177.14
534.86	1182.19
535.21	1184.55
535.57	1188.60
535.93	1192.55
536.29	1196.95
536.65	1200.43
537.00	1203.38
537.36	1206.14
537.72	1208.93
538.08	1212.24
538.44	1215.36
538.79	1219.31
539.15	1222.57
539.51	1226.57
539.87	1230.48
540.22	1233.50
540.58	1237.10
540.94	1239.24
541.29	1242.55
541.65	1244.36
542.01	1247.93
542.37	1249.64
542.72	1252.10
543.08	1254.71
543.44	1257.76
543.79	1259.17
544.15	1262.21
544.51	1265.31
544.87	1269.64
545.22	1273.21
545.58	1275.26
545.94	1278.02
546.29	1280.86
546.65	1283.88
547.01	1286.64
547.36	1289.38
547.72	1292.07
548.07	1294.69
548.43	1296.60
548.79	1299.36
549.14	1302.71
549.50	1305.71
549.86	1308.17
550.21	1310.69
550.57	1313.83
550.92	1317.24
551.28	1321.24
551.64	1323.81
551.99	1327.02
552.35	1328.93
552.70	1332.19
553.06	1335.74
553.41	1339.02
553.77	1343.33
554.13	1346.36
554.48	1350.79
554.84	1354.95
555.19	1359.33
555.55	1363.98
555.90	1367.64
556.26	1371.55
556.61	1374.69
556.97	1377.60
557.32	1381.50
557.68	1386.33
558.03	1390.05
558.39	1393.26
558.74	1397.02
559.10	1401.02
559.45	1404.86
559.81	1410.02
560.16	1413.31
560.52	1417.93
560.87	1422.57
561.23	1425.48
561.58	1431.88
561.94	1435.60
562.29	1439.45
562.64	1443.40
563.00	1447.07
563.35	1451.36
563.71	1456.07
564.06	1462.55
564.42	1467.57
564.77	1473.57
565.12	1479.02
565.48	1486.31
565.83	1493.26
566.19	1498.86
566.54	1504.19
566.89	1509.57
567.25	1515.45
567.60	1523.21
567.96	1531.57
568.31	1537.62
568.66	1543.86
569.02	1547.90
569.37	1554.36
569.72	1559.86
570.08	1564.43
570.43	1570.50
570.78	1577.40
571.14	1582.55
571.49	1586.64
571.84	1592.29
572.20	1597.43
572.55	1602.95
572.90	1606.12
573.26	1609.83
573.61	1614.33
573.96	1619.40
574.31	1624.69
574.67	1627.93
575.02	1631.02
575.37	1632.07
575.72	1635.86
576.08	1639.86
576.43	1644.21
576.78	1646.79
577.13	1649.98
577.49	1654.60
577.84	1658.10
578.19	1660.98
578.54	1666.26
578.90	1670.26
579.25	1673.21
579.60	1675.64
579.95	1678.64
580.30	1682.98
580.66	1686.74
581.01	1690.12
581.36	1692.76
581.71	1695.71
582.06	1700.95
582.42	1704.57
582.77	1707.64
583.12	1710.57
583.47	1713.71
583.82	1716.38
584.17	1720.12
584.53	1724.29
584.88	1726.81
585.23	1730.40
585.58	1732.79
585.93	1734.05
586.28	1737.60
586.63	1741.43
586.98	1744.62
587.34	1748.05
587.69	1750.05
588.04	1752.74
588.39	1755.19
588.74	1757.24
589.09	1758.93
589.44	1759.24
589.79	1759.86
590.14	1761.69
590.49	1763.71
590.84	1764.90
591.19	1766.74
591.54	1767.79
591.89	1768.36
592.25	1772.38
592.60	1771.79
592.95	1773.55
593.30	1775.31
593.65	1775.88
594.00	1776.19
594.35	1782.62
594.70	1781.71
595.05	1782.38
595.40	1782.83
595.75	1783.02
596.10	1784.38
596.45	1785.98
596.80	1786.76
597.15	1788.57
597.50	1790.38
597.85	1791.19
598.19	1791.45
598.54	1791.31
598.89	1791.69
599.24	1793.33
599.59	1791.90
599.94	1793.12
600.29	1793.48
600.64	1793.45
600.99	1792.55
601.34	1793.26
601.69	1787.19
602.04	1787.21
602.39	1786.36
602.74	1786.24
603.08	1786.12
603.43	1786.48
603.78	1784.93
604.13	1784.29
604.48	1781.95
604.83	1781.69
605.18	1781.33
605.53	1780.81
605.87	1779.74
606.22	1778.86
606.57	1776.50
606.92	1774.48
607.27	1773.33
607.62	1772.43
607.96	1771.24
608.31	1770.64
608.66	1769.36
609.01	1767.19
609.36	1766.45
609.70	1765.10
610.05	1762.57
610.40	1760.76
610.75	1757.60
611.10	1755.95
611.44	1753.90
611.79	1752.79
612.14	1749.02
612.49	1744.88
612.83	1742.83
613.18	1739.69
613.53	1736.60
613.88	1733.33
614.22	1729.76
614.57	1725.67
614.92	1721.12
615.27	1716.60
615.61	1712.36
615.96	1707.90
616.31	1704.79
616.65	1702.17
617.00	1698.60
617.35	1695.45
617.70	1691.81
618.04	1688.10
618.39	1684.10
618.74	1680.55
619.08	1675.95
619.43	1673.12
619.78	1670.12
620.12	1666.69
620.47	1663.76
620.82	1659.52
621.16	1655.50
621.51	1652.90
621.85	1648.67
622.20	1644.79
622.55	1640.43
622.89	1637.14
623.24	1634.07
623.59	1629.55
623.93	1624.98
624.28	1621.10
624.62	1618.86
624.97	1616.24
625.32	1612.19
625.66	1608.10
626.01	1603.67
626.35	1600.95
626.70	1595.64
627.04	1591.67
627.39	1586.67
627.73	1583.64
628.08	1580.10
628.43	1575.81
628.77	1570.95
629.12	1568.21
629.46	1564.31
629.81	1560.86
630.15	1555.50
630.50	1549.95
630.84	1546.12
631.19	1540.24
631.53	1535.00
631.88	1527.33
632.22	1520.40
632.57	1515.38
632.91	1510.31
633.26	1506.10
633.60	1499.43
633.95	1493.71
634.29	1487.81
634.64	1483.45
634.98	1477.07
635.32	1472.55
635.67	1468.88
636.01	1464.40
636.36	1459.38
636.70	1456.14
637.05	1451.14
637.39	1446.62
637.73	1441.64
638.08	1437.60
638.42	1432.43
638.77	1428.17
639.11	1423.88
639.45	1420.05
639.80	1415.38
640.14	1410.31
640.49	1404.74
640.83	1399.71
641.17	1396.19
641.52	1391.55
641.86	1385.62
642.20	1381.64
642.55	1375.05
642.89	1368.64
643.23	1362.62
643.58	1357.43
643.92	1349.43
644.26	1342.74
644.61	1337.43
644.95	1331.69
645.29	1324.40
645.64	1318.86
645.98	1312.26
646.32	1306.90
646.66	1299.74
647.01	1293.31
647.35	1287.74
647.69	1280.98
648.04	1275.50
648.38	1269.38
648.72	1263.38
649.06	1256.76
649.41	1248.86
649.75	1243.17
650.09	1237.36
650.43	1230.14
650.78	1223.24
651.12	1217.57
651.46	1211.52
651.80	1204.31
652.14	1198.07
652.49	1192.64
652.83	1186.38
653.17	1179.29
653.51	1172.24
653.85	1166.83
654.20	1160.40
654.54	1153.02
654.88	1146.55
655.22	1140.69
655.56	1133.62
655.90	1126.21
656.25	1119.81
656.59	1114.19
656.93	1107.14
657.27	1100.79
657.61	1095.60
657.95	1089.24
658.29	1082.19
658.64	1076.64
658.98	1070.71
659.32	1063.93
659.66	1057.43
660.00	1050.81
660.34	1045.10
660.68	1038.69
661.02	1031.83
661.36	1025.95
661.70	1020.38
662.05	1014.60
662.39	1008.19
662.73	1002.36
663.07	997.48
663.41	991.74
663.75	985.26
664.09	979.76
664.43	973.60
664.77	967.14
665.11	960.12
665.45	954.36
665.79	948.00
666.13	941.45
666.47	935.81
666.81	929.57
667.15	923.83
667.49	918.81
667.83	913.93
668.17	908.38
668.51	902.45
668.85	896.45
669.19	891.33
669.53	885.19
669.87	878.45
670.21	871.69
670.55	865.52
670.89	860.60
671.23	855.05
671.57	849.12
671.91	843.83
672.25	838.81
672.58	834.36
672.92	828.90
673.26	824.07
673.60	819.00
673.94	813.74
674.28	808.88
674.62	803.48
674.96	797.90
675.30	792.69
675.64	787.29
675.97	782.62
676.31	776.69
676.65	771.43
676.99	767.88
677.33	763.19
677.67	758.55
678.01	752.40
678.34	747.31
678.68	743.00
679.02	737.74
679.36	733.19
679.70	727.71
680.04	723.02
680.37	717.57
680.71	712.45
681.05	708.05
681.39	703.17
681.73	698.29
682.06	692.79
682.40	688.24
682.74	684.12
683.08	679.90
683.42	675.45
683.75	671.31
684.09	666.21
684.43	661.74
684.77	657.19
685.10	652.95
685.44	648.62
685.78	643.64
686.12	639.17
686.45	634.29
686.79	629.24
687.13	625.14
687.46	621.52
687.80	617.60
688.14	613.45
688.48	609.17
688.81	604.79
689.15	601.62
689.49	597.19
689.82	592.98
690.16	587.76
690.50	583.45
690.83	579.31
691.17	574.26
691.51	570.52
691.84	566.64
692.18	562.45
692.52	558.71
692.85	555.50
693.19	552.64
693.52	549.10
693.86	545.36
694.20	541.64
694.53	537.98
694.87	533.95
695.21	529.71
695.54	525.69
695.88	521.45
696.21	516.69
696.55	512.74
696.88	509.00
697.22	505.79
697.56	502.67
697.89	498.95
698.23	496.17
698.56	492.45
698.90	489.40
699.23	486.02
699.57	482.60
699.90	478.98
700.24	474.95
700.58	471.45
700.91	468.55
701.25	466.83
701.58	464.07
701.92	461.57
702.25	458.98
702.59	456.07
702.92	453.36
703.26	451.05
703.59	448.83
703.93	448.00
704.26	445.38
704.60	442.48
704.93	440.07
705.26	437.45
705.60	435.17
705.93	431.71
706.27	430.00
706.60	428.10
706.94	426.14
707.27	423.50
707.61	421.14
707.94	418.57
708.27	414.19
708.61	411.14
708.94	408.52
709.28	406.00
709.61	403.57
709.94	401.64
710.28	399.64
710.61	397.10
710.95	392.40
711.28	391.83
711.61	389.83
711.95	387.67
712.28	385.33
712.61	383.00
712.95	381.71
713.28	380.12
713.61	377.50
713.95	374.83
714.28	372.83
714.61	370.71
714.95	368.95
715.28	366.98
715.61	365.29
715.95	363.02
716.28	360.93
716.61	359.40
716.95	357.19
717.28	355.24
717.61	353.33
717.94	351.76
718.28	348.14
718.61	346.40
718.94	344.55
719.27	342.69
719.61	341.21
719.94	339.50
720.27	337.21
720.60	335.33
720.94	333.55
721.27	331.95
721.60	330.86
721.93	329.24
722.27	328.45
722.60	326.81
722.93	325.62
723.26	324.60
723.59	322.55
723.93	321.29
724.26	319.69
724.59	318.36
724.92	317.50
725.25	316.79
725.59	315.38
725.92	314.31
726.25	313.07
726.58	311.83
726.91	310.45
727.24	309.38
727.57	308.29
727.91	306.90
728.24	306.50
728.57	305.24
728.90	304.31
729.23	302.52
729.56	302.48
729.89	301.36
730.22	300.10
730.55	299.21
730.89	298.14
731.22	297.33
731.55	296.36
731.88	295.24
732.21	294.10
732.54	292.88
732.87	291.62
733.20	291.12
733.53	290.36
733.86	289.55
734.19	288.24
734.52	288.05
734.85	288.76
735.18	287.29
735.51	287.19
735.84	286.74
736.17	286.71
736.50	285.05
736.83	286.48
737.16	285.95
737.49	285.62
737.82	284.98
738.15	284.43
738.48	283.81
738.81	283.02
739.14	281.83
739.47	281.00
739.80	280.45
740.13	279.64
740.46	278.24
740.79	277.26
741.12	276.86
741.45	275.67
741.78	273.69
742.11	273.57
742.44	272.14
742.77	271.64
743.10	270.55
743.43	269.62
743.75	266.76
744.08	268.62
744.41	267.62
744.74	266.71
745.07	265.79
745.40	265.17
745.73	265.52
746.06	265.14
746.39	264.86
746.71	263.98
747.04	263.12
747.37	262.60
747.70	262.36
748.03	261.74
748.36	261.26
748.68	260.71
749.01	259.62
749.34	259.10
749.67	258.12
750.00	258.14
750.33	259.17
750.65	259.10
750.98	255.83
751.31	255.38
751.64	255.26
751.97	256.00
752.29	255.55
752.62	253.88
752.95	253.43
753.28	252.67
753.60	252.38
753.93	252.48
754.26	252.50
754.59	251.69
754.91	250.69
755.24	250.12
755.57	249.67
755.90	248.95
756.22	248.31
756.55	247.57
756.88	246.48
757.20	244.60
757.53	243.40
757.86	243.19
758.19	243.26
758.51	242.83
758.84	241.24
759.17	240.67
759.49	240.55
759.82	241.12
760.15	241.10
760.47	240.55
760.80	239.64
761.13	239.43
761.45	238.86
761.78	238.62
762.11	238.10
762.43	237.57
762.76	237.45
763.08	237.40
763.41	237.43
763.74	237.43
764.06	237.10
764.39	237.07
764.71	236.57
765.04	235.74
765.37	235.05
765.69	234.76
766.02	234.50
766.34	234.19
766.67	233.19
767.00	233.14
767.32	234.29
767.65	235.21
767.97	234.76
768.30	234.93
768.62	234.95
768.95	234.69
769.27	234.62
769.60	234.81
769.92	234.19
770.25	233.45
770.57	232.64
770.90	232.64
771.22	231.90
771.55	231.98
771.87	231.93
772.20	231.93
772.52	233.26
772.85	235.45
773.17	235.07
773.50	234.52
773.82	234.19
774.15	232.74
774.47	231.33
774.80	230.88
775.12	230.43
775.45	230.29
775.77	230.12
776.09	229.83
776.42	229.38
776.74	230.12
777.07	229.88
777.39	229.76
777.72	229.57
778.04	230.00
778.36	229.50
778.69	229.45
779.01	229.55
779.33	227.83
779.66	225.52
779.98	225.33
780.31	225.48
780.63	226.10
780.95	226.33
781.28	226.24
781.60	226.07
781.92	225.95
782.25	225.57
782.57	225.43
782.89	225.17
783.22	225.12
783.54	224.45
783.86	224.76
784.19	224.57
784.51	225.07
784.83	224.48
785.16	224.38
