SpectraSuite Data File
++++++++++++++++++++++++++++++++++++
Date: Tue Apr 02 18:37:51 EDT 2013
User: group
Dark Spectrum Present: No
Reference Spectrum Present: No
Number of Sampled Component Spectra: 1
Spectrometers: USB2E7196
Integration Time (usec): 580000 (USB2E7196)
Spectra Averaged: 2 (USB2E7196)
Boxcar Smoothing: 10 (USB2E7196)
Correct for Electrical Dark: No (USB2E7196)
Strobe/Lamp Enabled: No (USB2E7196)
Correct for Detector Non-linearity: No (USB2E7196)
Correct for Stray Light: No (USB2E7196)
Number of Pixels in Processed Spectrum: 2048
>>>>>Begin Processed Spectral Data<<<<<
339.09	0.00
339.48	197.00
339.86	194.50
340.24	196.50
340.63	202.00
341.01	231.00
341.39	202.00
341.78	205.50
342.16	212.00
342.54	203.50
342.93	197.60
343.31	207.31
343.69	207.69
344.07	208.12
344.46	208.90
344.84	209.19
345.22	207.98
345.60	208.57
345.99	208.76
346.37	208.43
346.75	208.62
347.13	208.48
347.52	208.79
347.90	209.21
348.28	209.14
348.66	209.69
349.05	209.17
349.43	209.21
349.81	209.31
350.19	209.26
350.57	209.36
350.96	209.69
351.34	210.10
351.72	210.21
352.10	210.50
352.48	210.05
352.87	210.02
353.25	210.05
353.63	209.88
354.01	209.83
354.39	210.21
354.77	210.24
355.15	210.95
355.54	210.74
355.92	210.29
356.30	210.45
356.68	211.62
357.06	211.64
357.44	211.36
357.82	211.48
358.20	212.60
358.58	212.60
358.97	212.43
359.35	212.67
359.73	213.36
360.11	213.29
360.49	213.45
360.87	213.48
361.25	213.81
361.63	214.17
362.01	214.33
362.39	214.10
362.77	214.21
363.15	214.17
363.53	214.36
363.91	214.45
364.29	214.33
364.67	212.43
365.05	212.45
365.43	212.81
365.81	213.24
366.19	213.45
366.57	214.52
366.95	214.71
367.33	214.38
367.71	214.05
368.09	214.64
368.47	214.83
368.85	214.90
369.23	215.38
369.61	215.12
369.99	215.81
370.37	216.33
370.75	217.33
371.13	216.88
371.51	216.48
371.89	216.60
372.27	216.93
372.65	217.12
373.03	217.38
373.41	217.48
373.78	217.19
374.16	216.10
374.54	215.36
374.92	215.14
375.30	215.36
375.68	215.24
376.06	215.36
376.44	215.26
376.82	215.33
377.19	215.07
377.57	214.79
377.95	214.02
378.33	213.76
378.71	212.71
379.09	213.17
379.47	213.52
379.84	213.45
380.22	213.43
380.60	213.26
380.98	213.38
381.36	213.21
381.73	212.95
382.11	213.45
382.49	213.69
382.87	213.40
383.25	213.29
383.62	215.45
384.00	214.90
384.38	215.10
384.76	215.69
385.13	216.45
385.51	216.69
385.89	216.60
386.27	216.67
386.64	216.83
387.02	216.52
387.40	216.26
387.78	216.43
388.15	216.43
388.53	216.31
388.91	216.33
389.29	216.19
389.66	216.43
390.04	215.83
390.42	215.86
390.79	216.17
391.17	216.14
391.55	214.02
391.92	214.14
392.30	214.17
392.68	213.48
393.05	213.36
393.43	213.38
393.81	213.57
394.18	213.02
394.56	213.19
394.94	213.64
395.31	213.43
395.69	214.19
396.06	214.43
396.44	214.48
396.82	214.14
397.19	215.12
397.57	215.12
397.95	215.55
398.32	214.90
398.70	215.17
399.07	215.43
399.45	215.17
399.82	215.07
400.20	215.02
400.58	215.14
400.95	214.14
401.33	214.57
401.70	215.86
402.08	216.29
402.45	216.45
402.83	216.79
403.20	217.14
403.58	216.88
403.95	217.38
404.33	218.05
404.71	218.38
405.08	219.64
405.46	219.79
405.83	220.40
406.21	220.93
406.58	221.43
406.96	221.88
407.33	222.86
407.70	223.71
408.08	225.71
408.45	226.67
408.83	228.07
409.20	228.48
409.58	228.19
409.95	229.55
410.33	230.55
410.70	230.95
411.08	232.52
411.45	234.10
411.82	235.17
412.20	237.02
412.57	239.95
412.95	239.98
413.32	242.07
413.69	243.38
414.07	245.48
414.44	247.48
414.82	249.90
415.19	252.55
415.56	255.17
415.94	256.74
416.31	259.98
416.68	263.29
417.06	267.02
417.43	271.29
417.81	275.14
418.18	279.50
418.55	284.00
418.93	288.45
419.30	293.21
419.67	298.17
420.04	302.93
420.42	307.57
420.79	315.38
421.16	321.88
421.54	329.90
421.91	336.90
422.28	344.24
422.66	351.98
423.03	360.90
423.40	368.71
423.77	377.26
424.15	385.83
424.52	394.69
424.89	404.86
425.26	413.71
425.64	422.62
426.01	432.52
426.38	443.40
426.75	454.36
427.13	464.98
427.50	476.55
427.87	488.24
428.24	500.02
428.61	510.69
428.99	523.74
429.36	536.55
429.73	550.17
430.10	563.17
430.47	576.93
430.85	589.45
431.22	604.40
431.59	621.55
431.96	637.17
432.33	654.50
432.70	670.90
433.08	690.24
433.45	708.31
433.82	726.57
434.19	746.17
434.56	766.79
434.93	786.24
435.30	805.02
435.68	826.76
436.05	847.86
436.42	868.17
436.79	887.62
437.16	908.33
437.53	929.90
437.90	951.93
438.27	973.50
438.64	995.55
439.01	1016.67
439.38	1034.00
439.75	1051.69
440.13	1071.12
440.50	1090.02
440.87	1106.45
441.24	1124.17
441.61	1141.81
441.98	1155.31
442.35	1169.95
442.72	1185.26
443.09	1201.50
443.46	1210.67
443.83	1217.79
444.20	1223.69
444.57	1231.17
444.94	1235.26
445.31	1240.05
445.68	1247.33
446.05	1248.40
446.42	1247.33
446.79	1246.12
447.16	1244.26
447.53	1243.17
447.90	1237.24
448.27	1230.05
448.64	1219.00
449.01	1210.36
449.37	1196.76
449.74	1184.17
450.11	1170.26
450.48	1152.69
450.85	1134.19
451.22	1119.07
451.59	1104.14
451.96	1090.64
452.33	1071.71
452.70	1054.88
453.07	1034.33
453.43	1010.76
453.80	991.48
454.17	972.50
454.54	953.55
454.91	934.26
455.28	914.71
455.65	896.33
456.02	881.79
456.38	866.88
456.75	848.19
457.12	832.38
457.49	816.40
457.86	799.38
458.23	787.60
458.59	773.74
458.96	759.14
459.33	746.64
459.70	733.62
460.07	723.64
460.43	711.88
460.80	701.40
461.17	692.86
461.54	683.14
461.91	673.81
462.27	664.38
462.64	656.14
463.01	647.50
463.38	639.19
463.74	627.00
464.11	619.26
464.48	613.10
464.85	606.00
465.21	600.90
465.58	595.05
465.95	587.26
466.32	581.57
466.68	575.62
467.05	569.52
467.42	563.81
467.78	557.57
468.15	551.64
468.52	547.17
468.88	540.17
469.25	534.64
469.62	530.43
469.98	525.67
470.35	520.90
470.72	516.83
471.08	511.55
471.45	508.26
471.82	504.83
472.18	500.21
472.55	497.33
472.92	493.48
473.28	490.00
473.65	486.62
474.02	483.52
474.38	481.60
474.75	479.24
475.11	476.86
475.48	475.05
475.85	473.31
476.21	471.07
476.58	469.50
476.94	468.57
477.31	466.95
477.67	465.71
478.04	465.05
478.41	464.10
478.77	465.64
479.14	464.45
479.50	463.67
479.87	463.67
480.23	463.29
480.60	462.93
480.96	463.02
481.33	464.26
481.69	464.21
482.06	464.62
482.42	465.38
482.79	465.83
483.15	466.79
483.52	468.19
483.88	469.14
484.25	470.24
484.61	471.29
484.98	472.83
485.34	474.98
485.71	476.67
486.07	478.62
486.44	478.69
486.80	481.10
487.17	482.93
487.53	485.98
487.90	489.02
488.26	492.88
488.62	496.21
488.99	498.36
489.35	501.60
489.72	504.83
490.08	507.98
490.44	511.48
490.81	515.71
491.17	519.29
491.54	524.05
491.90	528.98
492.26	534.02
492.63	538.93
492.99	543.69
493.36	549.29
493.72	555.24
494.08	560.86
494.45	567.00
494.81	573.48
495.17	579.38
495.54	585.67
495.90	592.00
496.26	598.48
496.63	605.98
496.99	613.24
497.35	620.74
497.72	629.07
498.08	636.88
498.44	644.90
498.80	653.55
499.17	661.26
499.53	669.60
499.89	678.69
500.26	687.52
500.62	696.33
500.98	705.88
501.34	714.83
501.71	724.57
502.07	733.05
502.43	742.48
502.79	752.10
503.16	761.64
503.52	770.93
503.88	781.19
504.24	791.26
504.60	801.12
504.97	811.81
505.33	821.55
505.69	833.14
506.05	842.88
506.41	853.07
506.78	863.38
507.14	873.19
507.50	882.76
507.86	892.93
508.22	903.07
508.59	912.45
508.95	923.05
509.31	934.07
509.67	945.10
510.03	955.52
510.39	965.69
510.75	976.05
511.12	986.52
511.48	996.43
511.84	1005.76
512.20	1015.79
512.56	1025.26
512.92	1035.14
513.28	1043.79
513.64	1053.88
514.00	1063.05
514.37	1072.69
514.73	1082.36
515.09	1092.00
515.45	1100.60
515.81	1110.36
516.17	1119.31
516.53	1126.90
516.89	1134.33
517.25	1143.17
517.61	1151.90
517.97	1159.98
518.33	1167.29
518.69	1174.90
519.05	1182.90
519.41	1191.31
519.77	1199.86
520.13	1206.64
520.49	1213.43
520.85	1220.62
521.21	1228.29
521.57	1234.81
521.93	1241.38
522.29	1248.31
522.65	1254.40
523.01	1262.31
523.37	1268.62
523.73	1275.33
524.09	1281.90
524.45	1287.71
524.81	1293.00
525.17	1298.50
525.53	1303.55
525.89	1309.69
526.25	1315.48
526.61	1320.14
526.97	1324.60
527.33	1329.14
527.68	1336.81
528.04	1342.19
528.40	1346.79
528.76	1350.38
529.12	1355.64
529.48	1360.98
529.84	1364.50
530.20	1368.52
530.56	1371.83
530.91	1374.86
531.27	1378.29
531.63	1382.29
531.99	1385.50
532.35	1388.21
532.71	1391.50
533.07	1396.12
533.42	1401.79
533.78	1404.74
534.14	1408.67
534.50	1411.07
534.86	1414.76
535.21	1414.43
535.57	1417.24
535.93	1419.95
536.29	1423.76
536.65	1426.17
537.00	1428.31
537.36	1432.10
537.72	1434.36
538.08	1436.81
538.44	1438.57
538.79	1440.71
539.15	1442.26
539.51	1445.21
539.87	1448.05
540.22	1449.50
540.58	1451.12
540.94	1450.81
541.29	1452.14
541.65	1452.64
542.01	1454.71
542.37	1454.33
542.72	1455.52
543.08	1455.62
543.44	1456.26
543.79	1454.74
544.15	1455.07
544.51	1455.36
544.87	1454.50
545.22	1454.43
545.58	1453.48
545.94	1452.98
546.29	1452.48
546.65	1451.71
547.01	1449.76
547.36	1448.31
547.72	1447.57
548.07	1446.95
548.43	1445.19
548.79	1443.88
549.14	1442.33
549.50	1441.10
549.86	1439.57
550.21	1438.81
550.57	1438.07
550.92	1436.02
551.28	1435.62
551.64	1434.05
551.99	1432.48
552.35	1430.95
552.70	1429.67
553.06	1428.93
553.41	1428.24
553.77	1428.07
554.13	1426.86
554.48	1426.69
554.84	1426.40
555.19	1424.81
555.55	1423.64
555.90	1422.21
556.26	1421.12
556.61	1419.33
556.97	1418.07
557.32	1417.10
557.68	1414.67
558.03	1413.19
558.39	1412.19
558.74	1410.40
559.10	1408.88
559.45	1407.45
559.81	1406.21
560.16	1404.57
560.52	1402.45
560.87	1400.86
561.23	1396.93
561.58	1397.45
561.94	1395.98
562.29	1392.81
562.64	1391.33
563.00	1387.98
563.35	1386.24
563.71	1384.64
564.06	1384.36
564.42	1381.88
564.77	1380.81
565.12	1380.31
565.48	1380.83
565.83	1380.21
566.19	1379.71
566.54	1378.43
566.89	1376.33
567.25	1375.48
567.60	1375.10
567.96	1375.40
568.31	1374.83
568.66	1375.48
569.02	1372.17
569.37	1369.67
569.72	1369.14
570.08	1367.57
570.43	1365.64
570.78	1363.55
571.14	1361.62
571.49	1358.69
571.84	1356.95
572.20	1354.07
572.55	1352.17
572.90	1347.48
573.26	1343.95
573.61	1340.71
573.96	1338.40
574.31	1335.62
574.67	1332.19
575.02	1328.38
575.37	1323.69
575.72	1319.62
576.08	1315.79
576.43	1312.14
576.78	1308.50
577.13	1304.90
577.49	1301.14
577.84	1298.90
578.19	1295.76
578.54	1292.29
578.90	1288.43
579.25	1284.83
579.60	1281.21
579.95	1276.40
580.30	1272.90
580.66	1269.29
581.01	1264.88
581.36	1260.60
581.71	1257.45
582.06	1254.36
582.42	1250.64
582.77	1246.69
583.12	1242.26
583.47	1237.88
583.82	1233.88
584.17	1230.48
584.53	1226.76
584.88	1222.83
585.23	1219.31
585.58	1214.76
585.93	1210.71
586.28	1207.57
586.63	1203.79
586.98	1200.10
587.34	1197.24
587.69	1192.67
588.04	1188.21
588.39	1184.29
588.74	1179.43
589.09	1174.90
589.44	1168.95
589.79	1164.83
590.14	1161.21
590.49	1156.43
590.84	1151.67
591.19	1147.17
591.54	1142.90
591.89	1138.55
592.25	1136.19
592.60	1130.74
592.95	1127.33
593.30	1123.17
593.65	1117.95
594.00	1112.86
594.35	1113.60
594.70	1107.95
595.05	1103.69
595.40	1099.14
595.75	1094.74
596.10	1091.57
596.45	1087.36
596.80	1084.07
597.15	1079.71
597.50	1074.64
597.85	1072.00
598.19	1067.29
598.54	1063.29
598.89	1057.88
599.24	1053.57
599.59	1047.74
599.94	1043.29
600.29	1038.88
600.64	1034.10
600.99	1030.55
601.34	1026.93
601.69	1017.62
602.04	1013.50
602.39	1009.36
602.74	1005.62
603.08	1000.83
603.43	996.62
603.78	991.67
604.13	987.10
604.48	982.24
604.83	977.83
605.18	973.31
605.53	969.50
605.87	964.95
606.22	961.33
606.57	956.55
606.92	951.69
607.27	947.29
607.62	942.69
607.96	938.17
608.31	933.36
608.66	928.95
609.01	923.95
609.36	919.62
609.70	915.07
610.05	910.55
610.40	906.93
610.75	901.90
611.10	898.19
611.44	893.64
611.79	889.67
612.14	885.43
612.49	880.48
612.83	876.07
613.18	871.40
613.53	867.19
613.88	862.98
614.22	858.48
614.57	853.88
614.92	848.81
615.27	844.33
615.61	839.69
615.96	835.21
616.31	831.12
616.65	827.02
617.00	822.60
617.35	817.93
617.70	812.55
618.04	808.33
618.39	803.45
618.74	799.31
619.08	795.05
619.43	791.00
619.78	787.05
620.12	782.19
620.47	778.45
620.82	773.81
621.16	768.98
621.51	765.64
621.85	761.64
622.20	757.83
622.55	753.62
622.89	749.79
623.24	746.19
623.59	741.74
623.93	737.93
624.28	734.12
624.62	732.93
624.97	731.67
625.32	727.95
625.66	724.14
626.01	720.05
626.35	716.29
626.70	712.21
627.04	708.71
627.39	705.88
627.73	702.93
628.08	699.90
628.43	696.43
628.77	692.10
629.12	688.90
629.46	686.38
629.81	683.21
630.15	679.52
630.50	675.81
630.84	672.50
631.19	668.81
631.53	665.45
631.88	659.33
632.22	653.74
632.57	650.45
632.91	646.69
633.26	643.38
633.60	639.48
633.95	636.17
634.29	632.14
634.64	628.43
634.98	624.71
635.32	622.07
635.67	619.31
636.01	616.07
636.36	612.10
636.70	609.00
637.05	605.40
637.39	602.62
637.73	599.60
638.08	597.48
638.42	594.36
638.77	592.02
639.11	589.17
639.45	586.17
639.80	582.71
640.14	580.26
640.49	577.00
640.83	573.86
641.17	571.07
641.52	568.38
641.86	565.64
642.20	563.24
642.55	559.33
642.89	556.05
643.23	553.43
643.58	551.17
643.92	546.93
644.26	544.60
644.61	542.02
644.95	539.12
645.29	535.26
645.64	533.14
645.98	529.48
646.32	527.17
646.66	524.12
647.01	521.29
647.35	518.62
647.69	516.48
648.04	514.21
648.38	511.31
648.72	508.69
649.06	506.05
649.41	502.31
649.75	499.74
650.09	497.83
650.43	494.76
650.78	492.17
651.12	489.86
651.46	487.00
651.80	483.88
652.14	481.38
652.49	479.57
652.83	476.57
653.17	473.83
653.51	471.02
653.85	469.36
654.20	466.60
654.54	464.12
654.88	461.29
655.22	459.55
655.56	457.38
655.90	454.69
656.25	452.55
656.59	450.64
656.93	448.74
657.27	446.88
657.61	444.76
657.95	442.76
658.29	440.67
658.64	439.07
658.98	437.07
659.32	434.43
659.66	432.10
660.00	430.07
660.34	428.19
660.68	425.95
661.02	423.62
661.36	421.79
661.70	419.64
662.05	417.64
662.39	415.45
662.73	414.07
663.07	413.48
663.41	411.81
663.75	409.74
664.09	407.50
664.43	405.07
664.77	403.29
665.11	401.17
665.45	399.36
665.79	397.76
666.13	396.21
666.47	394.60
666.81	393.05
667.15	391.21
667.49	389.71
667.83	388.64
668.17	387.05
668.51	385.64
668.85	384.17
669.19	383.86
669.53	381.62
669.87	379.83
670.21	377.74
670.55	376.24
670.89	375.76
671.23	374.62
671.57	373.29
671.91	372.24
672.25	371.12
672.58	370.76
672.92	368.55
673.26	367.12
673.60	365.86
673.94	364.60
674.28	363.33
674.62	362.52
674.96	360.90
675.30	359.81
675.64	358.69
675.97	357.64
676.31	355.52
676.65	354.45
676.99	353.93
677.33	352.12
677.67	350.83
678.01	348.62
678.34	347.26
678.68	346.26
679.02	344.71
679.36	343.31
679.70	341.29
680.04	340.40
680.37	339.02
680.71	337.93
681.05	336.64
681.39	335.50
681.73	333.76
682.06	332.40
682.40	331.19
682.74	330.60
683.08	329.83
683.42	328.52
683.75	327.95
684.09	325.98
684.43	324.88
684.77	323.45
685.10	322.69
685.44	321.71
685.78	320.48
686.12	319.36
686.45	318.12
686.79	317.00
687.13	316.40
687.46	315.45
687.80	314.86
688.14	313.64
688.48	312.93
688.81	312.21
689.15	311.88
689.49	310.76
689.82	309.33
690.16	307.86
690.50	306.64
690.83	305.36
691.17	304.14
691.51	303.50
691.84	302.71
692.18	301.71
692.52	300.81
692.85	300.12
693.19	300.14
693.52	299.36
693.86	298.74
694.20	297.55
694.53	297.00
694.87	295.76
695.21	294.64
695.54	293.67
695.88	292.52
696.21	291.05
696.55	290.40
696.88	289.48
697.22	288.52
697.56	288.19
697.89	287.19
698.23	286.71
698.56	285.50
698.90	285.05
699.23	284.00
699.57	283.40
699.90	282.43
700.24	281.12
700.58	280.45
700.91	279.90
701.25	280.69
701.58	280.24
701.92	280.02
702.25	279.43
702.59	278.60
702.92	278.26
703.26	277.95
703.59	277.12
703.93	278.29
704.26	277.95
704.60	277.17
704.93	276.74
705.26	275.90
705.60	276.05
705.93	275.12
706.27	275.40
706.60	275.17
706.94	275.36
707.27	274.43
707.61	273.76
707.94	273.00
708.27	270.86
708.61	269.79
708.94	269.02
709.28	268.67
709.61	267.86
709.94	267.24
710.28	266.60
710.61	266.21
710.95	263.81
711.28	264.55
711.61	264.10
711.95	263.88
712.28	263.45
712.61	262.71
712.95	263.43
713.28	263.67
713.61	262.86
713.95	261.71
714.28	261.52
714.61	261.10
714.95	260.60
715.28	259.98
715.61	259.43
715.95	259.19
716.28	258.60
716.61	258.64
716.95	257.67
717.28	257.05
717.61	256.69
717.94	256.26
718.28	254.33
718.61	253.93
718.94	253.19
719.27	252.62
719.61	251.95
719.94	250.83
720.27	249.02
720.60	248.26
720.94	247.69
721.27	247.45
721.60	247.38
721.93	247.26
722.27	247.40
722.60	247.40
722.93	246.83
723.26	246.60
723.59	245.95
723.93	246.26
724.26	246.26
724.59	245.95
724.92	245.81
725.25	246.02
725.59	245.76
725.92	245.67
726.25	245.38
726.58	245.55
726.91	244.90
727.24	245.02
727.57	244.69
727.91	244.29
728.24	243.98
728.57	243.50
728.90	243.02
729.23	242.45
729.56	243.10
729.89	242.40
730.22	242.02
730.55	241.79
730.89	241.36
731.22	240.95
731.55	240.48
731.88	240.12
732.21	239.45
732.54	239.21
732.87	239.00
733.20	238.98
733.53	238.88
733.86	239.07
734.19	238.62
734.52	238.90
734.85	240.26
735.18	239.90
735.51	240.40
735.84	240.60
736.17	240.98
736.50	239.74
736.83	241.90
737.16	241.79
737.49	241.69
737.82	241.17
738.15	241.17
738.48	240.79
738.81	240.43
739.14	240.10
739.47	239.57
739.80	239.24
740.13	239.05
740.46	238.00
740.79	237.31
741.12	237.19
741.45	236.57
741.78	235.10
742.11	235.36
742.44	234.62
742.77	234.45
743.10	233.69
743.43	233.43
743.75	231.43
744.08	234.10
744.41	233.45
744.74	233.33
745.07	232.83
745.40	233.02
745.73	233.62
746.06	233.45
746.39	233.57
746.71	233.40
747.04	232.93
747.37	233.05
747.70	233.24
748.03	233.07
748.36	233.31
748.68	232.95
749.01	232.12
749.34	231.86
749.67	231.50
750.00	231.79
750.33	233.14
750.65	233.10
750.98	230.17
751.31	230.33
751.64	230.43
751.97	231.62
752.29	231.40
752.62	230.50
752.95	230.43
753.28	230.26
753.60	229.86
753.93	230.33
754.26	230.29
754.59	229.57
754.91	229.21
755.24	228.79
755.57	228.50
755.90	228.40
756.22	228.14
756.55	227.88
756.88	227.07
757.20	225.50
757.53	224.86
757.86	224.62
758.19	224.50
758.51	224.12
758.84	222.62
759.17	222.29
759.49	222.45
759.82	223.24
760.15	223.29
760.47	223.26
760.80	222.62
761.13	222.71
761.45	222.86
761.78	222.81
762.11	222.95
762.43	222.76
762.76	222.86
763.08	222.90
763.41	222.81
763.74	222.76
764.06	222.74
764.39	222.55
764.71	222.50
765.04	222.50
765.37	222.24
765.69	222.00
766.02	221.88
766.34	221.43
766.67	220.90
767.00	221.00
767.32	221.95
767.65	223.12
767.97	222.81
768.30	222.71
768.62	222.52
768.95	222.07
769.27	222.02
769.60	222.10
769.92	221.69
770.25	221.26
770.57	221.02
770.90	221.05
771.22	220.88
771.55	221.00
771.87	220.76
772.20	220.83
772.52	222.64
772.85	225.14
773.17	225.33
773.50	225.02
773.82	224.36
774.15	223.48
774.47	222.17
774.80	222.05
775.12	221.90
775.45	222.00
775.77	222.07
776.09	222.50
776.42	222.33
776.74	223.07
777.07	223.24
777.39	223.17
777.72	222.74
778.04	223.00
778.36	222.62
778.69	222.64
779.01	222.79
779.33	221.00
779.66	218.60
779.98	218.12
780.31	217.95
780.63	219.17
780.95	219.43
781.28	219.19
781.60	218.90
781.92	218.79
782.25	218.57
782.57	218.40
782.89	218.05
783.22	218.00
783.54	217.31
783.86	217.24
784.19	217.29
784.51	217.57
784.83	217.14
785.16	217.14
785.48	217.17
785.80	217.10
786.12	217.38
786.45	217.21
786.77	217.62
787.09	217.57
787.42	216.62
787.74	216.21
