SpectraSuite Data File
++++++++++++++++++++++++++++++++++++
Date: Tue Apr 02 18:41:48 EDT 2013
User: group
Dark Spectrum Present: No
Reference Spectrum Present: No
Number of Sampled Component Spectra: 1
Spectrometers: USB2E7196
Integration Time (usec): 580000 (USB2E7196)
Spectra Averaged: 2 (USB2E7196)
Boxcar Smoothing: 10 (USB2E7196)
Correct for Electrical Dark: No (USB2E7196)
Strobe/Lamp Enabled: No (USB2E7196)
Correct for Detector Non-linearity: No (USB2E7196)
Correct for Stray Light: No (USB2E7196)
Number of Pixels in Processed Spectrum: 2048
>>>>>Begin Processed Spectral Data<<<<<
339.09	0.00
339.48	193.00
339.86	196.50
340.24	196.00
340.63	194.00
341.01	229.00
341.39	202.00
341.78	202.50
342.16	207.00
342.54	204.00
342.93	195.67
343.31	205.48
343.69	206.00
344.07	206.38
344.46	207.05
344.84	207.71
345.22	206.62
345.60	206.90
345.99	207.36
346.37	207.29
346.75	207.55
347.13	207.57
347.52	207.95
347.90	208.50
348.28	208.57
348.66	209.40
349.05	208.86
349.43	209.17
349.81	209.50
350.19	209.81
350.57	210.10
350.96	210.62
351.34	210.90
351.72	211.02
352.10	211.19
352.48	211.07
352.87	211.14
353.25	211.31
353.63	211.50
354.01	211.45
354.39	211.81
354.77	211.74
355.15	212.36
355.54	212.21
355.92	211.81
356.30	212.05
356.68	213.12
357.06	213.38
357.44	213.14
357.82	212.93
358.20	213.95
358.58	214.02
358.97	214.10
359.35	214.52
359.73	214.95
360.11	215.14
360.49	215.43
360.87	215.48
361.25	215.83
361.63	216.50
362.01	216.69
362.39	216.60
362.77	216.81
363.15	216.83
363.53	216.69
363.91	217.14
364.29	217.19
364.67	215.43
365.05	215.48
365.43	215.74
365.81	216.17
366.19	216.19
366.57	217.02
366.95	216.86
367.33	216.69
367.71	216.69
368.09	217.10
368.47	217.05
368.85	217.10
369.23	217.74
369.61	217.00
369.99	217.60
370.37	217.83
370.75	219.07
371.13	218.69
371.51	218.36
371.89	218.19
372.27	218.48
372.65	218.69
373.03	218.95
373.41	218.57
373.78	218.43
374.16	217.60
374.54	216.55
374.92	216.31
375.30	216.26
375.68	215.95
376.06	215.95
376.44	215.88
376.82	216.02
377.19	215.64
377.57	215.52
377.95	214.71
378.33	214.50
378.71	213.12
379.09	213.38
379.47	213.76
379.84	213.62
380.22	213.19
380.60	212.88
380.98	212.71
381.36	212.83
381.73	212.50
382.11	212.86
382.49	213.21
382.87	213.29
383.25	212.95
383.62	215.40
384.00	214.98
384.38	215.07
384.76	215.33
385.13	215.98
385.51	216.19
385.89	216.10
386.27	216.24
386.64	216.55
387.02	216.60
387.40	216.38
387.78	216.43
388.15	216.74
388.53	216.55
388.91	216.52
389.29	216.17
389.66	216.52
390.04	216.10
390.42	216.19
390.79	216.31
391.17	216.43
391.55	214.10
391.92	214.02
392.30	214.17
392.68	213.88
393.05	213.52
393.43	213.38
393.81	213.60
394.18	213.33
394.56	213.45
394.94	213.69
395.31	213.60
395.69	214.50
396.06	214.69
396.44	215.02
396.82	214.90
397.19	216.17
397.57	215.93
397.95	216.31
398.32	215.76
398.70	215.79
399.07	216.24
399.45	216.33
399.82	216.38
400.20	216.26
400.58	216.17
400.95	215.60
401.33	216.24
401.70	217.33
402.08	217.33
402.45	217.29
402.83	217.83
403.20	218.17
403.58	217.74
403.95	218.12
404.33	218.60
404.71	218.98
405.08	220.31
405.46	220.64
405.83	221.19
406.21	221.88
406.58	222.33
406.96	222.55
407.33	222.74
407.70	223.57
408.08	226.12
408.45	227.07
408.83	228.12
409.20	228.48
409.58	228.36
409.95	229.83
410.33	230.83
410.70	230.86
411.08	232.19
411.45	233.43
411.82	234.36
412.20	235.71
412.57	238.10
412.95	237.55
413.32	239.33
413.69	240.57
414.07	242.24
414.44	244.02
414.82	245.93
415.19	248.55
415.56	250.64
415.94	251.57
416.31	254.26
416.68	257.12
417.06	260.24
417.43	263.74
417.81	267.10
418.18	270.71
418.55	274.79
418.93	278.95
419.30	283.10
419.67	287.64
420.04	292.12
420.42	296.02
420.79	303.26
421.16	308.98
421.54	315.98
421.91	322.17
422.28	328.57
422.66	335.52
423.03	343.38
423.40	350.55
423.77	357.38
424.15	364.76
424.52	372.45
424.89	381.40
425.26	389.14
425.64	396.71
426.01	405.07
426.38	413.98
426.75	423.36
427.13	433.21
427.50	442.86
427.87	452.98
428.24	463.79
428.61	472.88
428.99	484.31
429.36	494.69
429.73	506.55
430.10	518.62
430.47	530.81
430.85	541.60
431.22	554.40
431.59	569.93
431.96	582.79
432.33	597.14
432.70	611.05
433.08	627.48
433.45	643.57
433.82	658.67
434.19	676.14
434.56	692.83
434.93	708.62
435.30	724.43
435.68	742.05
436.05	759.60
436.42	776.86
436.79	793.14
437.16	811.31
437.53	829.05
437.90	847.02
438.27	864.50
438.64	883.29
439.01	900.50
439.38	914.88
439.75	929.88
440.13	946.67
440.50	961.69
440.87	974.98
441.24	988.05
441.61	1003.29
441.98	1014.43
442.35	1027.17
442.72	1040.45
443.09	1054.67
443.46	1062.71
443.83	1067.43
444.20	1072.10
444.57	1077.98
444.94	1080.26
445.31	1084.48
445.68	1090.57
446.05	1093.12
446.42	1091.48
446.79	1090.14
447.16	1087.69
447.53	1086.57
447.90	1080.52
448.27	1075.19
448.64	1066.24
449.01	1060.14
449.37	1049.64
449.74	1038.36
450.11	1026.79
450.48	1011.29
450.85	994.93
451.22	982.67
451.59	970.81
451.96	959.07
452.33	943.05
452.70	929.40
453.07	911.50
453.43	891.29
453.80	873.67
454.17	858.14
454.54	842.52
454.91	825.50
455.28	809.40
455.65	794.48
456.02	782.38
456.38	769.60
456.75	754.12
457.12	739.74
457.49	726.71
457.86	711.98
458.23	702.48
458.59	690.74
458.96	678.38
459.33	668.31
459.70	657.05
460.07	648.81
460.43	638.98
460.80	629.90
461.17	621.95
461.54	613.36
461.91	604.62
462.27	596.38
462.64	589.83
463.01	582.17
463.38	575.21
463.74	564.05
464.11	556.74
464.48	550.60
464.85	544.38
465.21	539.67
465.58	534.67
465.95	527.57
466.32	522.52
466.68	516.71
467.05	510.76
467.42	505.90
467.78	500.60
468.15	495.33
468.52	491.98
468.88	486.45
469.25	481.83
469.62	478.79
469.98	474.50
470.35	470.62
470.72	467.17
471.08	462.62
471.45	459.93
471.82	457.74
472.18	453.71
472.55	451.55
472.92	447.81
473.28	444.90
473.65	442.12
474.02	439.50
474.38	437.74
474.75	435.98
475.11	433.83
475.48	431.93
475.85	430.24
476.21	427.98
476.58	426.79
476.94	425.48
477.31	423.90
477.67	422.93
478.04	422.10
478.41	421.02
478.77	421.98
479.14	420.98
479.50	420.19
479.87	420.29
480.23	419.71
480.60	419.50
480.96	419.00
481.33	419.52
481.69	419.74
482.06	419.79
482.42	419.95
482.79	420.02
483.15	420.69
483.52	421.48
483.88	421.74
484.25	421.98
484.61	423.07
484.98	423.93
485.34	425.93
485.71	427.40
486.07	428.62
486.44	428.43
486.80	429.86
487.17	431.10
487.53	433.38
487.90	435.50
488.26	438.31
488.62	441.05
488.99	442.95
489.35	445.48
489.72	447.88
490.08	450.67
490.44	453.45
490.81	456.52
491.17	459.86
491.54	464.07
491.90	468.14
492.26	471.81
492.63	475.17
492.99	478.38
493.36	482.74
493.72	487.60
494.08	492.00
494.45	497.07
494.81	502.12
495.17	506.45
495.54	511.38
495.90	515.69
496.26	521.12
496.63	527.21
496.99	532.29
497.35	538.21
497.72	544.05
498.08	550.36
498.44	556.33
498.80	562.71
499.17	568.45
499.53	574.81
499.89	581.52
500.26	588.45
500.62	595.74
500.98	602.98
501.34	609.43
501.71	617.07
502.07	624.12
502.43	631.74
502.79	639.07
503.16	646.14
503.52	654.00
503.88	660.48
504.24	667.45
504.60	675.07
504.97	683.17
505.33	690.64
505.69	699.69
506.05	707.50
506.41	714.98
506.78	723.36
507.14	730.88
507.50	738.64
507.86	746.50
508.22	754.00
508.59	761.45
508.95	770.26
509.31	779.02
509.67	787.05
510.03	795.19
510.39	803.38
510.75	811.50
511.12	819.07
511.48	827.74
511.84	835.93
512.20	844.14
512.56	851.52
512.92	859.90
513.28	866.36
513.64	874.10
514.00	882.29
514.37	889.60
514.73	896.95
515.09	905.12
515.45	912.43
515.81	920.21
516.17	926.52
516.53	932.79
516.89	938.57
517.25	945.67
517.61	952.17
517.97	958.98
518.33	966.10
518.69	973.40
519.05	979.57
519.41	985.98
519.77	993.33
520.13	999.00
520.49	1004.02
520.85	1009.88
521.21	1016.62
521.57	1022.64
521.93	1027.95
522.29	1034.40
522.65	1039.12
523.01	1044.90
523.37	1050.00
523.73	1056.36
524.09	1061.95
524.45	1066.90
524.81	1071.88
525.17	1077.24
525.53	1082.21
525.89	1086.98
526.25	1091.57
526.61	1096.81
526.97	1100.88
527.33	1104.90
527.68	1111.81
528.04	1116.50
528.40	1121.26
528.76	1125.69
529.12	1130.17
529.48	1135.43
529.84	1139.10
530.20	1144.24
530.56	1148.93
530.91	1152.95
531.27	1157.60
531.63	1161.67
531.99	1165.98
532.35	1169.33
532.71	1172.86
533.07	1176.67
533.42	1183.31
533.78	1188.17
534.14	1192.71
534.50	1196.95
534.86	1202.00
535.21	1203.81
535.57	1208.98
535.93	1213.21
536.29	1217.48
536.65	1221.31
537.00	1224.50
537.36	1228.86
537.72	1232.31
538.08	1236.36
538.44	1239.48
538.79	1242.43
539.15	1245.93
539.51	1249.79
539.87	1254.36
540.22	1257.95
540.58	1261.93
540.94	1263.00
541.29	1265.83
541.65	1267.88
542.01	1271.67
542.37	1273.60
542.72	1276.55
543.08	1279.00
543.44	1282.81
543.79	1284.36
544.15	1287.81
544.51	1291.17
544.87	1294.76
545.22	1297.57
545.58	1300.52
545.94	1303.98
546.29	1307.81
546.65	1310.98
547.01	1313.52
547.36	1316.93
547.72	1320.24
548.07	1323.48
548.43	1325.93
548.79	1328.55
549.14	1331.79
549.50	1335.17
549.86	1336.88
550.21	1341.07
550.57	1344.64
550.92	1346.40
551.28	1350.52
551.64	1353.31
551.99	1355.83
552.35	1357.76
552.70	1360.55
553.06	1363.26
553.41	1366.88
553.77	1371.31
554.13	1375.88
554.48	1380.74
554.84	1384.69
555.19	1389.31
555.55	1393.62
555.90	1397.95
556.26	1402.21
556.61	1406.05
556.97	1408.90
557.32	1414.33
557.68	1417.90
558.03	1422.71
558.39	1427.50
558.74	1431.17
559.10	1435.10
559.45	1440.36
559.81	1445.76
560.16	1450.12
560.52	1455.33
560.87	1460.52
561.23	1463.36
561.58	1468.79
561.94	1473.12
562.29	1477.14
562.64	1482.07
563.00	1486.33
563.35	1491.26
563.71	1495.90
564.06	1501.33
564.42	1507.24
564.77	1513.10
565.12	1519.52
565.48	1526.52
565.83	1533.05
566.19	1539.52
566.54	1544.48
566.89	1549.69
567.25	1555.86
567.60	1563.52
567.96	1570.83
568.31	1577.86
568.66	1584.14
569.02	1588.40
569.37	1593.55
569.72	1599.93
570.08	1604.12
570.43	1609.83
570.78	1615.29
571.14	1621.07
571.49	1626.05
571.84	1630.95
572.20	1635.24
572.55	1639.76
572.90	1641.40
573.26	1645.33
573.61	1649.50
573.96	1655.17
574.31	1660.10
574.67	1663.50
575.02	1666.10
575.37	1668.62
575.72	1670.93
576.08	1674.81
576.43	1677.93
576.78	1680.64
577.13	1682.88
577.49	1686.60
577.84	1689.57
578.19	1693.31
578.54	1696.88
578.90	1700.88
579.25	1703.95
579.60	1706.81
579.95	1709.79
580.30	1713.86
580.66	1716.71
581.01	1719.36
581.36	1721.00
581.71	1723.40
582.06	1727.62
582.42	1730.88
582.77	1733.14
583.12	1735.88
583.47	1739.31
583.82	1742.90
584.17	1746.21
584.53	1749.67
584.88	1752.36
585.23	1755.17
585.58	1756.88
585.93	1759.05
586.28	1760.43
586.63	1763.26
586.98	1765.17
587.34	1767.50
587.69	1768.83
588.04	1771.38
588.39	1773.24
588.74	1774.71
589.09	1777.07
589.44	1776.57
589.79	1777.95
590.14	1779.79
590.49	1780.71
590.84	1779.88
591.19	1781.21
591.54	1782.19
591.89	1782.62
592.25	1784.38
592.60	1785.24
592.95	1786.19
593.30	1787.33
593.65	1788.86
594.00	1788.19
594.35	1794.88
594.70	1794.36
595.05	1795.07
595.40	1794.48
595.75	1793.83
596.10	1795.14
596.45	1795.12
596.80	1795.88
597.15	1796.76
597.50	1796.17
597.85	1797.05
598.19	1797.55
598.54	1796.36
598.89	1796.43
599.24	1796.93
599.59	1795.33
599.94	1794.12
600.29	1793.98
600.64	1792.79
600.99	1792.02
601.34	1793.10
601.69	1786.98
602.04	1786.14
602.39	1785.60
602.74	1785.79
603.08	1786.31
603.43	1786.88
603.78	1785.95
604.13	1785.40
604.48	1783.36
604.83	1782.83
605.18	1781.67
605.53	1781.02
605.87	1779.86
606.22	1778.02
606.57	1775.60
606.92	1774.48
607.27	1773.95
607.62	1772.43
607.96	1771.33
608.31	1770.26
608.66	1766.93
609.01	1764.45
609.36	1763.52
609.70	1761.21
610.05	1758.24
610.40	1755.69
610.75	1751.33
611.10	1747.81
611.44	1744.24
611.79	1741.81
612.14	1738.43
612.49	1733.62
612.83	1729.76
613.18	1726.31
613.53	1722.62
613.88	1718.29
614.22	1713.71
614.57	1709.36
614.92	1704.55
615.27	1699.67
615.61	1694.52
615.96	1691.21
616.31	1687.43
616.65	1683.12
617.00	1679.05
617.35	1674.21
617.70	1669.48
618.04	1665.52
618.39	1660.88
618.74	1657.05
619.08	1652.33
619.43	1647.98
619.78	1644.29
620.12	1640.98
620.47	1637.64
620.82	1632.50
621.16	1627.93
621.51	1624.05
621.85	1619.00
622.20	1614.67
622.55	1609.40
622.89	1604.36
623.24	1599.69
623.59	1594.98
623.93	1589.93
624.28	1585.83
624.62	1583.60
624.97	1580.00
625.32	1575.40
625.66	1572.07
626.01	1566.98
626.35	1563.19
626.70	1558.93
627.04	1555.76
627.39	1550.74
627.73	1546.57
628.08	1543.98
628.43	1541.07
628.77	1536.57
629.12	1533.02
629.46	1528.67
629.81	1524.45
630.15	1520.48
630.50	1516.24
630.84	1511.64
631.19	1506.74
631.53	1500.69
631.88	1493.26
632.22	1486.33
632.57	1481.57
632.91	1475.48
633.26	1470.95
633.60	1464.86
633.95	1458.93
634.29	1452.17
634.64	1446.02
634.98	1438.76
635.32	1433.26
635.67	1427.81
636.01	1423.29
636.36	1416.83
636.70	1412.31
637.05	1407.10
637.39	1402.00
637.73	1396.79
638.08	1392.88
638.42	1388.02
638.77	1383.40
639.11	1378.81
639.45	1374.48
639.80	1368.74
640.14	1362.95
640.49	1356.83
640.83	1351.33
641.17	1346.14
641.52	1340.71
641.86	1335.48
642.20	1331.21
642.55	1324.83
642.89	1319.19
643.23	1312.57
643.58	1307.67
643.92	1300.38
644.26	1293.98
644.61	1287.90
644.95	1280.69
645.29	1272.62
645.64	1266.43
645.98	1259.79
646.32	1253.52
646.66	1246.64
647.01	1239.71
647.35	1234.38
647.69	1228.43
648.04	1222.40
648.38	1215.81
648.72	1209.62
649.06	1202.76
649.41	1195.60
649.75	1188.50
650.09	1181.31
650.43	1174.67
650.78	1167.29
651.12	1160.69
651.46	1154.86
651.80	1148.60
652.14	1142.17
652.49	1136.12
652.83	1128.88
653.17	1122.24
653.51	1115.12
653.85	1108.79
654.20	1102.43
654.54	1095.14
654.88	1088.05
655.22	1082.36
655.56	1075.79
655.90	1068.93
656.25	1063.10
656.59	1056.69
656.93	1050.95
657.27	1045.12
657.61	1038.62
657.95	1033.12
658.29	1027.40
658.64	1020.95
658.98	1014.31
659.32	1007.93
659.66	1001.36
660.00	995.55
660.34	989.12
660.68	982.83
661.02	976.26
661.36	969.62
661.70	964.38
662.05	958.98
662.39	951.69
662.73	946.07
663.07	941.14
663.41	934.64
663.75	928.02
664.09	922.12
664.43	915.38
664.77	909.76
665.11	902.98
665.45	897.10
665.79	891.38
666.13	884.93
666.47	879.55
666.81	873.86
667.15	867.93
667.49	862.64
667.83	857.71
668.17	852.55
668.51	847.07
668.85	841.36
669.19	836.31
669.53	830.19
669.87	824.33
670.21	818.21
670.55	813.05
670.89	809.05
671.23	803.40
671.57	798.29
671.91	792.74
672.25	787.05
672.58	782.45
672.92	777.05
673.26	772.14
673.60	766.36
673.94	761.36
674.28	756.40
674.62	751.71
674.96	746.86
675.30	741.88
675.64	737.43
675.97	732.86
676.31	727.40
676.65	722.60
676.99	718.81
677.33	714.14
677.67	709.55
678.01	703.74
678.34	699.69
678.68	695.64
679.02	690.81
679.36	686.98
679.70	681.76
680.04	677.64
680.37	672.62
680.71	668.40
681.05	664.21
681.39	660.43
681.73	655.88
682.06	650.83
682.40	646.69
682.74	642.17
683.08	638.24
683.42	633.83
683.75	630.76
684.09	625.45
684.43	620.64
684.77	616.17
685.10	612.60
685.44	608.19
685.78	603.62
686.12	599.67
686.45	595.64
686.79	591.40
687.13	587.50
687.46	583.79
687.80	580.31
688.14	576.26
688.48	571.45
688.81	567.31
689.15	564.17
689.49	559.86
689.82	556.45
690.16	551.36
690.50	547.36
690.83	542.86
691.17	538.83
691.51	535.26
691.84	531.95
692.18	528.21
692.52	524.36
692.85	521.24
693.19	518.21
693.52	514.02
693.86	510.12
694.20	506.05
694.53	502.98
694.87	498.90
695.21	495.14
695.54	491.71
695.88	488.26
696.21	483.62
696.55	480.55
696.88	477.14
697.22	474.24
697.56	471.29
697.89	467.74
698.23	465.07
698.56	461.88
698.90	458.79
699.23	455.21
699.57	452.33
699.90	448.67
700.24	445.33
700.58	442.52
700.91	440.36
701.25	439.05
701.58	436.93
701.92	434.81
702.25	431.93
702.59	428.95
702.92	426.12
703.26	423.86
703.59	421.05
703.93	419.90
704.26	417.38
704.60	415.07
704.93	412.57
705.26	409.86
705.60	407.67
705.93	404.88
706.27	403.12
706.60	401.14
706.94	399.83
707.27	397.57
707.61	395.48
707.94	392.95
708.27	389.29
708.61	386.55
708.94	384.14
709.28	382.45
709.61	380.33
709.94	378.64
710.28	376.62
710.61	374.60
710.95	370.62
711.28	370.10
711.61	367.74
711.95	366.26
712.28	364.38
712.61	362.31
712.95	361.52
713.28	360.14
713.61	357.88
713.95	355.38
714.28	353.55
714.61	351.95
714.95	350.07
715.28	348.19
715.61	346.45
715.95	344.74
716.28	342.33
716.61	341.17
716.95	339.02
717.28	337.69
717.61	336.14
717.94	335.10
718.28	331.76
718.61	330.36
718.94	328.67
719.27	327.00
719.61	325.55
719.94	323.14
720.27	320.74
720.60	319.19
720.94	317.76
721.27	316.24
721.60	315.21
721.93	313.83
722.27	313.21
722.60	312.10
722.93	310.90
723.26	310.21
723.59	308.81
723.93	307.86
724.26	306.60
724.59	305.52
724.92	304.26
725.25	303.93
725.59	302.71
725.92	302.02
726.25	301.07
726.58	300.02
726.91	299.07
727.24	298.55
727.57	297.67
727.91	296.31
728.24	295.81
728.57	294.52
728.90	293.95
729.23	292.55
729.56	291.90
729.89	290.71
730.22	289.62
730.55	288.76
730.89	288.02
731.22	287.45
731.55	286.81
731.88	286.14
732.21	285.05
732.54	284.14
732.87	283.33
733.20	282.52
733.53	282.00
733.86	281.48
734.19	280.48
734.52	279.93
734.85	280.62
735.18	279.38
735.51	279.14
735.84	278.76
736.17	278.43
736.50	277.17
736.83	279.17
737.16	278.60
737.49	277.83
737.82	276.83
738.15	276.00
738.48	274.95
738.81	273.88
739.14	272.86
739.47	272.12
739.80	270.98
740.13	270.76
740.46	269.64
740.79	268.69
741.12	268.12
741.45	267.00
741.78	265.33
742.11	265.50
742.44	264.52
742.77	264.05
743.10	263.26
743.43	262.33
743.75	259.38
744.08	261.40
744.41	260.60
744.74	260.26
745.07	259.43
745.40	259.31
745.73	259.98
746.06	259.57
746.39	259.40
746.71	258.95
747.04	258.00
747.37	257.69
747.70	257.48
748.03	256.86
748.36	256.93
748.68	256.26
749.01	255.05
749.34	254.38
749.67	253.57
750.00	253.55
750.33	254.81
750.65	254.57
750.98	251.71
751.31	251.43
751.64	251.05
751.97	251.88
752.29	251.05
752.62	249.50
752.95	249.07
753.28	248.62
753.60	248.02
753.93	248.17
754.26	247.67
754.59	246.64
754.91	246.05
755.24	245.29
755.57	244.74
755.90	244.31
756.22	243.81
756.55	243.17
756.88	242.17
757.20	240.36
757.53	239.40
757.86	238.93
758.19	238.88
758.51	238.52
758.84	236.95
759.17	236.60
759.49	236.26
759.82	236.83
760.15	236.40
760.47	236.31
760.80	235.60
761.13	235.76
761.45	235.60
761.78	235.48
762.11	235.19
762.43	234.88
762.76	234.57
763.08	234.71
763.41	234.62
763.74	234.43
764.06	234.62
764.39	234.48
764.71	234.29
765.04	233.74
765.37	233.05
765.69	232.95
766.02	232.55
766.34	232.21
766.67	231.24
767.00	231.26
767.32	231.98
767.65	232.67
767.97	232.31
768.30	232.24
768.62	231.90
768.95	231.67
769.27	231.52
769.60	231.40
769.92	230.69
770.25	230.02
770.57	229.50
770.90	228.69
771.22	228.43
771.55	227.90
771.87	227.69
772.20	227.62
772.52	228.98
772.85	231.57
773.17	231.74
773.50	231.21
773.82	230.69
774.15	229.52
774.47	228.38
774.80	227.86
775.12	227.52
775.45	227.43
775.77	227.19
776.09	227.36
776.42	227.31
776.74	228.00
777.07	227.64
777.39	227.60
777.72	227.48
778.04	227.50
778.36	227.19
778.69	227.19
779.01	227.14
779.33	225.31
779.66	222.74
779.98	222.38
780.31	222.52
780.63	223.50
780.95	223.88
781.28	223.67
781.60	223.45
781.92	223.45
782.25	223.19
782.57	223.12
782.89	222.86
783.22	222.57
783.54	221.67
783.86	222.17
784.19	222.10
784.51	222.71
784.83	222.26
785.16	222.38
