SpectraSuite Data File
++++++++++++++++++++++++++++++++++++
Date: Tue Apr 02 18:46:59 EDT 2013
User: group
Dark Spectrum Present: No
Reference Spectrum Present: No
Number of Sampled Component Spectra: 1
Spectrometers: USB2E7196
Integration Time (usec): 580000 (USB2E7196)
Spectra Averaged: 2 (USB2E7196)
Boxcar Smoothing: 10 (USB2E7196)
Correct for Electrical Dark: No (USB2E7196)
Strobe/Lamp Enabled: No (USB2E7196)
Correct for Detector Non-linearity: No (USB2E7196)
Correct for Stray Light: No (USB2E7196)
Number of Pixels in Processed Spectrum: 2048
>>>>>Begin Processed Spectral Data<<<<<
339.09	0.00
339.48	189.00
339.86	196.50
340.24	195.00
340.63	193.50
341.01	231.50
341.39	198.50
341.78	203.50
342.16	209.00
342.54	200.50
342.93	195.88
343.31	205.55
343.69	206.33
344.07	206.74
344.46	207.57
344.84	208.64
345.22	207.38
345.60	207.90
345.99	208.14
346.37	208.12
346.75	208.36
347.13	208.81
347.52	208.98
347.90	209.76
348.28	210.14
348.66	210.57
349.05	210.29
349.43	210.79
349.81	211.17
350.19	211.55
350.57	211.74
350.96	211.76
351.34	212.29
351.72	212.52
352.10	212.83
352.48	212.71
352.87	212.43
353.25	212.60
353.63	212.50
354.01	212.55
354.39	212.67
354.77	212.88
355.15	213.24
355.54	213.14
355.92	212.55
356.30	212.45
356.68	213.93
357.06	214.12
357.44	213.64
357.82	213.52
358.20	214.31
358.58	214.36
358.97	214.79
359.35	215.02
359.73	215.43
360.11	215.36
360.49	215.50
360.87	215.71
361.25	216.12
361.63	217.00
362.01	217.17
362.39	217.21
362.77	217.36
363.15	217.24
363.53	217.62
363.91	218.07
364.29	218.17
364.67	216.21
365.05	216.21
365.43	216.57
365.81	216.74
366.19	216.76
366.57	217.43
366.95	217.12
367.33	216.69
367.71	216.60
368.09	217.02
368.47	217.05
368.85	216.86
369.23	217.26
369.61	216.52
369.99	217.36
370.37	217.67
370.75	218.67
371.13	218.33
371.51	217.67
371.89	217.67
372.27	217.67
372.65	217.83
373.03	217.74
373.41	217.67
373.78	217.55
374.16	216.60
374.54	216.14
374.92	215.90
375.30	215.93
375.68	215.62
376.06	215.55
376.44	215.33
376.82	215.40
377.19	215.17
377.57	214.98
377.95	214.19
378.33	213.95
378.71	212.81
379.09	213.21
379.47	213.60
379.84	213.10
380.22	213.02
380.60	212.76
380.98	212.55
381.36	212.24
381.73	211.88
382.11	212.14
382.49	212.02
382.87	212.10
383.25	212.14
383.62	214.86
384.00	214.48
384.38	214.67
384.76	215.10
385.13	215.93
385.51	216.31
385.89	215.86
386.27	215.98
386.64	216.26
387.02	215.79
387.40	215.43
387.78	215.71
388.15	215.76
388.53	215.81
388.91	215.95
389.29	216.00
389.66	216.43
390.04	216.26
390.42	216.79
390.79	216.76
391.17	216.52
391.55	214.12
391.92	214.31
392.30	214.48
392.68	214.14
393.05	213.69
393.43	213.57
393.81	213.95
394.18	213.83
394.56	213.86
394.94	214.31
395.31	214.45
395.69	215.10
396.06	215.43
396.44	215.45
396.82	215.26
397.19	216.48
397.57	216.26
397.95	216.71
398.32	216.17
398.70	216.50
399.07	217.21
399.45	216.90
399.82	216.71
400.20	216.38
400.58	216.43
400.95	215.90
401.33	216.33
401.70	217.95
402.08	217.95
402.45	218.05
402.83	218.60
403.20	218.76
403.58	218.69
403.95	219.07
404.33	219.60
404.71	220.00
405.08	221.02
405.46	221.48
405.83	221.95
406.21	222.19
406.58	222.52
406.96	222.95
407.33	223.57
407.70	224.33
408.08	226.52
408.45	227.12
408.83	228.00
409.20	228.40
409.58	227.81
409.95	229.05
410.33	230.14
410.70	230.64
411.08	231.86
411.45	232.90
411.82	233.50
412.20	234.98
412.57	237.14
412.95	236.95
413.32	238.50
413.69	239.67
414.07	241.29
414.44	243.14
414.82	244.95
415.19	247.43
415.56	249.64
415.94	251.14
416.31	254.02
416.68	257.10
417.06	260.31
417.43	263.83
417.81	267.14
418.18	270.64
418.55	274.21
418.93	277.90
419.30	281.83
419.67	286.52
420.04	290.86
420.42	295.21
420.79	302.00
421.16	307.64
421.54	314.79
421.91	321.14
422.28	327.21
422.66	333.69
423.03	341.57
423.40	348.86
423.77	355.95
424.15	362.83
424.52	370.26
424.89	378.21
425.26	385.88
425.64	393.10
426.01	401.21
426.38	410.33
426.75	420.17
427.13	429.45
427.50	438.93
427.87	449.02
428.24	458.79
428.61	467.36
428.99	478.69
429.36	489.02
429.73	500.17
430.10	511.52
430.47	523.14
430.85	533.43
431.22	545.19
431.59	560.10
431.96	573.88
432.33	587.33
432.70	601.17
433.08	617.48
433.45	633.07
433.82	648.50
434.19	664.86
434.56	681.55
434.93	697.00
435.30	712.57
435.68	730.24
436.05	747.52
436.42	763.69
436.79	779.07
437.16	796.50
437.53	813.81
437.90	831.07
438.27	849.24
438.64	867.12
439.01	884.52
439.38	897.69
439.75	911.48
440.13	928.60
440.50	944.10
440.87	956.26
441.24	969.74
441.61	984.26
441.98	995.17
442.35	1006.90
442.72	1020.02
443.09	1033.93
443.46	1040.81
443.83	1045.83
444.20	1051.57
444.57	1057.76
444.94	1060.26
445.31	1064.07
445.68	1070.64
446.05	1070.95
446.42	1070.07
446.79	1068.64
447.16	1066.17
447.53	1065.71
447.90	1059.64
448.27	1053.98
448.64	1045.10
449.01	1038.67
449.37	1027.48
449.74	1016.05
450.11	1004.79
450.48	990.10
450.85	974.21
451.22	961.67
451.59	950.40
451.96	938.93
452.33	923.52
452.70	909.67
453.07	892.95
453.43	872.95
453.80	857.19
454.17	841.38
454.54	826.38
454.91	811.55
455.28	795.02
455.65	779.98
456.02	768.21
456.38	756.14
456.75	740.81
457.12	727.19
457.49	714.81
457.86	700.12
458.23	690.40
458.59	678.90
458.96	667.45
459.33	656.33
459.70	645.50
460.07	636.88
460.43	626.95
460.80	618.50
461.17	611.57
461.54	603.52
461.91	595.55
462.27	587.24
462.64	579.79
463.01	572.67
463.38	566.57
463.74	555.86
464.11	549.36
464.48	543.79
464.85	537.83
465.21	533.86
465.58	529.43
465.95	522.52
466.32	517.38
466.68	511.86
467.05	507.19
467.42	502.21
467.78	497.14
468.15	492.52
468.52	488.88
468.88	483.10
469.25	478.19
469.62	474.74
469.98	471.05
470.35	467.57
470.72	464.07
471.08	459.17
471.45	456.69
471.82	453.98
472.18	450.17
472.55	448.00
472.92	444.21
473.28	441.07
473.65	438.45
474.02	435.69
474.38	433.90
474.75	432.02
475.11	429.31
475.48	427.76
475.85	426.07
476.21	423.81
476.58	422.29
476.94	421.45
477.31	420.10
477.67	418.67
478.04	417.98
478.41	416.81
478.77	418.12
479.14	416.93
479.50	415.98
479.87	415.64
480.23	415.17
480.60	414.76
480.96	415.21
481.33	416.19
481.69	416.05
482.06	416.36
482.42	416.33
482.79	417.21
483.15	417.40
483.52	418.43
483.88	419.12
484.25	420.31
484.61	420.83
484.98	421.50
485.34	423.17
485.71	424.36
486.07	425.60
486.44	425.19
486.80	426.74
487.17	428.31
487.53	430.62
487.90	432.48
488.26	435.48
488.62	438.02
488.99	439.26
489.35	442.60
489.72	445.00
490.08	447.88
490.44	450.45
490.81	453.62
491.17	456.48
491.54	459.69
491.90	463.31
492.26	467.17
492.63	470.81
492.99	473.81
493.36	477.98
493.72	482.43
494.08	486.83
494.45	491.71
494.81	496.83
495.17	501.62
495.54	507.10
495.90	511.14
496.26	516.02
496.63	522.24
496.99	527.31
497.35	532.90
497.72	538.69
498.08	544.60
498.44	550.90
498.80	557.19
499.17	563.07
499.53	569.26
499.89	575.50
500.26	582.36
500.62	589.57
500.98	596.88
501.34	603.79
501.71	611.19
502.07	617.86
502.43	624.81
502.79	631.81
503.16	638.71
503.52	645.93
503.88	652.88
504.24	659.93
504.60	667.74
504.97	675.86
505.33	683.69
505.69	692.64
506.05	700.29
506.41	707.67
506.78	715.31
507.14	723.40
507.50	731.88
507.86	739.40
508.22	747.38
508.59	754.10
508.95	761.81
509.31	770.38
509.67	778.81
510.03	786.43
510.39	794.50
510.75	802.36
511.12	810.90
511.48	818.48
511.84	826.31
512.20	833.57
512.56	840.98
512.92	848.79
513.28	855.64
513.64	862.98
514.00	870.26
514.37	877.88
514.73	885.17
515.09	892.26
515.45	899.93
515.81	907.00
516.17	914.64
516.53	921.02
516.89	926.81
517.25	933.02
517.61	939.98
517.97	945.62
518.33	952.45
518.69	958.86
519.05	965.88
519.41	971.90
519.77	979.26
520.13	984.50
520.49	989.67
520.85	995.40
521.21	1001.76
521.57	1008.26
521.93	1012.98
522.29	1017.74
522.65	1022.71
523.01	1028.40
523.37	1033.07
523.73	1038.05
524.09	1043.52
524.45	1048.45
524.81	1053.26
525.17	1058.62
525.53	1063.45
525.89	1067.21
526.25	1071.98
526.61	1075.43
526.97	1079.81
527.33	1083.26
527.68	1090.26
528.04	1094.40
528.40	1098.57
528.76	1102.12
529.12	1106.10
529.48	1111.95
529.84	1116.33
530.20	1120.71
530.56	1124.52
530.91	1129.12
531.27	1132.50
531.63	1137.19
531.99	1140.95
532.35	1144.57
532.71	1147.76
533.07	1152.24
533.42	1158.95
533.78	1163.05
534.14	1168.33
534.50	1172.21
534.86	1176.52
535.21	1178.95
535.57	1183.71
535.93	1187.17
536.29	1192.29
536.65	1195.83
537.00	1198.52
537.36	1202.26
537.72	1205.40
538.08	1209.07
538.44	1211.81
538.79	1215.88
539.15	1218.19
539.51	1221.57
539.87	1225.67
540.22	1228.64
540.58	1232.17
540.94	1233.86
541.29	1236.95
541.65	1238.17
542.01	1241.93
542.37	1244.00
542.72	1245.38
543.08	1247.57
543.44	1250.50
543.79	1251.05
544.15	1254.05
544.51	1257.71
544.87	1260.74
545.22	1263.79
545.58	1265.74
545.94	1269.48
546.29	1272.24
546.65	1275.29
547.01	1277.05
547.36	1279.10
547.72	1282.33
548.07	1284.67
548.43	1286.69
548.79	1287.79
549.14	1290.74
549.50	1292.95
549.86	1295.17
550.21	1298.69
550.57	1302.07
550.92	1304.55
551.28	1309.14
551.64	1311.71
551.99	1314.33
552.35	1317.07
552.70	1319.43
553.06	1322.95
553.41	1325.02
553.77	1328.67
554.13	1332.76
554.48	1337.83
554.84	1342.02
555.19	1345.45
555.55	1350.62
555.90	1353.90
556.26	1358.36
556.61	1362.29
556.97	1364.60
557.32	1368.79
557.68	1371.31
558.03	1374.45
558.39	1378.57
558.74	1382.21
559.10	1386.21
559.45	1390.21
559.81	1394.48
560.16	1399.21
560.52	1403.62
560.87	1408.74
561.23	1411.71
561.58	1416.69
561.94	1420.29
562.29	1424.31
562.64	1429.17
563.00	1432.45
563.35	1437.14
563.71	1442.24
564.06	1447.93
564.42	1454.31
564.77	1460.05
565.12	1466.60
565.48	1474.24
565.83	1479.14
566.19	1483.71
566.54	1489.05
566.89	1493.98
567.25	1499.33
567.60	1505.12
567.96	1512.29
568.31	1518.29
568.66	1525.43
569.02	1530.02
569.37	1535.50
569.72	1541.26
570.08	1545.69
570.43	1550.29
570.78	1555.93
571.14	1561.71
571.49	1567.29
571.84	1573.19
572.20	1577.64
572.55	1581.86
572.90	1583.83
573.26	1588.95
573.61	1593.07
573.96	1599.00
574.31	1604.05
574.67	1607.95
575.02	1610.64
575.37	1612.86
575.72	1617.10
576.08	1620.31
576.43	1624.50
576.78	1628.14
577.13	1632.05
577.49	1636.43
577.84	1641.12
578.19	1644.93
578.54	1647.69
578.90	1650.69
579.25	1653.67
579.60	1656.55
579.95	1660.55
580.30	1664.79
580.66	1668.40
581.01	1672.95
581.36	1674.43
581.71	1677.31
582.06	1682.38
582.42	1688.50
582.77	1691.71
583.12	1694.31
583.47	1697.40
583.82	1700.24
584.17	1703.50
584.53	1706.31
584.88	1709.79
585.23	1712.93
585.58	1715.43
585.93	1718.48
586.28	1721.76
586.63	1724.52
586.98	1729.19
587.34	1732.62
587.69	1735.12
588.04	1738.48
588.39	1740.64
588.74	1742.98
589.09	1746.38
589.44	1747.33
589.79	1748.24
590.14	1751.12
590.49	1752.55
590.84	1753.64
591.19	1755.31
591.54	1757.95
591.89	1759.69
592.25	1762.95
592.60	1764.45
592.95	1766.40
593.30	1768.76
593.65	1769.79
594.00	1770.17
594.35	1776.40
594.70	1776.71
595.05	1778.90
595.40	1779.95
595.75	1781.69
596.10	1783.62
596.45	1784.31
596.80	1785.86
597.15	1786.31
597.50	1786.93
597.85	1789.38
598.19	1790.86
598.54	1791.88
598.89	1791.76
599.24	1793.50
599.59	1792.64
599.94	1792.45
600.29	1792.74
600.64	1792.69
600.99	1793.07
601.34	1793.93
601.69	1788.83
602.04	1789.19
602.39	1788.50
602.74	1787.95
603.08	1787.02
603.43	1787.88
603.78	1788.14
604.13	1787.50
604.48	1787.55
604.83	1787.64
605.18	1786.36
605.53	1785.60
605.87	1784.48
606.22	1784.17
606.57	1782.14
606.92	1780.31
607.27	1779.55
607.62	1779.64
607.96	1779.33
608.31	1779.43
608.66	1779.02
609.01	1776.74
609.36	1775.83
609.70	1774.64
610.05	1772.69
610.40	1771.76
610.75	1769.31
611.10	1767.12
611.44	1764.52
611.79	1762.05
612.14	1758.62
612.49	1755.31
612.83	1754.17
613.18	1751.81
613.53	1749.43
613.88	1746.62
614.22	1744.33
614.57	1741.26
614.92	1737.48
615.27	1733.40
615.61	1728.21
615.96	1724.24
616.31	1721.24
616.65	1718.60
617.00	1715.76
617.35	1712.45
617.70	1708.79
618.04	1704.40
618.39	1700.43
618.74	1697.26
619.08	1694.10
619.43	1691.74
619.78	1689.12
620.12	1684.93
620.47	1681.90
620.82	1676.69
621.16	1672.48
621.51	1669.76
621.85	1665.98
622.20	1662.52
622.55	1658.40
622.89	1656.07
623.24	1652.79
623.59	1649.79
623.93	1646.43
624.28	1641.57
624.62	1640.21
624.97	1637.93
625.32	1634.62
625.66	1631.40
626.01	1627.57
626.35	1624.50
626.70	1620.19
627.04	1617.79
627.39	1613.93
627.73	1610.36
628.08	1609.29
628.43	1606.14
628.77	1601.24
629.12	1599.19
629.46	1594.81
629.81	1592.17
630.15	1586.95
630.50	1582.05
630.84	1576.48
631.19	1570.90
631.53	1566.81
631.88	1560.00
632.22	1553.33
632.57	1549.79
632.91	1544.43
633.26	1540.40
633.60	1534.43
633.95	1528.67
634.29	1522.00
634.64	1518.05
634.98	1512.36
635.32	1507.26
635.67	1503.57
636.01	1499.17
636.36	1493.24
636.70	1489.52
637.05	1483.95
637.39	1479.62
637.73	1474.71
638.08	1471.50
638.42	1467.29
638.77	1463.83
639.11	1459.57
639.45	1455.43
639.80	1449.33
640.14	1444.21
640.49	1438.90
640.83	1434.36
641.17	1430.48
641.52	1425.98
641.86	1420.36
642.20	1417.07
642.55	1410.50
642.89	1404.43
643.23	1398.45
643.58	1393.88
643.92	1387.29
644.26	1382.26
644.61	1377.21
644.95	1372.40
645.29	1366.36
645.64	1361.38
645.98	1355.14
646.32	1350.36
646.66	1344.02
647.01	1337.98
647.35	1333.69
647.69	1328.05
648.04	1323.26
648.38	1317.62
648.72	1312.43
649.06	1306.50
649.41	1299.43
649.75	1293.93
650.09	1287.95
650.43	1282.21
650.78	1275.36
651.12	1269.45
651.46	1263.52
651.80	1257.24
652.14	1251.12
652.49	1245.36
652.83	1238.67
653.17	1231.81
653.51	1224.83
653.85	1219.83
654.20	1214.62
654.54	1206.50
654.88	1199.86
655.22	1194.17
655.56	1187.69
655.90	1181.00
656.25	1174.60
656.59	1168.52
656.93	1162.43
657.27	1157.26
657.61	1151.62
657.95	1145.88
658.29	1139.69
658.64	1133.86
658.98	1127.45
659.32	1120.90
659.66	1114.14
660.00	1107.90
660.34	1102.05
660.68	1095.81
661.02	1088.81
661.36	1083.07
661.70	1078.38
662.05	1072.76
662.39	1066.95
662.73	1062.07
663.07	1057.14
663.41	1051.48
663.75	1045.93
664.09	1040.14
664.43	1033.95
664.77	1027.88
665.11	1021.31
665.45	1015.55
665.79	1009.36
666.13	1004.50
666.47	1000.00
666.81	995.05
667.15	990.14
667.49	985.31
667.83	980.40
668.17	975.00
668.51	969.40
668.85	964.02
669.19	959.52
669.53	953.05
669.87	946.86
670.21	940.33
670.55	935.64
670.89	930.88
671.23	925.48
671.57	920.43
671.91	915.36
672.25	910.55
672.58	906.38
672.92	901.24
673.26	896.19
673.60	890.31
673.94	884.64
674.28	879.24
674.62	874.67
674.96	869.50
675.30	865.05
675.64	860.26
675.97	855.24
676.31	850.05
676.65	844.62
676.99	840.62
677.33	836.05
677.67	830.76
678.01	825.12
678.34	820.33
678.68	815.14
679.02	810.12
679.36	805.21
679.70	799.50
680.04	794.76
680.37	789.19
680.71	784.83
681.05	780.19
681.39	775.05
681.73	769.33
682.06	764.95
682.40	760.14
682.74	755.26
683.08	750.88
683.42	745.17
683.75	740.98
684.09	735.00
684.43	730.33
684.77	725.24
685.10	720.55
685.44	715.95
685.78	710.74
686.12	706.24
686.45	701.83
686.79	697.36
687.13	692.86
687.46	688.52
687.80	684.05
688.14	679.71
688.48	675.69
688.81	671.38
689.15	667.14
689.49	662.31
689.82	657.69
690.16	652.38
690.50	648.10
690.83	643.55
691.17	639.33
691.51	634.38
691.84	630.12
692.18	625.64
692.52	621.14
692.85	617.86
693.19	614.50
693.52	609.95
693.86	605.14
694.20	600.24
694.53	595.69
694.87	591.57
695.21	587.17
695.54	582.52
695.88	577.81
696.21	572.90
696.55	568.74
696.88	564.67
697.22	561.10
697.56	557.40
697.89	553.21
698.23	549.74
698.56	545.67
698.90	542.21
699.23	538.38
699.57	534.86
699.90	530.60
700.24	526.38
700.58	522.83
700.91	519.95
701.25	518.57
701.58	516.26
701.92	512.86
702.25	509.45
702.59	506.02
702.92	503.05
703.26	499.74
703.59	496.79
703.93	495.40
704.26	492.29
704.60	489.36
704.93	486.24
705.26	483.17
705.60	481.05
705.93	477.29
706.27	474.64
706.60	472.07
706.94	469.88
707.27	466.69
707.61	464.07
707.94	461.10
708.27	456.57
708.61	452.69
708.94	449.98
709.28	447.64
709.61	444.57
709.94	441.86
710.28	439.21
710.61	436.74
710.95	432.10
711.28	430.88
711.61	428.05
711.95	426.17
712.28	423.07
712.61	420.12
712.95	419.24
713.28	417.71
713.61	414.81
713.95	411.57
714.28	409.45
714.61	406.67
714.95	404.24
715.28	401.86
715.61	399.83
715.95	397.62
716.28	394.69
716.61	392.86
716.95	390.29
717.28	387.93
717.61	385.55
717.94	383.67
718.28	379.95
718.61	377.90
718.94	375.21
719.27	373.26
719.61	371.55
719.94	368.62
720.27	365.40
720.60	363.33
720.94	361.62
721.27	359.36
721.60	358.31
721.93	356.43
722.27	355.19
722.60	353.33
722.93	351.10
723.26	349.81
723.59	347.76
723.93	346.69
724.26	345.50
724.59	343.95
724.92	342.74
725.25	341.98
725.59	340.69
725.92	339.60
726.25	338.48
726.58	336.88
726.91	335.48
727.24	334.48
727.57	333.14
727.91	331.36
728.24	330.50
728.57	328.74
728.90	327.67
729.23	326.05
729.56	325.69
729.89	324.60
730.22	323.14
730.55	322.36
730.89	320.74
731.22	319.19
731.55	317.95
731.88	316.76
732.21	315.33
732.54	313.93
732.87	312.83
733.20	311.76
733.53	310.83
733.86	310.07
734.19	308.76
734.52	308.26
734.85	308.62
735.18	307.24
735.51	306.67
735.84	305.95
736.17	305.19
736.50	303.14
736.83	304.48
737.16	303.57
737.49	302.50
737.82	301.76
738.15	301.21
738.48	300.10
738.81	298.83
739.14	297.31
739.47	296.40
739.80	295.40
740.13	294.67
740.46	293.50
740.79	292.02
741.12	290.88
741.45	289.62
741.78	287.79
742.11	287.31
742.44	286.02
742.77	285.52
743.10	284.36
743.43	283.60
743.75	280.48
744.08	282.14
744.41	280.88
744.74	279.93
745.07	278.38
745.40	278.12
745.73	277.95
746.06	277.36
746.39	276.67
746.71	275.81
747.04	274.64
747.37	273.62
747.70	273.45
748.03	273.10
748.36	272.55
748.68	271.74
749.01	270.52
749.34	269.71
749.67	269.12
750.00	268.90
750.33	269.83
750.65	269.60
750.98	266.62
751.31	266.40
751.64	265.79
751.97	266.76
752.29	266.07
752.62	264.76
752.95	264.05
753.28	263.17
753.60	262.48
753.93	262.48
754.26	262.24
754.59	261.10
754.91	260.31
755.24	259.74
755.57	259.40
755.90	258.67
756.22	258.12
756.55	256.81
756.88	255.76
757.20	253.90
757.53	252.79
757.86	252.19
758.19	251.88
758.51	251.36
758.84	249.48
759.17	248.71
759.49	248.36
759.82	249.02
760.15	248.88
760.47	248.48
760.80	247.52
761.13	247.24
761.45	246.76
761.78	246.45
762.11	245.79
762.43	245.02
762.76	244.76
763.08	244.55
763.41	244.33
763.74	244.19
764.06	243.86
764.39	243.52
764.71	243.07
765.04	242.24
765.37	241.67
765.69	241.55
766.02	241.17
766.34	240.60
766.67	239.50
767.00	239.31
767.32	240.12
767.65	240.74
767.97	240.24
768.30	239.93
768.62	239.60
768.95	239.33
769.27	239.05
769.60	238.83
769.92	238.26
770.25	237.74
770.57	236.83
770.90	236.57
771.22	236.02
771.55	236.02
771.87	236.02
772.20	235.88
772.52	237.21
772.85	239.33
773.17	239.17
773.50	238.90
773.82	238.74
774.15	237.48
774.47	235.95
774.80	235.60
775.12	235.33
775.45	234.95
775.77	234.88
776.09	235.05
776.42	234.95
776.74	235.33
777.07	234.86
777.39	235.07
777.72	234.60
778.04	234.60
778.36	234.21
778.69	234.00
779.01	233.79
779.33	232.00
779.66	229.55
779.98	229.26
780.31	229.07
780.63	229.45
780.95	229.40
781.28	229.45
781.60	229.17
781.92	229.24
782.25	229.00
782.57	228.62
782.89	227.95
783.22	227.60
783.54	227.05
783.86	227.38
784.19	226.90
784.51	227.29
784.83	227.00
