SpectraSuite Data File
++++++++++++++++++++++++++++++++++++
Date: Tue Apr 02 18:45:43 EDT 2013
User: group
Dark Spectrum Present: No
Reference Spectrum Present: No
Number of Sampled Component Spectra: 1
Spectrometers: USB2E7196
Integration Time (usec): 580000 (USB2E7196)
Spectra Averaged: 2 (USB2E7196)
Boxcar Smoothing: 10 (USB2E7196)
Correct for Electrical Dark: No (USB2E7196)
Strobe/Lamp Enabled: No (USB2E7196)
Correct for Detector Non-linearity: No (USB2E7196)
Correct for Stray Light: No (USB2E7196)
Number of Pixels in Processed Spectrum: 2048
>>>>>Begin Processed Spectral Data<<<<<
339.09	0.00
339.48	188.50
339.86	191.00
340.24	190.00
340.63	195.00
341.01	228.00
341.39	200.50
341.78	200.50
342.16	213.50
342.54	203.50
342.93	194.69
343.31	204.31
343.69	205.07
344.07	205.69
344.46	206.76
344.84	207.45
345.22	206.31
345.60	206.90
345.99	207.14
346.37	206.90
346.75	207.21
347.13	207.38
347.52	207.60
347.90	208.29
348.28	208.33
348.66	209.00
349.05	208.45
349.43	208.93
349.81	209.14
350.19	209.36
350.57	209.60
350.96	210.02
351.34	210.33
351.72	210.52
352.10	210.67
352.48	210.40
352.87	210.33
353.25	210.64
353.63	210.48
354.01	210.55
354.39	210.74
354.77	210.76
355.15	211.40
355.54	210.88
355.92	210.38
356.30	210.62
356.68	212.02
357.06	212.36
357.44	212.12
357.82	212.12
358.20	213.05
358.58	213.29
358.97	213.50
359.35	213.93
359.73	214.33
360.11	214.33
360.49	214.69
360.87	214.86
361.25	215.14
361.63	216.05
362.01	216.40
362.39	216.33
362.77	216.55
363.15	216.50
363.53	216.98
363.91	217.10
364.29	217.10
364.67	215.19
365.05	215.19
365.43	215.52
365.81	215.83
366.19	216.48
366.57	217.12
366.95	217.12
367.33	216.88
367.71	216.81
368.09	217.43
368.47	217.52
368.85	217.52
369.23	218.10
369.61	216.93
369.99	217.71
370.37	217.88
370.75	218.95
371.13	218.60
371.51	218.26
371.89	218.57
372.27	218.57
372.65	218.79
373.03	218.93
373.41	218.83
373.78	218.62
374.16	217.14
374.54	216.67
374.92	216.52
375.30	216.57
375.68	216.29
376.06	216.43
376.44	216.05
376.82	216.17
377.19	215.79
377.57	216.12
377.95	215.31
378.33	215.21
378.71	213.98
379.09	214.33
379.47	214.55
379.84	214.10
380.22	213.98
380.60	213.57
380.98	213.43
381.36	213.10
381.73	213.05
382.11	213.69
382.49	213.81
382.87	213.48
383.25	213.48
383.62	215.90
384.00	215.33
384.38	215.40
384.76	215.88
385.13	216.76
385.51	216.76
385.89	216.40
386.27	216.67
386.64	216.83
387.02	216.60
387.40	216.43
387.78	216.83
388.15	217.00
388.53	216.95
388.91	216.86
389.29	216.88
389.66	216.74
390.04	216.00
390.42	216.19
390.79	216.07
391.17	215.88
391.55	213.64
391.92	213.67
392.30	214.05
392.68	213.55
393.05	213.43
393.43	213.55
393.81	213.83
394.18	213.31
394.56	213.52
394.94	213.69
395.31	213.67
395.69	214.14
396.06	214.36
396.44	214.67
396.82	214.52
397.19	215.69
397.57	216.00
397.95	216.62
398.32	215.98
398.70	216.50
399.07	217.21
399.45	216.93
399.82	217.07
400.20	216.71
400.58	216.62
400.95	215.67
401.33	215.95
401.70	217.40
402.08	217.83
402.45	217.74
402.83	218.52
403.20	218.74
403.58	218.50
403.95	219.17
404.33	219.64
404.71	220.17
405.08	221.00
405.46	221.26
405.83	221.55
406.21	222.12
406.58	222.50
406.96	222.36
407.33	223.33
407.70	223.88
408.08	226.00
408.45	227.00
408.83	227.83
409.20	228.19
409.58	227.79
409.95	228.74
410.33	229.62
410.70	229.76
411.08	231.05
411.45	232.21
411.82	232.76
412.20	234.02
412.57	236.36
412.95	236.38
413.32	237.93
413.69	239.33
414.07	240.86
414.44	242.64
414.82	244.81
415.19	246.86
415.56	249.00
415.94	250.38
416.31	252.88
416.68	255.81
417.06	258.93
417.43	262.43
417.81	265.71
418.18	269.38
418.55	272.88
418.93	276.83
419.30	281.00
419.67	285.60
420.04	289.95
420.42	293.93
420.79	300.64
421.16	306.29
421.54	313.26
421.91	319.67
422.28	325.64
422.66	332.48
423.03	340.81
423.40	347.69
423.77	354.86
424.15	362.10
424.52	369.98
424.89	378.71
425.26	386.50
425.64	394.52
426.01	402.50
426.38	411.43
426.75	420.60
427.13	429.60
427.50	438.67
427.87	448.52
428.24	458.29
428.61	466.88
428.99	478.33
429.36	488.86
429.73	499.76
430.10	511.48
430.47	522.88
430.85	532.90
431.22	545.76
431.59	560.64
431.96	573.69
432.33	587.31
432.70	600.95
433.08	616.69
433.45	631.57
433.82	646.76
434.19	664.24
434.56	680.81
434.93	696.36
435.30	712.38
435.68	729.88
436.05	747.24
436.42	763.81
436.79	779.12
437.16	795.93
437.53	813.43
437.90	830.81
438.27	848.21
438.64	866.07
439.01	883.24
439.38	896.95
439.75	911.31
440.13	927.81
440.50	942.93
440.87	955.52
441.24	968.71
441.61	983.64
441.98	994.19
442.35	1006.67
442.72	1019.93
443.09	1032.79
443.46	1040.55
443.83	1045.88
444.20	1051.07
444.57	1056.60
444.94	1059.86
445.31	1063.33
445.68	1069.17
446.05	1071.07
446.42	1070.40
446.79	1069.17
447.16	1067.10
447.53	1066.33
447.90	1060.21
448.27	1054.02
448.64	1045.62
449.01	1039.29
449.37	1028.02
449.74	1016.90
450.11	1005.62
450.48	991.12
450.85	975.74
451.22	962.90
451.59	951.14
451.96	939.43
452.33	924.31
452.70	909.95
453.07	893.55
453.43	874.07
453.80	857.67
454.17	841.62
454.54	825.50
454.91	809.50
455.28	793.26
455.65	778.10
456.02	766.83
456.38	754.33
456.75	738.83
457.12	725.26
457.49	712.45
457.86	697.93
458.23	687.74
458.59	676.52
458.96	664.93
459.33	654.10
459.70	644.21
460.07	635.98
460.43	626.90
460.80	617.98
461.17	610.69
461.54	602.55
461.91	594.52
462.27	586.38
462.64	579.24
463.01	571.90
463.38	565.74
463.74	555.38
464.11	548.50
464.48	543.14
464.85	537.38
465.21	533.33
465.58	528.69
465.95	522.10
466.32	517.19
466.68	511.93
467.05	507.12
467.42	501.71
467.78	496.69
468.15	491.52
468.52	488.12
468.88	482.43
469.25	477.24
469.62	473.93
469.98	470.64
470.35	467.24
470.72	463.79
471.08	459.33
471.45	456.50
471.82	453.76
472.18	450.17
472.55	447.74
472.92	443.67
473.28	440.69
473.65	438.00
474.02	435.05
474.38	433.31
474.75	431.26
475.11	428.88
475.48	426.95
475.85	425.07
476.21	423.24
476.58	421.64
476.94	420.71
477.31	419.45
477.67	418.05
478.04	416.88
478.41	416.12
478.77	417.40
479.14	416.29
479.50	416.14
479.87	415.86
480.23	415.52
480.60	415.33
480.96	415.02
481.33	415.93
481.69	416.24
482.06	416.24
482.42	416.86
482.79	417.26
483.15	417.48
483.52	418.33
483.88	418.45
484.25	419.57
484.61	420.57
484.98	421.19
485.34	422.50
485.71	423.86
486.07	424.93
486.44	424.36
486.80	425.71
487.17	427.02
487.53	429.31
487.90	431.26
488.26	434.33
488.62	437.07
488.99	438.69
489.35	441.17
489.72	443.52
490.08	445.40
490.44	447.98
490.81	451.19
491.17	453.88
491.54	457.55
491.90	461.43
492.26	464.76
492.63	468.79
492.99	472.55
493.36	476.79
493.72	481.26
494.08	485.88
494.45	490.36
494.81	495.17
495.17	499.45
495.54	504.50
495.90	508.93
496.26	513.76
496.63	519.14
496.99	524.74
497.35	530.36
497.72	536.74
498.08	542.71
498.44	548.98
498.80	555.62
499.17	561.62
499.53	567.79
499.89	574.69
500.26	581.55
500.62	588.45
500.98	595.48
501.34	602.40
501.71	609.60
502.07	616.95
502.43	623.36
502.79	630.90
503.16	638.33
503.52	645.71
503.88	652.79
504.24	659.81
504.60	666.64
504.97	674.69
505.33	682.31
505.69	691.07
506.05	698.62
506.41	706.02
506.78	713.45
507.14	720.64
507.50	728.48
507.86	736.29
508.22	744.00
508.59	751.31
508.95	759.31
509.31	767.98
509.67	775.31
510.03	783.31
510.39	790.81
510.75	798.19
511.12	805.60
511.48	813.24
511.84	821.26
512.20	829.64
512.56	836.98
512.92	844.26
513.28	851.40
513.64	858.43
514.00	866.14
514.37	874.24
514.73	881.79
515.09	888.79
515.45	895.71
515.81	902.76
516.17	909.76
516.53	915.67
516.89	921.43
517.25	929.10
517.61	936.26
517.97	942.98
518.33	949.69
518.69	956.71
519.05	963.45
519.41	969.93
519.77	976.55
520.13	982.31
520.49	987.79
520.85	993.62
521.21	1000.86
521.57	1006.67
521.93	1011.48
522.29	1017.02
522.65	1022.07
523.01	1027.36
523.37	1031.76
523.73	1036.60
524.09	1042.00
524.45	1046.45
524.81	1050.83
525.17	1055.45
525.53	1060.00
525.89	1064.33
526.25	1068.67
526.61	1072.83
526.97	1076.48
527.33	1080.07
527.68	1086.55
528.04	1091.81
528.40	1095.67
528.76	1099.10
529.12	1103.12
529.48	1108.10
529.84	1111.79
530.20	1116.50
530.56	1120.29
530.91	1125.31
531.27	1130.17
531.63	1134.76
531.99	1138.76
532.35	1142.26
532.71	1145.95
533.07	1150.31
533.42	1156.74
533.78	1161.29
534.14	1165.74
534.50	1169.90
534.86	1175.00
535.21	1177.43
535.57	1181.17
535.93	1184.74
536.29	1189.05
536.65	1193.83
537.00	1197.02
537.36	1201.02
537.72	1204.29
538.08	1207.60
538.44	1210.29
538.79	1213.74
539.15	1216.86
539.51	1220.81
539.87	1224.29
540.22	1227.48
540.58	1230.33
540.94	1231.24
541.29	1233.83
541.65	1236.00
542.01	1239.60
542.37	1241.36
542.72	1242.81
543.08	1244.71
543.44	1247.43
543.79	1249.07
544.15	1251.19
544.51	1254.43
544.87	1256.95
545.22	1259.57
545.58	1262.50
545.94	1265.60
546.29	1268.12
546.65	1270.02
547.01	1272.33
547.36	1275.64
547.72	1278.38
548.07	1281.29
548.43	1283.71
548.79	1285.98
549.14	1288.31
549.50	1290.55
549.86	1292.76
550.21	1296.38
550.57	1298.81
550.92	1301.36
551.28	1304.31
551.64	1307.00
551.99	1309.90
552.35	1312.98
552.70	1315.60
553.06	1318.26
553.41	1321.02
553.77	1325.05
554.13	1329.60
554.48	1334.14
554.84	1337.98
555.19	1341.60
555.55	1345.95
555.90	1350.60
556.26	1354.19
556.61	1357.98
556.97	1361.52
557.32	1365.93
557.68	1369.76
558.03	1373.64
558.39	1376.95
558.74	1381.29
559.10	1384.64
559.45	1388.64
559.81	1393.48
560.16	1397.64
560.52	1402.17
560.87	1406.86
561.23	1409.55
561.58	1414.17
561.94	1417.19
562.29	1420.29
562.64	1425.79
563.00	1429.43
563.35	1433.21
563.71	1438.19
564.06	1444.21
564.42	1449.14
564.77	1455.14
565.12	1461.40
565.48	1469.33
565.83	1475.79
566.19	1481.36
566.54	1486.79
566.89	1492.29
567.25	1497.88
567.60	1505.00
567.96	1513.00
568.31	1519.40
568.66	1526.21
569.02	1531.19
569.37	1536.74
569.72	1542.21
570.08	1545.93
570.43	1551.07
570.78	1556.88
571.14	1562.07
571.49	1566.76
571.84	1571.60
572.20	1575.62
572.55	1579.88
572.90	1582.67
573.26	1586.88
573.61	1591.02
573.96	1596.17
574.31	1600.26
574.67	1603.14
575.02	1606.05
575.37	1607.95
575.72	1610.40
576.08	1614.19
576.43	1617.38
576.78	1621.00
577.13	1625.79
577.49	1630.24
577.84	1634.69
578.19	1638.36
578.54	1642.98
578.90	1646.88
579.25	1650.07
579.60	1653.45
579.95	1655.29
580.30	1659.19
580.66	1663.24
581.01	1666.90
581.36	1669.05
581.71	1672.31
582.06	1677.19
582.42	1681.64
582.77	1684.69
583.12	1688.83
583.47	1692.07
583.82	1696.45
584.17	1699.90
584.53	1702.76
584.88	1706.29
585.23	1709.83
585.58	1711.79
585.93	1714.12
586.28	1717.05
586.63	1721.26
586.98	1723.86
587.34	1728.33
587.69	1730.55
588.04	1733.17
588.39	1736.52
588.74	1739.19
589.09	1742.02
589.44	1742.14
589.79	1743.57
590.14	1746.14
590.49	1747.52
590.84	1748.40
591.19	1750.21
591.54	1752.26
591.89	1753.19
592.25	1755.98
592.60	1755.62
592.95	1758.17
593.30	1759.38
593.65	1759.90
594.00	1759.74
594.35	1766.60
594.70	1766.48
595.05	1767.40
595.40	1768.07
595.75	1768.05
596.10	1770.43
596.45	1770.74
596.80	1773.45
597.15	1774.71
597.50	1775.43
597.85	1777.52
598.19	1778.60
598.54	1778.81
598.89	1778.74
599.24	1780.52
599.59	1780.21
599.94	1781.55
600.29	1781.86
600.64	1781.79
600.99	1782.43
601.34	1784.40
601.69	1778.74
602.04	1778.48
602.39	1779.02
602.74	1780.00
603.08	1778.86
603.43	1778.55
603.78	1779.26
604.13	1778.38
604.48	1777.21
604.83	1777.26
605.18	1776.17
605.53	1776.19
605.87	1775.62
606.22	1775.76
606.57	1773.79
606.92	1771.86
607.27	1770.93
607.62	1770.00
607.96	1769.45
608.31	1769.21
608.66	1767.74
609.01	1766.14
609.36	1766.00
609.70	1764.81
610.05	1761.90
610.40	1761.57
610.75	1758.52
611.10	1756.21
611.44	1753.45
611.79	1751.50
612.14	1748.55
612.49	1744.95
612.83	1741.48
613.18	1738.55
613.53	1735.14
613.88	1732.05
614.22	1729.07
614.57	1725.60
614.92	1721.86
615.27	1717.93
615.61	1713.93
615.96	1710.02
616.31	1706.74
616.65	1704.43
617.00	1701.93
617.35	1699.45
617.70	1696.76
618.04	1693.60
618.39	1689.71
618.74	1686.88
619.08	1683.05
619.43	1679.79
619.78	1676.55
620.12	1674.07
620.47	1670.36
620.82	1666.50
621.16	1663.36
621.51	1661.12
621.85	1657.21
622.20	1654.10
622.55	1650.60
622.89	1646.67
623.24	1644.02
623.59	1641.00
623.93	1636.29
624.28	1631.79
624.62	1629.52
624.97	1626.12
625.32	1622.79
625.66	1619.40
626.01	1615.88
626.35	1612.50
626.70	1608.79
627.04	1605.60
627.39	1601.40
627.73	1598.62
628.08	1595.55
628.43	1591.79
628.77	1586.21
629.12	1583.31
629.46	1579.93
629.81	1576.17
630.15	1572.10
630.50	1567.00
630.84	1562.36
631.19	1557.62
631.53	1552.62
631.88	1545.10
632.22	1538.57
632.57	1534.45
632.91	1529.07
633.26	1524.26
633.60	1519.19
633.95	1513.10
634.29	1507.90
634.64	1503.81
634.98	1498.43
635.32	1494.43
635.67	1490.86
636.01	1487.69
636.36	1482.36
636.70	1477.12
637.05	1472.81
637.39	1469.02
637.73	1464.60
638.08	1460.24
638.42	1455.40
638.77	1451.14
639.11	1447.00
639.45	1442.50
639.80	1436.69
640.14	1431.90
640.49	1427.17
640.83	1421.83
641.17	1418.21
641.52	1413.81
641.86	1407.90
642.20	1404.02
642.55	1397.79
642.89	1391.79
643.23	1386.07
643.58	1381.48
643.92	1375.69
644.26	1369.76
644.61	1364.29
644.95	1358.88
645.29	1353.55
645.64	1348.48
645.98	1342.67
646.32	1338.24
646.66	1332.33
647.01	1326.86
647.35	1321.83
647.69	1316.40
648.04	1311.83
648.38	1306.43
648.72	1300.74
649.06	1295.12
649.41	1287.90
649.75	1281.74
650.09	1275.62
650.43	1268.88
650.78	1262.88
651.12	1257.31
651.46	1251.12
651.80	1243.74
652.14	1238.05
652.49	1232.21
652.83	1226.07
653.17	1219.62
653.51	1212.33
653.85	1206.83
654.20	1201.17
654.54	1194.21
654.88	1187.69
655.22	1181.81
655.56	1174.81
655.90	1167.69
656.25	1161.29
656.59	1155.07
656.93	1149.14
657.27	1143.69
657.61	1137.57
657.95	1131.71
658.29	1125.40
658.64	1120.31
658.98	1114.43
659.32	1107.10
659.66	1100.10
660.00	1094.29
660.34	1088.67
660.68	1082.93
661.02	1076.86
661.36	1070.67
661.70	1065.45
662.05	1058.95
662.39	1052.81
662.73	1048.00
663.07	1043.55
663.41	1038.40
663.75	1032.71
664.09	1027.29
664.43	1021.12
664.77	1015.81
665.11	1009.26
665.45	1002.88
665.79	996.64
666.13	991.17
666.47	985.55
666.81	980.48
667.15	974.05
667.49	968.88
667.83	964.24
668.17	958.57
668.51	952.98
668.85	947.67
669.19	943.33
669.53	937.10
669.87	930.57
670.21	924.62
670.55	918.21
670.89	913.31
671.23	907.95
671.57	902.24
671.91	897.02
672.25	891.98
672.58	887.50
672.92	881.57
673.26	876.69
673.60	872.14
673.94	866.48
674.28	861.95
674.62	856.95
674.96	851.12
675.30	845.90
675.64	840.67
675.97	836.05
676.31	830.48
676.65	825.36
676.99	821.38
677.33	815.81
677.67	810.79
678.01	805.45
678.34	800.38
678.68	796.29
679.02	790.76
679.36	785.55
679.70	780.26
680.04	775.43
680.37	769.81
680.71	764.40
681.05	759.98
681.39	754.90
681.73	749.64
682.06	744.71
682.40	740.17
682.74	735.95
683.08	730.71
683.42	725.81
683.75	721.07
684.09	715.71
684.43	711.33
684.77	707.00
685.10	702.36
685.44	697.76
685.78	692.24
686.12	687.57
686.45	682.98
686.79	677.90
687.13	674.10
687.46	669.81
687.80	665.81
688.14	661.26
688.48	657.38
688.81	652.90
689.15	649.07
689.49	644.36
689.82	639.64
690.16	634.50
690.50	630.07
690.83	625.74
691.17	620.69
691.51	616.10
691.84	611.95
692.18	607.24
692.52	603.24
692.85	599.79
693.19	596.67
693.52	592.36
693.86	588.40
694.20	584.33
694.53	580.40
694.87	576.12
695.21	571.81
695.54	567.40
695.88	562.93
696.21	558.00
696.55	553.62
696.88	549.62
697.22	545.76
697.56	542.45
697.89	538.64
698.23	535.76
698.56	532.12
698.90	528.40
699.23	524.76
699.57	521.21
699.90	517.29
700.24	513.38
700.58	510.19
700.91	507.29
701.25	505.17
701.58	502.31
701.92	499.50
702.25	496.45
702.59	492.67
702.92	489.79
703.26	487.02
703.59	484.57
703.93	483.24
704.26	480.38
704.60	477.02
704.93	474.00
705.26	470.40
705.60	467.88
705.93	464.79
706.27	462.19
706.60	459.43
706.94	457.12
707.27	454.00
707.61	451.07
707.94	447.86
708.27	443.67
708.61	440.36
708.94	437.50
709.28	434.93
709.61	432.40
709.94	429.50
710.28	426.93
710.61	424.14
710.95	419.48
711.28	418.88
711.61	416.57
711.95	414.64
712.28	412.38
712.61	409.86
712.95	408.38
713.28	406.67
713.61	403.50
713.95	400.43
714.28	397.83
714.61	395.40
714.95	393.36
715.28	390.81
715.61	388.38
715.95	386.33
716.28	384.07
716.61	382.55
716.95	380.43
717.28	378.02
717.61	376.00
717.94	374.31
718.28	370.36
718.61	368.14
718.94	365.67
719.27	363.74
719.61	362.12
719.94	359.57
720.27	356.95
720.60	355.48
720.94	353.79
721.27	352.48
721.60	351.17
721.93	349.12
722.27	348.10
722.60	346.83
722.93	344.67
723.26	343.24
723.59	341.07
723.93	339.74
724.26	338.50
724.59	337.02
724.92	335.74
725.25	335.10
725.59	333.71
725.92	332.81
726.25	331.19
726.58	329.69
726.91	328.07
727.24	326.86
727.57	325.60
727.91	323.86
728.24	322.74
728.57	321.10
728.90	320.02
729.23	318.17
729.56	317.71
729.89	316.55
730.22	314.95
730.55	313.71
730.89	312.60
731.22	311.33
731.55	310.19
731.88	309.31
732.21	307.26
732.54	306.17
732.87	305.21
733.20	304.48
733.53	303.55
733.86	302.98
734.19	301.88
734.52	301.21
734.85	301.90
735.18	300.69
735.51	300.40
735.84	299.88
736.17	299.57
736.50	297.74
736.83	299.29
737.16	298.71
737.49	298.07
737.82	296.88
738.15	296.14
738.48	295.48
738.81	294.36
739.14	293.50
739.47	292.38
739.80	291.21
740.13	290.57
740.46	289.21
740.79	287.74
741.12	287.07
741.45	286.07
741.78	284.17
742.11	283.74
742.44	282.43
742.77	281.79
743.10	280.55
743.43	279.76
743.75	276.81
744.08	278.45
744.41	277.29
744.74	276.57
745.07	275.67
745.40	274.69
745.73	274.71
746.06	274.31
746.39	273.79
746.71	272.79
747.04	271.50
747.37	270.76
747.70	270.52
748.03	269.74
748.36	268.93
748.68	268.24
749.01	266.93
749.34	266.31
749.67	265.64
750.00	265.43
750.33	266.19
750.65	266.10
750.98	263.17
751.31	262.88
751.64	262.31
751.97	263.00
752.29	262.60
752.62	261.00
752.95	260.12
753.28	259.40
753.60	258.81
753.93	259.02
754.26	258.74
754.59	257.64
754.91	256.71
755.24	256.21
755.57	255.52
755.90	254.98
756.22	254.17
756.55	253.10
756.88	252.12
757.20	250.40
757.53	249.07
757.86	248.43
758.19	247.86
758.51	247.48
758.84	245.71
759.17	244.86
759.49	244.52
759.82	245.43
760.15	245.12
760.47	244.74
760.80	243.64
761.13	243.48
761.45	243.10
761.78	242.81
762.11	242.29
762.43	241.57
762.76	241.31
763.08	241.36
763.41	241.24
763.74	241.12
764.06	240.57
764.39	240.14
764.71	239.71
765.04	239.29
765.37	238.76
765.69	238.50
766.02	238.45
766.34	238.14
766.67	236.83
767.00	236.86
767.32	237.71
767.65	238.67
767.97	238.24
768.30	238.12
768.62	237.83
768.95	237.64
769.27	237.50
769.60	237.62
769.92	237.17
770.25	236.48
770.57	235.76
770.90	235.52
771.22	235.26
771.55	235.17
771.87	235.07
772.20	234.93
772.52	236.55
772.85	238.74
773.17	238.40
773.50	237.93
773.82	237.29
774.15	236.05
774.47	234.60
774.80	234.02
775.12	233.90
775.45	233.79
775.77	233.33
776.09	233.38
776.42	233.14
776.74	233.40
777.07	233.19
777.39	233.19
777.72	232.69
778.04	232.67
778.36	232.21
778.69	232.14
779.01	231.79
779.33	229.69
779.66	227.10
779.98	227.05
780.31	227.05
780.63	227.86
780.95	228.10
781.28	227.83
781.60	227.69
781.92	227.40
782.25	227.14
782.57	227.10
782.89	226.74
783.22	226.17
783.54	225.24
783.86	225.43
784.19	225.19
784.51	225.64
784.83	224.98
