SpectraSuite Data File
++++++++++++++++++++++++++++++++++++
Date: Tue Apr 02 18:37:54 EDT 2013
User: group
Dark Spectrum Present: No
Reference Spectrum Present: No
Number of Sampled Component Spectra: 1
Spectrometers: USB2E7196
Integration Time (usec): 580000 (USB2E7196)
Spectra Averaged: 2 (USB2E7196)
Boxcar Smoothing: 10 (USB2E7196)
Correct for Electrical Dark: No (USB2E7196)
Strobe/Lamp Enabled: No (USB2E7196)
Correct for Detector Non-linearity: No (USB2E7196)
Correct for Stray Light: No (USB2E7196)
Number of Pixels in Processed Spectrum: 2048
>>>>>Begin Processed Spectral Data<<<<<
339.09	0.00
339.48	193.50
339.86	194.00
340.24	198.00
340.63	201.00
341.01	232.50
341.39	200.00
341.78	209.00
342.16	214.00
342.54	206.50
342.93	198.12
343.31	207.86
343.69	208.48
344.07	209.00
344.46	209.67
344.84	210.07
345.22	209.02
345.60	209.55
345.99	209.40
346.37	209.19
346.75	209.24
347.13	209.31
347.52	209.33
347.90	209.90
348.28	209.83
348.66	210.43
349.05	210.00
349.43	210.79
349.81	211.05
350.19	210.71
350.57	210.98
350.96	211.02
351.34	211.36
351.72	211.50
352.10	211.71
352.48	211.55
352.87	211.36
353.25	211.38
353.63	211.05
354.01	211.17
354.39	211.26
354.77	211.21
355.15	211.74
355.54	211.69
355.92	211.02
356.30	211.17
356.68	212.45
357.06	212.48
357.44	211.86
357.82	211.60
358.20	212.52
358.58	212.38
358.97	212.57
359.35	212.93
359.73	213.26
360.11	213.05
360.49	213.10
360.87	213.14
361.25	213.36
361.63	214.19
362.01	214.45
362.39	214.38
362.77	214.50
363.15	214.31
363.53	214.36
363.91	214.74
364.29	214.64
364.67	212.81
365.05	212.81
365.43	212.93
365.81	213.12
366.19	213.69
366.57	214.50
366.95	214.55
367.33	213.93
367.71	213.95
368.09	214.71
368.47	214.98
368.85	215.12
369.23	215.71
369.61	215.29
369.99	215.76
370.37	216.19
370.75	217.36
371.13	217.14
371.51	217.00
371.89	217.12
372.27	217.26
372.65	217.55
373.03	217.45
373.41	217.43
373.78	217.57
374.16	216.19
374.54	215.52
374.92	215.38
375.30	215.50
375.68	215.02
376.06	214.79
376.44	214.64
376.82	214.88
377.19	214.57
377.57	214.48
377.95	214.00
378.33	213.62
378.71	212.24
379.09	212.45
379.47	212.76
379.84	212.62
380.22	212.48
380.60	212.02
380.98	212.07
381.36	212.05
381.73	211.60
382.11	212.17
382.49	212.26
382.87	212.07
383.25	212.52
383.62	215.10
384.00	214.60
384.38	214.60
384.76	215.00
385.13	215.93
385.51	215.93
385.89	215.74
386.27	216.02
386.64	216.55
387.02	216.29
387.40	216.26
387.78	216.43
388.15	216.45
388.53	216.62
388.91	216.64
389.29	216.50
389.66	216.79
390.04	216.36
390.42	216.86
390.79	217.12
391.17	216.62
391.55	214.36
391.92	214.43
392.30	214.60
392.68	213.93
393.05	213.52
393.43	213.38
393.81	213.43
394.18	213.07
394.56	212.98
394.94	213.52
395.31	213.19
395.69	213.64
396.06	213.95
396.44	213.88
396.82	213.83
397.19	215.05
397.57	214.95
397.95	215.24
398.32	214.55
398.70	214.71
399.07	215.48
399.45	215.24
399.82	215.52
400.20	215.24
400.58	215.31
400.95	214.50
401.33	215.29
401.70	216.83
402.08	216.93
402.45	217.17
402.83	217.69
403.20	218.12
403.58	218.17
403.95	218.74
404.33	219.45
404.71	219.71
405.08	220.93
405.46	221.38
405.83	222.10
406.21	222.60
406.58	222.83
406.96	222.93
407.33	224.05
407.70	224.76
408.08	227.29
408.45	228.31
408.83	229.71
409.20	230.19
409.58	229.90
409.95	231.24
410.33	232.17
410.70	232.71
411.08	233.95
411.45	235.02
411.82	235.90
412.20	237.40
412.57	240.12
412.95	239.69
413.32	241.69
413.69	243.12
414.07	245.21
414.44	247.38
414.82	249.69
415.19	252.14
415.56	254.69
415.94	256.29
416.31	259.62
416.68	262.62
417.06	266.24
417.43	270.38
417.81	274.45
418.18	279.10
418.55	283.57
418.93	288.36
419.30	293.45
419.67	298.79
420.04	303.74
420.42	308.67
420.79	316.69
421.16	323.07
421.54	331.10
421.91	337.95
422.28	345.14
422.66	352.88
423.03	362.02
423.40	370.29
423.77	379.02
424.15	387.17
424.52	396.02
424.89	406.31
425.26	415.76
425.64	424.21
426.01	433.62
426.38	444.10
426.75	455.40
427.13	466.36
427.50	477.86
427.87	489.88
428.24	501.26
428.61	511.98
428.99	525.40
429.36	538.07
429.73	551.90
430.10	565.95
430.47	579.57
430.85	592.17
431.22	606.81
431.59	623.71
431.96	639.48
432.33	656.43
432.70	672.48
433.08	690.98
433.45	709.76
433.82	728.24
434.19	748.76
434.56	768.76
434.93	787.33
435.30	805.90
435.68	827.43
436.05	848.86
436.42	869.52
436.79	888.45
437.16	909.55
437.53	930.86
437.90	951.74
438.27	973.64
438.64	995.71
439.01	1017.05
439.38	1034.05
439.75	1051.40
440.13	1071.81
440.50	1090.90
440.87	1107.36
441.24	1123.79
441.61	1141.83
441.98	1154.67
442.35	1169.50
442.72	1185.45
443.09	1201.93
443.46	1210.95
443.83	1217.60
444.20	1223.24
444.57	1231.67
444.94	1235.21
445.31	1239.88
445.68	1246.29
446.05	1248.19
446.42	1247.17
446.79	1245.19
447.16	1243.36
447.53	1242.74
447.90	1235.45
448.27	1228.31
448.64	1217.52
449.01	1210.36
449.37	1196.79
449.74	1183.62
450.11	1169.33
450.48	1151.60
450.85	1132.55
451.22	1117.67
451.59	1103.26
451.96	1089.40
452.33	1070.19
452.70	1053.31
453.07	1032.67
453.43	1010.24
453.80	990.69
454.17	971.90
454.54	953.76
454.91	934.38
455.28	915.38
455.65	897.50
456.02	882.95
456.38	867.98
456.75	848.93
457.12	832.67
457.49	817.43
457.86	800.86
458.23	789.29
458.59	775.83
458.96	761.40
459.33	748.50
459.70	735.62
460.07	725.45
460.43	714.24
460.80	704.10
461.17	695.33
461.54	685.29
461.91	675.12
462.27	665.60
462.64	657.07
463.01	647.98
463.38	639.95
463.74	627.71
464.11	619.26
464.48	612.90
464.85	606.43
465.21	601.40
465.58	595.57
465.95	587.45
466.32	581.38
466.68	575.05
467.05	568.98
467.42	563.21
467.78	557.17
468.15	551.07
468.52	546.45
468.88	539.88
469.25	534.29
469.62	530.33
469.98	525.60
470.35	521.55
470.72	517.33
471.08	512.05
471.45	508.36
471.82	505.50
472.18	500.90
472.55	497.50
472.92	492.98
473.28	489.55
473.65	486.52
474.02	483.86
474.38	481.88
474.75	480.10
475.11	477.55
475.48	475.50
475.85	473.76
476.21	471.64
476.58	470.17
476.94	469.26
477.31	467.88
477.67	466.71
478.04	465.14
478.41	464.48
478.77	466.36
479.14	465.95
479.50	465.26
479.87	465.36
480.23	465.29
480.60	465.19
480.96	465.12
481.33	466.00
481.69	465.71
482.06	465.98
482.42	466.24
482.79	467.19
483.15	467.71
483.52	469.12
483.88	470.12
484.25	470.88
484.61	471.67
484.98	472.67
485.34	475.02
485.71	477.36
486.07	479.02
486.44	479.10
486.80	480.95
487.17	483.21
487.53	486.14
487.90	488.90
488.26	492.88
488.62	496.86
488.99	499.10
489.35	502.81
489.72	506.31
490.08	510.19
490.44	513.81
490.81	518.14
491.17	521.71
491.54	525.95
491.90	531.10
492.26	535.71
492.63	541.05
492.99	545.02
493.36	550.67
493.72	556.33
494.08	561.50
494.45	567.71
494.81	574.36
495.17	580.38
495.54	587.00
495.90	593.14
496.26	599.36
496.63	606.79
496.99	613.71
497.35	620.98
497.72	628.88
498.08	636.81
498.44	644.98
498.80	653.76
499.17	662.10
499.53	670.55
499.89	679.74
500.26	688.07
500.62	697.19
500.98	705.93
501.34	714.62
501.71	724.33
502.07	733.38
502.43	742.17
502.79	751.24
503.16	760.52
503.52	770.10
503.88	778.95
504.24	789.14
504.60	799.31
504.97	809.74
505.33	819.21
505.69	829.38
506.05	839.05
506.41	848.83
506.78	859.45
507.14	868.81
507.50	879.05
507.86	889.64
508.22	899.62
508.59	909.02
508.95	920.29
509.31	931.21
509.67	942.05
510.03	952.26
510.39	962.74
510.75	973.10
511.12	982.79
511.48	993.55
511.84	1003.29
512.20	1013.19
512.56	1023.40
512.92	1033.55
513.28	1043.21
513.64	1053.21
514.00	1063.26
514.37	1072.62
514.73	1082.69
515.09	1092.05
515.45	1100.24
515.81	1109.29
516.17	1118.76
516.53	1126.00
516.89	1133.17
517.25	1141.88
517.61	1150.86
517.97	1158.76
518.33	1166.40
518.69	1174.76
519.05	1183.40
519.41	1190.81
519.77	1199.81
520.13	1206.69
520.49	1213.64
520.85	1220.31
521.21	1228.02
521.57	1234.55
521.93	1241.02
522.29	1248.31
522.65	1254.69
523.01	1262.98
523.37	1269.50
523.73	1276.45
524.09	1283.26
524.45	1289.86
524.81	1294.86
525.17	1301.29
525.53	1306.98
525.89	1312.57
526.25	1318.40
526.61	1322.79
526.97	1328.38
527.33	1331.90
527.68	1338.45
528.04	1342.86
528.40	1347.62
528.76	1351.81
529.12	1355.98
529.48	1360.67
529.84	1364.90
530.20	1369.31
530.56	1372.81
530.91	1376.71
531.27	1380.52
531.63	1385.00
531.99	1387.19
532.35	1390.31
532.71	1392.10
533.07	1395.83
533.42	1401.33
533.78	1404.62
534.14	1407.57
534.50	1410.00
534.86	1414.43
535.21	1415.71
535.57	1420.26
535.93	1423.55
536.29	1427.50
536.65	1430.45
537.00	1432.52
537.36	1434.60
537.72	1436.45
538.08	1438.19
538.44	1439.36
538.79	1440.50
539.15	1440.81
539.51	1444.21
539.87	1446.50
540.22	1448.52
540.58	1450.17
540.94	1449.86
541.29	1450.36
541.65	1451.33
542.01	1452.83
542.37	1452.10
542.72	1451.55
543.08	1450.52
543.44	1450.31
543.79	1448.24
544.15	1448.98
544.51	1449.38
544.87	1449.02
545.22	1449.26
545.58	1448.81
545.94	1449.45
546.29	1449.50
546.65	1450.12
547.01	1448.81
547.36	1448.62
547.72	1447.52
548.07	1446.48
548.43	1444.81
548.79	1443.50
549.14	1442.24
549.50	1440.71
549.86	1439.07
550.21	1438.69
550.57	1438.14
550.92	1437.05
551.28	1436.45
551.64	1434.67
551.99	1432.90
552.35	1431.48
552.70	1429.48
553.06	1428.98
553.41	1428.57
553.77	1428.55
554.13	1427.31
554.48	1426.98
554.84	1425.24
555.19	1424.14
555.55	1423.95
555.90	1422.52
556.26	1421.69
556.61	1420.29
556.97	1418.60
557.32	1417.55
557.68	1416.26
558.03	1414.83
558.39	1413.50
558.74	1412.10
559.10	1411.19
559.45	1409.57
559.81	1407.74
560.16	1407.00
560.52	1405.31
560.87	1402.67
561.23	1399.95
561.58	1399.81
561.94	1398.21
562.29	1396.21
562.64	1394.88
563.00	1391.93
563.35	1390.57
563.71	1389.19
564.06	1387.67
564.42	1386.74
564.77	1385.79
565.12	1384.55
565.48	1384.43
565.83	1383.14
566.19	1381.74
566.54	1379.24
566.89	1378.00
567.25	1377.38
567.60	1377.05
567.96	1377.71
568.31	1377.90
568.66	1376.95
569.02	1373.55
569.37	1371.17
569.72	1370.29
570.08	1368.00
570.43	1366.17
570.78	1364.12
571.14	1362.45
571.49	1361.33
571.84	1359.07
572.20	1356.36
572.55	1353.93
572.90	1349.81
573.26	1348.07
573.61	1345.10
573.96	1343.21
574.31	1341.14
574.67	1338.10
575.02	1333.71
575.37	1328.38
575.72	1323.29
576.08	1319.43
576.43	1315.67
576.78	1312.07
577.13	1308.00
577.49	1304.64
577.84	1301.17
578.19	1297.98
578.54	1294.52
578.90	1290.76
579.25	1286.60
579.60	1283.21
579.95	1278.64
580.30	1275.02
580.66	1270.40
581.01	1266.76
581.36	1262.10
581.71	1256.90
582.06	1252.83
582.42	1249.10
582.77	1244.83
583.12	1241.26
583.47	1237.19
583.82	1232.67
584.17	1228.67
584.53	1226.05
584.88	1222.38
585.23	1219.00
585.58	1214.69
585.93	1209.57
586.28	1205.50
586.63	1202.14
586.98	1198.26
587.34	1195.71
587.69	1191.26
588.04	1186.33
588.39	1182.10
588.74	1177.21
589.09	1173.40
589.44	1168.10
589.79	1163.60
590.14	1159.48
590.49	1154.64
590.84	1149.74
591.19	1146.10
591.54	1142.64
591.89	1135.93
592.25	1133.36
592.60	1128.36
592.95	1124.48
593.30	1120.64
593.65	1115.31
594.00	1110.05
594.35	1110.76
594.70	1105.79
595.05	1101.40
595.40	1097.33
595.75	1093.29
596.10	1089.26
596.45	1086.02
596.80	1081.86
597.15	1077.21
597.50	1072.67
597.85	1069.48
598.19	1065.00
598.54	1060.45
598.89	1055.00
599.24	1052.12
599.59	1045.45
599.94	1041.24
600.29	1036.90
600.64	1032.02
600.99	1028.71
601.34	1025.43
601.69	1015.74
602.04	1010.83
602.39	1006.52
602.74	1002.43
603.08	997.48
603.43	994.79
603.78	989.76
604.13	986.10
604.48	981.95
604.83	977.62
605.18	972.64
605.53	969.21
605.87	965.33
606.22	960.64
606.57	955.55
606.92	951.00
607.27	946.38
607.62	941.45
607.96	937.21
608.31	932.43
608.66	927.62
609.01	923.26
609.36	919.29
609.70	914.98
610.05	910.62
610.40	906.83
610.75	901.19
611.10	896.86
611.44	892.10
611.79	887.50
612.14	883.00
612.49	878.43
612.83	873.36
613.18	869.21
613.53	865.55
613.88	860.95
614.22	856.26
614.57	851.48
614.92	847.38
615.27	843.33
615.61	838.74
615.96	833.86
616.31	828.67
616.65	824.55
617.00	819.95
617.35	815.17
617.70	810.05
618.04	806.05
618.39	801.52
618.74	797.52
619.08	793.90
619.43	790.10
619.78	785.79
620.12	781.81
620.47	777.40
620.82	773.10
621.16	769.71
621.51	767.83
621.85	764.10
622.20	760.36
622.55	755.74
622.89	751.79
623.24	748.29
623.59	745.24
623.93	741.67
624.28	738.00
624.62	737.14
624.97	734.95
625.32	730.76
625.66	726.95
626.01	722.98
626.35	719.07
626.70	714.88
627.04	711.83
627.39	708.07
627.73	705.45
628.08	702.10
628.43	698.00
628.77	693.19
629.12	690.05
629.46	686.64
629.81	683.64
630.15	680.45
630.50	676.76
630.84	673.05
631.19	669.19
631.53	665.69
631.88	659.57
632.22	654.67
632.57	651.98
632.91	648.36
633.26	645.38
633.60	641.19
633.95	637.62
634.29	633.43
634.64	630.19
634.98	625.98
635.32	623.19
635.67	620.67
636.01	617.40
636.36	613.55
636.70	610.21
637.05	606.74
637.39	603.21
637.73	600.81
638.08	598.45
638.42	595.02
638.77	592.40
639.11	589.43
639.45	586.24
639.80	582.31
640.14	579.76
640.49	576.64
640.83	573.90
641.17	571.19
641.52	568.60
641.86	565.64
642.20	563.38
642.55	559.71
642.89	555.90
643.23	553.24
643.58	551.14
643.92	547.17
644.26	544.17
644.61	541.57
644.95	538.48
645.29	534.74
645.64	532.67
645.98	529.64
646.32	527.17
646.66	524.38
647.01	522.07
647.35	519.67
647.69	517.10
648.04	514.86
648.38	512.67
648.72	510.02
649.06	507.17
649.41	504.07
649.75	501.45
650.09	499.43
650.43	496.79
650.78	493.57
651.12	491.62
651.46	489.57
651.80	487.05
652.14	483.98
652.49	482.12
652.83	478.88
653.17	476.24
653.51	473.60
653.85	471.57
654.20	469.05
654.54	465.95
654.88	463.00
655.22	461.48
655.56	458.52
655.90	455.95
656.25	453.83
656.59	451.33
656.93	449.52
657.27	447.81
657.61	445.29
657.95	443.60
658.29	441.07
658.64	438.86
658.98	436.31
659.32	434.31
659.66	431.95
660.00	430.21
660.34	428.38
660.68	426.12
661.02	424.02
661.36	421.60
661.70	419.71
662.05	417.98
662.39	415.52
662.73	414.45
663.07	413.74
663.41	412.02
663.75	410.14
664.09	408.21
664.43	405.81
664.77	403.93
665.11	401.57
665.45	399.90
665.79	398.52
666.13	396.86
666.47	395.14
666.81	393.52
667.15	391.33
667.49	389.67
667.83	388.83
668.17	387.24
668.51	385.67
668.85	384.36
669.19	383.52
669.53	381.62
669.87	379.83
670.21	377.55
670.55	376.02
670.89	375.36
671.23	373.95
671.57	372.60
671.91	371.38
672.25	370.24
672.58	369.90
672.92	368.00
673.26	366.57
673.60	365.52
673.94	364.05
674.28	363.26
674.62	362.19
674.96	360.48
675.30	359.33
675.64	358.21
675.97	356.86
676.31	355.36
676.65	353.79
676.99	353.00
677.33	351.55
677.67	350.33
678.01	348.17
678.34	346.69
678.68	345.83
679.02	344.21
679.36	342.90
679.70	341.12
680.04	339.83
680.37	338.71
680.71	337.33
681.05	336.26
681.39	335.07
681.73	333.57
682.06	332.31
682.40	331.17
682.74	330.45
683.08	330.17
683.42	328.31
683.75	327.52
684.09	325.74
684.43	324.81
684.77	323.60
685.10	322.90
685.44	322.00
685.78	320.55
686.12	319.81
686.45	318.86
686.79	317.62
687.13	317.00
687.46	316.02
687.80	315.50
688.14	314.24
688.48	313.26
688.81	312.38
689.15	312.05
689.49	310.81
689.82	309.83
690.16	307.79
690.50	307.02
690.83	305.90
691.17	304.45
691.51	303.57
691.84	302.90
692.18	301.67
692.52	300.62
692.85	299.93
693.19	299.81
693.52	298.88
693.86	297.93
694.20	296.74
694.53	296.05
694.87	294.79
695.21	293.81
695.54	292.98
695.88	291.83
696.21	290.26
696.55	289.50
696.88	288.48
697.22	287.76
697.56	287.38
697.89	286.31
698.23	286.29
698.56	285.48
698.90	284.74
699.23	284.10
699.57	283.55
699.90	282.50
700.24	281.07
700.58	280.38
700.91	280.12
701.25	280.93
701.58	280.81
701.92	280.74
702.25	280.36
702.59	279.48
702.92	279.00
703.26	278.69
703.59	278.02
703.93	279.29
704.26	279.07
704.60	278.50
704.93	277.98
705.26	276.81
705.60	276.33
705.93	275.26
706.27	275.21
706.60	275.38
706.94	276.02
707.27	275.19
707.61	274.74
707.94	274.14
708.27	272.19
708.61	270.93
708.94	269.98
709.28	269.38
709.61	268.81
709.94	268.55
710.28	267.79
710.61	267.52
710.95	265.00
711.28	265.71
711.61	265.07
711.95	264.95
712.28	264.83
712.61	264.00
712.95	264.81
713.28	264.95
713.61	263.62
713.95	262.36
714.28	262.33
714.61	261.64
714.95	261.02
715.28	260.43
715.61	259.74
715.95	259.43
716.28	258.74
716.61	258.64
716.95	257.76
717.28	257.24
717.61	256.50
717.94	256.21
718.28	254.29
718.61	253.67
718.94	253.05
719.27	252.57
719.61	252.52
719.94	251.21
720.27	249.76
720.60	249.17
720.94	248.64
721.27	248.10
721.60	248.14
721.93	247.64
722.27	247.83
722.60	247.98
722.93	247.17
723.26	247.02
723.59	246.21
723.93	246.33
724.26	246.07
724.59	245.81
724.92	245.33
725.25	245.50
725.59	245.36
725.92	245.07
726.25	244.67
726.58	244.57
726.91	244.29
727.24	244.33
727.57	244.29
727.91	243.83
728.24	243.64
728.57	243.00
728.90	243.10
729.23	242.05
729.56	242.48
729.89	242.33
730.22	241.98
730.55	242.05
730.89	241.50
731.22	241.07
731.55	240.95
731.88	240.88
732.21	239.98
732.54	239.67
732.87	239.57
733.20	239.38
733.53	239.07
733.86	238.98
734.19	238.33
734.52	238.17
734.85	239.24
735.18	238.64
735.51	239.17
735.84	238.86
736.17	239.36
736.50	238.29
736.83	240.43
737.16	240.26
737.49	239.93
737.82	239.60
738.15	239.64
738.48	239.21
738.81	238.98
739.14	238.95
739.47	238.69
739.80	238.40
740.13	238.55
740.46	237.79
740.79	237.52
741.12	237.43
741.45	237.10
741.78	235.67
742.11	236.26
742.44	235.60
742.77	235.76
743.10	235.43
743.43	235.12
743.75	233.00
744.08	235.57
744.41	235.29
744.74	235.21
745.07	234.90
745.40	235.14
745.73	235.74
746.06	235.62
746.39	235.60
746.71	235.02
747.04	234.45
747.37	234.57
747.70	234.55
748.03	234.67
748.36	234.90
748.68	234.69
749.01	233.74
749.34	233.60
749.67	233.36
750.00	233.48
750.33	235.02
750.65	234.95
750.98	231.98
751.31	231.93
751.64	231.74
751.97	232.67
752.29	232.29
752.62	231.26
752.95	230.90
753.28	230.69
753.60	230.93
753.93	231.48
754.26	231.33
754.59	230.55
754.91	230.02
755.24	229.71
755.57	229.29
755.90	229.29
756.22	228.86
756.55	228.52
756.88	228.02
757.20	226.31
757.53	225.71
757.86	225.76
758.19	225.79
758.51	225.67
758.84	224.67
759.17	224.50
759.49	224.55
759.82	225.36
760.15	225.48
760.47	225.21
760.80	224.60
761.13	224.83
761.45	225.00
761.78	224.98
762.11	224.76
762.43	225.00
762.76	224.62
763.08	224.98
763.41	224.86
763.74	224.79
764.06	224.76
764.39	224.62
764.71	224.43
765.04	224.17
765.37	224.05
765.69	223.62
766.02	223.52
766.34	223.43
766.67	222.79
767.00	222.88
767.32	223.71
767.65	224.55
767.97	224.12
768.30	223.93
768.62	223.69
768.95	223.57
769.27	223.52
769.60	223.90
769.92	223.24
770.25	222.79
770.57	222.26
770.90	222.05
771.22	221.81
771.55	221.86
771.87	221.81
772.20	221.62
772.52	223.43
772.85	225.71
773.17	225.52
773.50	225.14
773.82	224.76
774.15	223.71
774.47	222.38
774.80	222.07
775.12	222.17
775.45	222.14
775.77	222.12
776.09	222.00
776.42	222.00
776.74	222.52
777.07	222.40
777.39	222.43
777.72	222.17
778.04	222.43
778.36	222.17
778.69	221.98
779.01	221.95
779.33	220.29
779.66	218.00
779.98	217.88
780.31	217.90
780.63	218.67
780.95	218.93
781.28	219.19
781.60	219.12
781.92	219.05
782.25	218.88
782.57	218.69
782.89	218.48
783.22	218.21
783.54	217.74
783.86	217.88
784.19	217.79
784.51	218.52
784.83	218.17
785.16	217.93
785.48	217.90
785.80	218.02
786.12	218.19
786.45	218.02
786.77	218.21
787.09	218.21
787.42	217.38
787.74	217.57
788.06	217.48
