SpectraSuite Data File
++++++++++++++++++++++++++++++++++++
Date: Tue Apr 02 18:40:27 EDT 2013
User: group
Dark Spectrum Present: No
Reference Spectrum Present: No
Number of Sampled Component Spectra: 1
Spectrometers: USB2E7196
Integration Time (usec): 580000 (USB2E7196)
Spectra Averaged: 2 (USB2E7196)
Boxcar Smoothing: 10 (USB2E7196)
Correct for Electrical Dark: No (USB2E7196)
Strobe/Lamp Enabled: No (USB2E7196)
Correct for Detector Non-linearity: No (USB2E7196)
Correct for Stray Light: No (USB2E7196)
Number of Pixels in Processed Spectrum: 2048
>>>>>Begin Processed Spectral Data<<<<<
339.09	0.00
339.48	192.50
339.86	195.50
340.24	195.50
340.63	200.00
341.01	231.00
341.39	203.00
341.78	207.00
342.16	210.50
342.54	204.00
342.93	197.64
343.31	207.36
343.69	208.05
344.07	208.52
344.46	209.50
344.84	210.12
345.22	209.14
345.60	209.60
345.99	209.79
346.37	209.86
346.75	210.14
347.13	210.17
347.52	210.33
347.90	211.36
348.28	211.52
348.66	211.79
349.05	211.05
349.43	211.57
349.81	211.93
350.19	211.71
350.57	212.12
350.96	212.19
351.34	212.45
351.72	212.71
352.10	212.93
352.48	212.67
352.87	212.40
353.25	212.17
353.63	212.02
354.01	211.90
354.39	212.14
354.77	212.29
355.15	213.02
355.54	212.64
355.92	211.86
356.30	211.88
356.68	213.36
357.06	213.69
357.44	212.98
357.82	212.90
358.20	214.12
358.58	213.90
358.97	214.24
359.35	214.76
359.73	215.24
360.11	215.31
360.49	215.48
360.87	215.64
361.25	216.14
361.63	217.12
362.01	217.31
362.39	217.00
362.77	217.05
363.15	216.79
363.53	217.17
363.91	217.31
364.29	217.31
364.67	215.43
365.05	215.31
365.43	215.76
365.81	215.98
366.19	216.10
366.57	217.12
366.95	216.93
367.33	216.40
367.71	216.21
368.09	216.48
368.47	216.45
368.85	216.40
369.23	216.76
369.61	215.76
369.99	216.40
370.37	216.62
370.75	217.64
371.13	217.24
371.51	216.88
371.89	217.05
372.27	216.90
372.65	216.76
373.03	216.86
373.41	216.93
373.78	216.83
374.16	215.79
374.54	215.38
374.92	215.38
375.30	215.52
375.68	214.95
376.06	215.17
376.44	214.86
376.82	215.07
377.19	214.76
377.57	214.74
377.95	214.17
378.33	214.19
378.71	212.98
379.09	213.36
379.47	213.90
379.84	213.62
380.22	213.64
380.60	213.64
380.98	213.57
381.36	213.10
381.73	212.69
382.11	213.05
382.49	212.81
382.87	212.64
383.25	212.71
383.62	215.17
384.00	214.69
384.38	214.76
384.76	215.19
385.13	216.12
385.51	216.24
385.89	215.69
386.27	215.76
386.64	216.26
387.02	215.95
387.40	215.69
387.78	215.76
388.15	215.81
388.53	215.57
388.91	215.36
389.29	215.76
389.66	216.24
390.04	215.88
390.42	216.45
390.79	216.50
391.17	216.36
391.55	214.26
391.92	214.10
392.30	214.43
392.68	213.88
393.05	213.74
393.43	213.74
393.81	214.36
394.18	213.90
394.56	213.93
394.94	214.21
395.31	213.93
395.69	214.57
396.06	214.98
396.44	215.38
396.82	215.38
397.19	216.31
397.57	216.07
397.95	216.64
398.32	215.90
398.70	216.14
399.07	216.55
399.45	216.33
399.82	216.45
400.20	216.33
400.58	216.31
400.95	215.52
401.33	216.07
401.70	217.43
402.08	217.62
402.45	217.43
402.83	218.02
403.20	218.40
403.58	218.29
403.95	218.50
404.33	218.86
404.71	219.31
405.08	220.45
405.46	221.00
405.83	221.21
406.21	221.69
406.58	222.17
406.96	222.67
407.33	223.45
407.70	224.12
408.08	226.43
408.45	227.24
408.83	228.14
409.20	228.43
409.58	227.95
409.95	229.02
410.33	230.12
410.70	230.52
411.08	231.71
411.45	232.83
411.82	233.76
412.20	235.31
412.57	238.02
412.95	237.79
413.32	239.55
413.69	241.17
414.07	242.83
414.44	244.50
414.82	246.69
415.19	249.21
415.56	251.90
415.94	253.14
416.31	256.31
416.68	259.60
417.06	263.21
417.43	267.26
417.81	271.05
418.18	274.74
418.55	278.74
418.93	283.05
419.30	287.81
419.67	292.60
420.04	297.24
420.42	301.31
420.79	308.74
421.16	314.88
421.54	322.00
421.91	328.71
422.28	335.33
422.66	341.93
423.03	349.98
423.40	357.26
423.77	364.86
424.15	372.40
424.52	380.24
424.89	389.60
425.26	397.55
425.64	406.00
426.01	415.29
426.38	424.93
426.75	435.02
427.13	444.67
427.50	454.76
427.87	465.55
428.24	476.60
428.61	485.79
428.99	497.52
429.36	508.71
429.73	520.67
430.10	533.31
430.47	546.10
430.85	557.36
431.22	570.60
431.59	586.40
431.96	599.71
432.33	614.60
432.70	628.62
433.08	645.74
433.45	661.88
433.82	677.81
434.19	695.33
434.56	713.07
434.93	729.81
435.30	747.24
435.68	765.88
436.05	784.10
436.42	802.07
436.79	819.38
437.16	837.76
437.53	856.60
437.90	874.83
438.27	893.83
438.64	914.00
439.01	932.33
439.38	946.19
439.75	962.19
440.13	980.33
440.50	996.95
440.87	1009.86
441.24	1023.48
441.61	1038.45
441.98	1050.69
442.35	1063.45
442.72	1077.24
443.09	1091.17
443.46	1098.90
443.83	1104.60
444.20	1110.05
444.57	1115.88
444.94	1119.14
445.31	1123.00
445.68	1129.26
446.05	1130.24
446.42	1127.83
446.79	1126.60
447.16	1125.14
447.53	1124.00
447.90	1117.07
448.27	1109.86
448.64	1100.76
449.01	1094.55
449.37	1082.86
449.74	1070.29
450.11	1058.05
450.48	1042.52
450.85	1025.76
451.22	1012.45
451.59	999.02
451.96	986.29
452.33	969.55
452.70	954.55
453.07	936.64
453.43	915.50
453.80	898.29
454.17	881.81
454.54	865.14
454.91	847.76
455.28	830.67
455.65	814.36
456.02	802.05
456.38	789.24
456.75	772.55
457.12	758.50
457.49	745.12
457.86	730.02
458.23	719.02
458.59	706.60
458.96	693.95
459.33	683.21
459.70	671.81
460.07	663.02
460.43	652.52
460.80	643.17
461.17	635.93
461.54	626.79
461.91	618.14
462.27	609.24
462.64	601.79
463.01	593.98
463.38	587.07
463.74	576.14
464.11	568.40
464.48	562.19
464.85	555.86
465.21	551.62
465.58	546.62
465.95	539.43
466.32	533.98
466.68	528.36
467.05	522.74
467.42	517.71
467.78	511.83
468.15	506.81
468.52	502.74
468.88	496.38
469.25	491.90
469.62	488.55
469.98	484.43
470.35	481.05
470.72	476.98
471.08	472.38
471.45	469.69
471.82	467.43
472.18	463.88
472.55	461.26
472.92	456.64
473.28	453.71
473.65	451.07
474.02	447.98
474.38	446.02
474.75	444.33
475.11	441.45
475.48	439.79
475.85	437.69
476.21	435.60
476.58	434.40
476.94	432.48
477.31	430.90
477.67	429.93
478.04	428.55
478.41	428.07
478.77	429.45
479.14	428.26
479.50	427.17
479.87	426.98
480.23	426.48
480.60	426.52
480.96	426.05
481.33	426.93
481.69	427.40
482.06	427.29
482.42	427.24
482.79	427.95
483.15	428.12
483.52	429.33
483.88	429.79
484.25	430.69
484.61	432.00
484.98	433.02
485.34	434.50
485.71	435.90
486.07	437.29
486.44	436.81
486.80	438.05
487.17	439.86
487.53	442.12
487.90	444.52
488.26	447.50
488.62	450.45
488.99	452.21
489.35	455.21
489.72	458.07
490.08	461.10
490.44	463.93
490.81	467.62
491.17	470.38
491.54	474.31
491.90	478.14
492.26	481.86
492.63	485.83
492.99	489.67
493.36	494.10
493.72	498.76
494.08	503.57
494.45	508.76
494.81	513.71
495.17	518.93
495.54	524.12
495.90	529.05
496.26	534.31
496.63	539.95
496.99	545.26
497.35	551.05
497.72	556.86
498.08	563.02
498.44	569.45
498.80	576.76
499.17	582.86
499.53	589.38
499.89	596.74
500.26	604.19
500.62	610.81
500.98	618.62
501.34	625.57
501.71	633.74
502.07	641.64
502.43	649.69
502.79	656.10
503.16	663.76
503.52	671.43
503.88	678.26
504.24	686.67
504.60	694.67
504.97	703.26
505.33	711.50
505.69	721.45
506.05	729.50
506.41	736.95
506.78	745.36
507.14	753.83
507.50	762.38
507.86	770.43
508.22	778.98
508.59	786.48
508.95	795.07
509.31	803.67
509.67	811.36
510.03	819.64
510.39	828.57
510.75	836.79
511.12	845.50
511.48	854.55
511.84	862.24
512.20	870.79
512.56	879.07
512.92	887.98
513.28	895.26
513.64	903.62
514.00	912.07
514.37	920.76
514.73	928.64
515.09	936.60
515.45	943.67
515.81	951.48
516.17	959.14
516.53	966.69
516.89	973.55
517.25	980.90
517.61	988.12
517.97	996.62
518.33	1002.95
518.69	1010.71
519.05	1018.33
519.41	1025.83
519.77	1034.19
520.13	1040.45
520.49	1046.40
520.85	1053.21
521.21	1060.05
521.57	1066.83
521.93	1072.48
522.29	1079.10
522.65	1084.60
523.01	1091.40
523.37	1097.67
523.73	1104.02
524.09	1109.40
524.45	1114.88
524.81	1120.86
525.17	1126.33
525.53	1130.88
525.89	1137.33
526.25	1143.07
526.61	1147.69
526.97	1152.86
527.33	1156.83
527.68	1164.24
528.04	1169.83
528.40	1174.64
528.76	1179.14
529.12	1184.55
529.48	1190.60
529.84	1195.29
530.20	1200.71
530.56	1206.19
530.91	1210.88
531.27	1216.45
531.63	1221.57
531.99	1226.57
532.35	1231.45
532.71	1236.50
533.07	1242.26
533.42	1249.60
533.78	1254.00
534.14	1258.93
534.50	1263.29
534.86	1268.60
535.21	1271.43
535.57	1276.74
535.93	1280.19
536.29	1286.14
536.65	1291.38
537.00	1295.36
537.36	1299.26
537.72	1303.29
538.08	1307.21
538.44	1311.38
538.79	1315.00
539.15	1319.19
539.51	1323.38
539.87	1327.55
540.22	1331.98
540.58	1335.67
540.94	1337.48
541.29	1341.12
541.65	1344.93
542.01	1349.24
542.37	1352.40
542.72	1355.88
543.08	1358.43
543.44	1363.05
543.79	1365.93
544.15	1369.36
544.51	1373.02
544.87	1376.93
545.22	1380.31
545.58	1384.21
545.94	1388.07
546.29	1391.33
546.65	1395.55
547.01	1398.79
547.36	1402.55
547.72	1405.81
548.07	1409.60
548.43	1412.74
548.79	1415.79
549.14	1419.24
549.50	1423.52
549.86	1426.38
550.21	1430.57
550.57	1434.74
550.92	1438.31
551.28	1441.86
551.64	1444.71
551.99	1447.48
552.35	1451.10
552.70	1454.88
553.06	1458.38
553.41	1462.48
553.77	1468.00
554.13	1471.36
554.48	1476.43
554.84	1481.76
555.19	1485.79
555.55	1491.24
555.90	1495.40
556.26	1500.55
556.61	1504.31
556.97	1506.76
557.32	1512.00
557.68	1516.07
558.03	1520.12
558.39	1524.62
558.74	1528.67
559.10	1533.02
559.45	1538.60
559.81	1543.98
560.16	1548.95
560.52	1552.95
560.87	1557.50
561.23	1560.55
561.58	1566.69
561.94	1570.74
562.29	1575.29
562.64	1580.36
563.00	1583.86
563.35	1589.02
563.71	1593.38
564.06	1599.29
564.42	1605.19
564.77	1609.86
565.12	1616.14
565.48	1623.48
565.83	1629.43
566.19	1635.64
566.54	1641.21
566.89	1645.62
567.25	1650.93
567.60	1657.74
567.96	1665.38
568.31	1672.45
568.66	1679.48
569.02	1682.67
569.37	1687.40
569.72	1692.12
570.08	1697.40
570.43	1701.69
570.78	1706.00
571.14	1710.26
571.49	1714.79
571.84	1719.55
572.20	1723.79
572.55	1727.10
572.90	1729.45
573.26	1732.38
573.61	1735.90
573.96	1739.90
574.31	1744.14
574.67	1747.33
575.02	1748.07
575.37	1749.52
575.72	1750.71
576.08	1753.33
576.43	1757.26
576.78	1759.62
577.13	1761.88
577.49	1764.12
577.84	1767.17
578.19	1770.43
578.54	1773.57
578.90	1776.40
579.25	1778.21
579.60	1780.19
579.95	1781.76
580.30	1783.64
580.66	1787.81
581.01	1789.69
581.36	1791.71
581.71	1793.50
582.06	1796.48
582.42	1800.43
582.77	1802.17
583.12	1803.95
583.47	1804.95
583.82	1805.88
584.17	1808.40
584.53	1811.07
584.88	1812.02
585.23	1813.14
585.58	1814.00
585.93	1814.88
586.28	1815.14
586.63	1817.40
586.98	1819.40
587.34	1821.67
587.69	1822.38
588.04	1821.55
588.39	1821.76
588.74	1820.64
589.09	1821.83
589.44	1820.50
589.79	1820.14
590.14	1820.48
590.49	1820.07
590.84	1819.31
591.19	1820.07
591.54	1819.93
591.89	1817.69
592.25	1819.38
592.60	1819.40
592.95	1819.24
593.30	1819.62
593.65	1818.79
594.00	1816.95
594.35	1821.14
594.70	1819.10
595.05	1818.76
595.40	1817.17
595.75	1816.71
596.10	1817.00
596.45	1815.81
596.80	1815.19
597.15	1814.60
597.50	1812.71
597.85	1812.64
598.19	1812.52
598.54	1811.45
598.89	1809.69
599.24	1809.17
599.59	1807.00
599.94	1805.10
600.29	1803.57
600.64	1800.76
600.99	1799.48
601.34	1798.17
601.69	1791.29
602.04	1789.24
602.39	1786.48
602.74	1785.29
603.08	1783.69
603.43	1782.50
603.78	1780.19
604.13	1778.19
604.48	1774.26
604.83	1772.62
605.18	1770.62
605.53	1767.14
605.87	1763.69
606.22	1761.12
606.57	1758.33
606.92	1754.60
607.27	1752.71
607.62	1750.38
607.96	1748.52
608.31	1746.62
608.66	1743.17
609.01	1739.90
609.36	1736.81
609.70	1734.36
610.05	1730.69
610.40	1726.40
610.75	1721.48
611.10	1718.62
611.44	1714.62
611.79	1711.36
612.14	1707.38
612.49	1702.07
612.83	1697.98
613.18	1693.79
613.53	1689.48
613.88	1684.52
614.22	1679.26
614.57	1674.12
614.92	1667.76
615.27	1663.10
615.61	1657.43
615.96	1652.33
616.31	1646.90
616.65	1643.50
617.00	1638.45
617.35	1632.64
617.70	1627.69
618.04	1622.86
618.39	1615.62
618.74	1610.24
619.08	1604.81
619.43	1600.10
619.78	1595.24
620.12	1590.62
620.47	1585.26
620.82	1579.45
621.16	1573.67
621.51	1570.00
621.85	1563.79
622.20	1559.76
622.55	1553.10
622.89	1547.57
623.24	1542.60
623.59	1537.24
623.93	1531.64
624.28	1527.00
624.62	1524.76
624.97	1520.74
625.32	1516.17
625.66	1512.21
626.01	1506.81
626.35	1502.81
626.70	1497.10
627.04	1492.31
627.39	1486.60
627.73	1482.71
628.08	1478.43
628.43	1474.07
628.77	1468.76
629.12	1464.17
629.46	1459.38
629.81	1454.64
630.15	1448.48
630.50	1443.43
630.84	1438.00
631.19	1431.29
631.53	1424.55
631.88	1415.64
632.22	1408.05
632.57	1401.79
632.91	1395.88
633.26	1391.19
633.60	1384.62
633.95	1378.57
634.29	1371.79
634.64	1366.62
634.98	1359.36
635.32	1353.64
635.67	1348.21
636.01	1342.21
636.36	1335.67
636.70	1330.48
637.05	1324.50
637.39	1319.69
637.73	1313.71
638.08	1308.81
638.42	1303.07
638.77	1297.76
639.11	1292.74
639.45	1287.64
639.80	1281.29
640.14	1275.69
640.49	1268.14
640.83	1261.71
641.17	1255.86
641.52	1250.24
641.86	1243.76
642.20	1238.86
642.55	1232.14
642.89	1225.24
643.23	1218.19
643.58	1213.21
643.92	1205.45
644.26	1199.67
644.61	1193.07
644.95	1186.48
645.29	1179.19
645.64	1173.26
645.98	1166.45
646.32	1160.79
646.66	1153.45
647.01	1146.90
647.35	1140.21
647.69	1134.40
648.04	1128.48
648.38	1121.79
648.72	1115.17
649.06	1108.38
649.41	1100.90
649.75	1094.05
650.09	1087.57
650.43	1080.43
650.78	1072.21
651.12	1064.95
651.46	1057.14
651.80	1050.12
652.14	1043.88
652.49	1038.45
652.83	1031.74
653.17	1025.19
653.51	1017.33
653.85	1011.05
654.20	1004.55
654.54	997.19
654.88	990.69
655.22	985.07
655.56	978.12
655.90	971.74
656.25	965.55
656.59	959.64
656.93	953.64
657.27	948.29
657.61	942.55
657.95	937.86
658.29	932.07
658.64	926.33
658.98	920.71
659.32	913.76
659.66	906.64
660.00	901.29
660.34	895.55
660.68	890.17
661.02	883.90
661.36	878.33
661.70	872.81
662.05	866.93
662.39	860.29
662.73	855.76
663.07	850.86
663.41	844.88
663.75	838.93
664.09	833.12
664.43	826.14
664.77	820.60
665.11	813.71
665.45	808.40
665.79	803.19
666.13	797.31
666.47	791.93
666.81	786.29
667.15	779.69
667.49	774.17
667.83	769.48
668.17	764.60
668.51	758.93
668.85	754.17
669.19	749.86
669.53	743.88
669.87	738.14
670.21	732.12
670.55	726.79
670.89	722.57
671.23	717.55
671.57	713.05
671.91	708.45
672.25	703.71
672.58	699.14
672.92	693.95
673.26	689.24
673.60	684.64
673.94	680.48
674.28	676.26
674.62	671.83
674.96	666.74
675.30	662.50
675.64	658.24
675.97	653.36
676.31	648.60
676.65	644.67
676.99	641.19
677.33	636.81
677.67	633.10
678.01	627.81
678.34	623.95
678.68	620.50
679.02	615.88
679.36	611.45
679.70	606.95
680.04	602.98
680.37	598.98
680.71	594.95
681.05	590.76
681.39	586.79
681.73	582.74
682.06	578.90
682.40	574.86
682.74	570.79
683.08	567.14
683.42	562.76
683.75	558.98
684.09	553.90
684.43	549.86
684.77	545.60
685.10	542.00
685.44	538.14
685.78	534.05
686.12	530.43
686.45	526.95
686.79	522.93
687.13	519.36
687.46	515.55
687.80	512.36
688.14	508.93
688.48	505.45
688.81	501.95
689.15	498.88
689.49	494.93
689.82	491.93
690.16	488.36
690.50	484.79
690.83	481.40
691.17	478.19
691.51	475.07
691.84	472.07
692.18	468.90
692.52	465.50
692.85	462.19
693.19	459.71
693.52	456.83
693.86	454.00
694.20	450.83
694.53	448.40
694.87	445.45
695.21	441.95
695.54	438.83
695.88	435.12
696.21	431.19
696.55	428.71
696.88	425.62
697.22	422.52
697.56	420.24
697.89	417.29
698.23	414.88
698.56	412.00
698.90	409.50
699.23	406.62
699.57	404.36
699.90	401.31
700.24	398.33
700.58	396.02
700.91	393.83
701.25	393.10
701.58	390.95
701.92	388.81
702.25	386.76
702.59	384.60
702.92	382.81
703.26	381.05
703.59	378.98
703.93	378.62
704.26	376.79
704.60	374.60
704.93	372.64
705.26	370.33
705.60	368.95
705.93	366.62
706.27	365.24
706.60	363.93
706.94	363.40
707.27	361.52
707.61	359.24
707.94	357.19
708.27	354.14
708.61	351.76
708.94	349.79
709.28	348.21
709.61	346.12
709.94	344.90
710.28	343.31
710.61	341.76
710.95	338.36
711.28	338.24
711.61	336.69
711.95	335.67
712.28	334.29
712.61	332.71
712.95	332.55
713.28	331.67
713.61	329.55
713.95	327.57
714.28	326.10
714.61	324.86
714.95	323.48
715.28	321.79
715.61	320.48
715.95	319.14
716.28	317.60
716.61	316.86
716.95	315.05
717.28	313.79
717.61	312.33
717.94	311.02
718.28	308.19
718.61	306.74
718.94	304.98
719.27	303.33
719.61	302.07
719.94	299.79
720.27	297.62
720.60	296.10
720.94	294.74
721.27	293.98
721.60	293.40
721.93	292.36
722.27	292.21
722.60	291.52
722.93	290.43
723.26	289.60
723.59	288.19
723.93	287.62
724.26	286.83
724.59	285.93
724.92	285.45
725.25	285.12
725.59	284.69
725.92	284.67
726.25	284.05
726.58	283.36
726.91	282.76
727.24	282.60
727.57	282.05
727.91	280.93
728.24	280.05
728.57	278.86
728.90	278.48
729.23	277.14
729.56	277.21
729.89	276.57
730.22	275.76
730.55	275.14
730.89	274.33
731.22	273.50
731.55	272.69
731.88	271.71
732.21	271.02
732.54	269.93
732.87	268.67
733.20	267.95
733.53	267.12
733.86	266.60
734.19	265.52
734.52	265.24
734.85	266.14
735.18	265.17
735.51	265.12
735.84	264.62
736.17	264.40
736.50	262.81
736.83	264.67
737.16	264.33
737.49	264.12
737.82	263.36
738.15	262.86
738.48	262.50
738.81	262.14
739.14	261.19
739.47	260.64
739.80	260.12
740.13	260.10
740.46	259.48
740.79	258.64
741.12	257.98
741.45	257.17
741.78	255.52
742.11	255.81
742.44	254.81
742.77	254.40
743.10	253.64
743.43	253.21
743.75	250.55
744.08	252.29
744.41	251.50
744.74	251.07
745.07	250.14
745.40	249.93
745.73	250.26
746.06	250.00
746.39	249.79
746.71	249.43
747.04	248.57
747.37	248.17
747.70	248.02
748.03	247.69
748.36	247.60
748.68	247.33
749.01	246.31
749.34	245.98
749.67	245.48
750.00	245.33
750.33	246.40
750.65	246.45
750.98	243.83
751.31	243.60
751.64	243.45
751.97	244.45
752.29	244.07
752.62	242.95
752.95	242.45
753.28	241.76
753.60	241.10
753.93	241.29
754.26	241.24
754.59	240.50
754.91	240.24
755.24	239.93
755.57	239.40
755.90	238.81
756.22	238.45
756.55	237.76
756.88	237.10
757.20	235.31
757.53	234.24
757.86	234.14
758.19	234.12
758.51	233.71
758.84	232.40
759.17	231.71
759.49	231.33
759.82	232.17
760.15	232.29
760.47	232.29
760.80	231.60
761.13	231.29
761.45	231.10
761.78	230.86
762.11	230.62
762.43	230.19
762.76	230.14
763.08	230.14
763.41	230.29
763.74	230.05
764.06	230.10
764.39	230.07
764.71	229.57
765.04	228.90
765.37	228.50
765.69	228.07
766.02	227.95
766.34	227.74
766.67	226.67
767.00	226.88
767.32	227.55
767.65	228.48
767.97	228.57
768.30	228.57
768.62	228.26
768.95	227.76
769.27	227.81
769.60	228.05
769.92	227.74
770.25	227.31
770.57	226.83
770.90	226.36
771.22	226.02
771.55	226.07
771.87	226.07
772.20	226.14
772.52	227.95
772.85	230.36
773.17	230.36
773.50	230.17
773.82	229.76
774.15	228.88
774.47	227.64
774.80	227.19
775.12	227.02
775.45	226.76
775.77	226.60
776.09	226.64
776.42	226.50
776.74	227.00
777.07	226.67
777.39	226.81
777.72	226.57
778.04	226.88
778.36	226.45
778.69	226.55
779.01	226.31
779.33	224.52
779.66	222.10
779.98	221.69
780.31	221.57
780.63	222.38
780.95	222.50
781.28	222.67
781.60	222.36
781.92	222.26
782.25	222.24
782.57	222.52
782.89	222.24
783.22	221.88
783.54	221.29
783.86	221.52
784.19	221.60
784.51	222.10
784.83	221.60
785.16	221.69
785.48	221.38
