SpectraSuite Data File
++++++++++++++++++++++++++++++++++++
Date: Tue Apr 02 18:42:27 EDT 2013
User: group
Dark Spectrum Present: No
Reference Spectrum Present: No
Number of Sampled Component Spectra: 1
Spectrometers: USB2E7196
Integration Time (usec): 580000 (USB2E7196)
Spectra Averaged: 2 (USB2E7196)
Boxcar Smoothing: 10 (USB2E7196)
Correct for Electrical Dark: No (USB2E7196)
Strobe/Lamp Enabled: No (USB2E7196)
Correct for Detector Non-linearity: No (USB2E7196)
Correct for Stray Light: No (USB2E7196)
Number of Pixels in Processed Spectrum: 2048
>>>>>Begin Processed Spectral Data<<<<<
339.09	0.00
339.48	194.50
339.86	192.50
340.24	192.00
340.63	197.50
341.01	227.00
341.39	202.50
341.78	202.50
342.16	208.50
342.54	205.50
342.93	195.93
343.31	205.71
343.69	206.31
344.07	206.86
344.46	207.71
344.84	208.40
345.22	207.60
345.60	208.02
345.99	208.31
346.37	208.50
346.75	208.57
347.13	209.00
347.52	209.12
347.90	210.24
348.28	210.55
348.66	211.12
349.05	210.81
349.43	211.12
349.81	211.29
350.19	211.45
350.57	211.62
350.96	211.90
351.34	212.24
351.72	212.43
352.10	212.71
352.48	212.57
352.87	212.48
353.25	212.48
353.63	212.43
354.01	212.67
354.39	212.79
354.77	213.02
355.15	213.52
355.54	213.45
355.92	212.79
356.30	212.88
356.68	214.24
357.06	214.40
357.44	214.05
357.82	214.36
358.20	215.33
358.58	215.21
358.97	215.52
359.35	216.05
359.73	216.52
360.11	216.57
360.49	216.93
360.87	217.10
361.25	217.38
361.63	218.17
362.01	218.31
362.39	218.26
362.77	218.43
363.15	218.29
363.53	218.26
363.91	218.45
364.29	218.33
364.67	216.60
365.05	216.52
365.43	217.02
365.81	216.88
366.19	217.00
366.57	218.19
366.95	217.93
367.33	217.26
367.71	217.10
368.09	217.40
368.47	217.24
368.85	217.26
369.23	217.67
369.61	216.79
369.99	217.40
370.37	217.50
370.75	218.48
371.13	218.26
371.51	217.64
371.89	217.64
372.27	217.86
372.65	217.79
373.03	217.86
373.41	217.38
373.78	217.43
374.16	216.43
374.54	215.31
374.92	215.31
375.30	215.36
375.68	214.95
376.06	215.05
376.44	215.05
376.82	214.95
377.19	214.83
377.57	214.76
377.95	213.86
378.33	213.67
378.71	212.40
379.09	212.43
379.47	212.98
379.84	212.74
380.22	212.64
380.60	212.57
380.98	212.45
381.36	212.43
381.73	212.07
382.11	212.38
382.49	212.57
382.87	212.36
383.25	212.33
383.62	214.57
384.00	214.29
384.38	214.29
384.76	214.95
385.13	215.71
385.51	215.76
385.89	215.55
386.27	215.67
386.64	215.90
387.02	215.69
387.40	215.76
387.78	215.95
388.15	216.12
388.53	215.83
388.91	215.90
389.29	215.86
389.66	216.07
390.04	215.79
390.42	216.21
390.79	216.36
391.17	216.40
391.55	214.38
391.92	214.31
392.30	214.64
392.68	213.98
393.05	213.60
393.43	213.79
393.81	213.95
394.18	213.45
394.56	213.33
394.94	213.93
395.31	213.36
395.69	213.83
396.06	213.88
396.44	214.10
396.82	213.90
397.19	214.93
397.57	214.67
397.95	215.10
398.32	214.48
398.70	214.60
399.07	214.95
399.45	214.76
399.82	214.83
400.20	214.43
400.58	214.26
400.95	213.33
401.33	213.79
401.70	215.40
402.08	215.69
402.45	215.95
402.83	216.31
403.20	216.83
403.58	216.52
403.95	216.93
404.33	217.50
404.71	217.79
405.08	219.12
405.46	219.62
405.83	219.88
406.21	220.14
406.58	220.74
406.96	221.05
407.33	221.76
407.70	222.38
408.08	224.48
408.45	225.45
408.83	226.71
409.20	227.05
409.58	226.48
409.95	227.76
410.33	228.69
410.70	228.98
411.08	229.98
411.45	231.14
411.82	231.95
412.20	233.31
412.57	235.74
412.95	235.26
413.32	237.05
413.69	238.29
414.07	240.21
414.44	241.74
414.82	243.76
415.19	246.12
415.56	248.55
415.94	249.86
416.31	252.67
416.68	255.55
417.06	259.00
417.43	262.62
417.81	266.00
418.18	269.69
418.55	273.69
418.93	277.76
419.30	281.88
419.67	286.45
420.04	291.02
420.42	295.33
420.79	302.64
421.16	308.36
421.54	315.83
421.91	321.79
422.28	328.12
422.66	334.76
423.03	342.67
423.40	349.43
423.77	357.05
424.15	363.93
424.52	371.71
424.89	380.31
425.26	388.24
425.64	396.02
426.01	404.52
426.38	413.29
426.75	423.07
427.13	432.62
427.50	442.36
427.87	452.36
428.24	462.33
428.61	470.69
428.99	482.00
429.36	492.10
429.73	503.69
430.10	515.40
430.47	527.12
430.85	538.00
431.22	551.02
431.59	565.95
431.96	579.26
432.33	593.52
432.70	607.07
433.08	623.02
433.45	638.07
433.82	653.26
434.19	670.00
434.56	686.71
434.93	702.19
435.30	718.26
435.68	735.86
436.05	753.40
436.42	770.81
436.79	786.83
437.16	804.29
437.53	822.24
437.90	839.48
438.27	857.43
438.64	875.74
439.01	892.67
439.38	906.14
439.75	921.67
440.13	938.76
440.50	954.76
440.87	967.50
441.24	981.64
441.61	996.21
441.98	1007.31
442.35	1019.76
442.72	1033.60
443.09	1047.31
443.46	1054.62
443.83	1059.76
444.20	1064.52
444.57	1070.71
444.94	1073.74
445.31	1076.62
445.68	1082.71
446.05	1084.24
446.42	1082.60
446.79	1081.29
447.16	1079.50
447.53	1078.31
447.90	1071.12
448.27	1064.60
448.64	1056.00
449.01	1049.40
449.37	1038.45
449.74	1027.05
450.11	1015.31
450.48	1000.05
450.85	983.52
451.22	971.21
451.59	959.24
451.96	947.83
452.33	931.76
452.70	918.24
453.07	901.24
453.43	881.67
453.80	865.29
454.17	849.83
454.54	834.33
454.91	817.29
455.28	800.81
455.65	786.48
456.02	775.00
456.38	762.24
456.75	746.83
457.12	733.48
457.49	720.86
457.86	706.69
458.23	696.79
458.59	685.05
458.96	673.14
459.33	662.38
459.70	650.98
460.07	642.69
460.43	632.36
460.80	623.95
461.17	616.43
461.54	608.00
461.91	599.74
462.27	591.31
462.64	584.74
463.01	576.93
463.38	570.36
463.74	559.69
464.11	552.83
464.48	546.93
464.85	540.45
465.21	536.24
465.58	531.10
465.95	524.57
466.32	519.60
466.68	514.17
467.05	509.05
467.42	504.38
467.78	498.83
468.15	493.98
468.52	490.74
468.88	485.26
469.25	480.12
469.62	476.57
469.98	472.48
470.35	468.95
470.72	465.64
471.08	460.74
471.45	457.83
471.82	455.36
472.18	451.64
472.55	449.05
472.92	445.55
473.28	442.19
473.65	439.00
474.02	436.38
474.38	434.38
474.75	432.31
475.11	429.83
475.48	428.38
475.85	426.71
476.21	424.33
476.58	423.19
476.94	422.17
477.31	420.83
477.67	419.81
478.04	418.74
478.41	417.83
478.77	419.12
479.14	417.69
479.50	416.76
479.87	416.83
480.23	416.48
480.60	415.86
480.96	415.67
481.33	416.36
481.69	416.48
482.06	416.67
482.42	417.17
482.79	417.50
483.15	417.57
483.52	418.48
483.88	418.98
484.25	419.26
484.61	420.43
484.98	421.21
485.34	423.38
485.71	424.98
486.07	426.19
486.44	425.98
486.80	427.40
487.17	428.83
487.53	430.95
487.90	433.48
488.26	436.69
488.62	439.48
488.99	441.24
489.35	444.43
489.72	446.52
490.08	448.88
490.44	451.76
490.81	455.05
491.17	457.55
491.54	460.95
491.90	465.05
492.26	468.33
492.63	472.14
492.99	474.71
493.36	478.81
493.72	483.64
494.08	487.62
494.45	492.83
494.81	498.21
495.17	502.60
495.54	507.71
495.90	512.00
496.26	516.95
496.63	522.50
496.99	527.12
497.35	532.98
497.72	539.10
498.08	545.17
498.44	551.57
498.80	558.12
499.17	564.29
499.53	570.36
499.89	577.02
500.26	583.52
500.62	590.55
500.98	597.76
501.34	604.14
501.71	611.95
502.07	618.74
502.43	625.38
502.79	632.57
503.16	639.60
503.52	647.14
503.88	654.38
504.24	662.05
504.60	670.17
504.97	678.79
505.33	686.24
505.69	694.71
506.05	702.38
506.41	709.98
506.78	717.93
507.14	725.45
507.50	733.81
507.86	742.02
508.22	750.69
508.59	757.69
508.95	765.79
509.31	774.62
509.67	782.62
510.03	790.67
510.39	798.29
510.75	805.81
511.12	813.55
511.48	821.48
511.84	828.74
512.20	835.98
512.56	842.86
512.92	850.86
513.28	858.19
513.64	865.24
514.00	872.83
514.37	880.36
514.73	888.62
515.09	896.10
515.45	902.74
515.81	908.90
516.17	916.12
516.53	922.52
516.89	928.17
517.25	935.43
517.61	942.55
517.97	949.74
518.33	956.24
518.69	962.88
519.05	970.10
519.41	976.81
519.77	984.48
520.13	990.98
520.49	996.36
520.85	1001.86
521.21	1008.95
521.57	1015.00
521.93	1019.90
522.29	1024.76
522.65	1029.43
523.01	1035.55
523.37	1041.17
523.73	1046.10
524.09	1051.48
524.45	1056.07
524.81	1060.60
525.17	1065.83
525.53	1070.05
525.89	1075.50
526.25	1079.90
526.61	1082.74
526.97	1087.07
527.33	1091.00
527.68	1096.95
528.04	1102.02
528.40	1106.43
528.76	1110.00
529.12	1114.21
529.48	1120.17
529.84	1124.43
530.20	1129.31
530.56	1133.76
530.91	1138.02
531.27	1142.21
531.63	1147.55
531.99	1152.02
532.35	1155.88
532.71	1159.38
533.07	1163.48
533.42	1169.76
533.78	1174.76
534.14	1180.00
534.50	1184.26
534.86	1188.69
535.21	1191.17
535.57	1195.48
535.93	1199.38
536.29	1204.19
536.65	1208.76
537.00	1210.98
537.36	1215.00
537.72	1218.48
538.08	1221.57
538.44	1224.88
538.79	1229.31
539.15	1231.38
539.51	1235.50
539.87	1239.10
540.22	1242.55
540.58	1246.69
540.94	1247.26
541.29	1250.14
541.65	1253.33
542.01	1256.55
542.37	1258.95
542.72	1261.33
543.08	1263.10
543.44	1266.48
543.79	1268.05
544.15	1270.67
544.51	1274.83
544.87	1277.57
545.22	1280.83
545.58	1283.90
545.94	1286.40
546.29	1288.93
546.65	1292.14
547.01	1294.05
547.36	1295.81
547.72	1298.12
548.07	1300.52
548.43	1303.88
548.79	1306.29
549.14	1308.76
549.50	1312.21
549.86	1314.93
550.21	1317.98
550.57	1322.21
550.92	1324.31
551.28	1327.83
551.64	1330.40
551.99	1333.24
552.35	1336.14
552.70	1338.62
553.06	1341.67
553.41	1345.26
553.77	1349.98
554.13	1353.93
554.48	1358.93
554.84	1363.95
555.19	1367.88
555.55	1373.02
555.90	1376.00
556.26	1379.86
556.61	1383.62
556.97	1386.67
557.32	1389.93
557.68	1394.14
558.03	1397.69
558.39	1401.98
558.74	1405.48
559.10	1409.67
559.45	1413.86
559.81	1418.98
560.16	1423.02
560.52	1427.38
560.87	1433.12
561.23	1436.69
561.58	1441.93
561.94	1444.98
562.29	1449.00
562.64	1453.67
563.00	1456.69
563.35	1461.67
563.71	1466.21
564.06	1471.24
564.42	1476.45
564.77	1482.48
565.12	1487.76
565.48	1494.33
565.83	1500.62
566.19	1506.50
566.54	1512.02
566.89	1517.88
567.25	1523.14
567.60	1530.14
567.96	1536.93
568.31	1542.43
568.66	1549.02
569.02	1553.36
569.37	1559.24
569.72	1564.64
570.08	1569.55
570.43	1575.07
570.78	1581.02
571.14	1587.21
571.49	1593.10
571.84	1598.74
572.20	1603.52
572.55	1608.93
572.90	1612.74
573.26	1616.67
573.61	1621.17
573.96	1625.50
574.31	1629.52
574.67	1633.69
575.02	1637.24
575.37	1639.79
575.72	1642.95
576.08	1645.69
576.43	1649.14
576.78	1652.98
577.13	1656.86
577.49	1660.86
577.84	1665.33
578.19	1668.29
578.54	1671.88
578.90	1675.24
579.25	1678.07
579.60	1681.05
579.95	1683.50
580.30	1686.36
580.66	1691.00
581.01	1694.31
581.36	1697.69
581.71	1700.45
582.06	1704.26
582.42	1707.90
582.77	1710.93
583.12	1713.40
583.47	1716.79
583.82	1719.83
584.17	1721.33
584.53	1724.40
584.88	1727.50
585.23	1729.69
585.58	1731.98
585.93	1733.24
586.28	1734.50
586.63	1737.45
586.98	1740.36
587.34	1744.19
587.69	1746.98
588.04	1747.62
588.39	1749.55
588.74	1750.90
589.09	1753.33
589.44	1752.62
589.79	1753.43
590.14	1756.00
590.49	1757.60
590.84	1758.36
591.19	1760.50
591.54	1763.48
591.89	1765.38
592.25	1768.29
592.60	1768.64
592.95	1770.21
593.30	1772.24
593.65	1774.29
594.00	1773.98
594.35	1780.24
594.70	1779.19
595.05	1778.71
595.40	1779.12
595.75	1779.62
596.10	1781.43
596.45	1781.88
596.80	1783.93
597.15	1784.55
597.50	1783.50
597.85	1785.05
598.19	1785.50
598.54	1785.33
598.89	1785.40
599.24	1785.14
599.59	1784.07
599.94	1784.29
600.29	1784.02
600.64	1783.76
600.99	1783.79
601.34	1784.64
601.69	1779.10
602.04	1778.67
602.39	1778.81
602.74	1779.43
603.08	1778.60
603.43	1778.50
603.78	1777.33
604.13	1776.90
604.48	1776.60
604.83	1777.10
605.18	1776.36
605.53	1774.81
605.87	1773.90
606.22	1772.33
606.57	1770.71
606.92	1769.48
607.27	1768.90
607.62	1767.98
607.96	1766.98
608.31	1765.93
608.66	1765.07
609.01	1762.74
609.36	1762.57
609.70	1760.69
610.05	1757.67
610.40	1756.00
610.75	1752.31
611.10	1750.88
611.44	1748.00
611.79	1745.43
612.14	1742.83
612.49	1738.93
612.83	1736.43
613.18	1733.07
613.53	1729.55
613.88	1725.79
614.22	1721.69
614.57	1717.21
614.92	1713.79
615.27	1710.07
615.61	1705.31
615.96	1700.14
616.31	1696.81
616.65	1693.81
617.00	1690.81
617.35	1687.69
617.70	1683.74
618.04	1680.38
618.39	1675.64
618.74	1671.62
619.08	1667.00
619.43	1663.00
619.78	1659.33
620.12	1655.48
620.47	1651.45
620.82	1646.83
621.16	1642.38
621.51	1640.14
621.85	1636.07
622.20	1631.74
622.55	1627.31
622.89	1623.60
623.24	1619.76
623.59	1615.76
623.93	1610.14
624.28	1605.12
624.62	1602.57
624.97	1600.12
625.32	1595.40
625.66	1591.26
626.01	1587.05
626.35	1582.74
626.70	1577.74
627.04	1573.93
627.39	1570.00
627.73	1566.64
628.08	1563.60
628.43	1560.21
628.77	1554.79
629.12	1551.86
629.46	1547.95
629.81	1543.05
630.15	1538.21
630.50	1533.43
630.84	1528.24
631.19	1522.67
631.53	1518.21
631.88	1510.86
632.22	1503.33
632.57	1499.17
632.91	1494.14
633.26	1489.79
633.60	1484.95
633.95	1479.71
634.29	1473.67
634.64	1468.36
634.98	1461.79
635.32	1457.60
635.67	1453.38
636.01	1448.02
636.36	1441.67
636.70	1436.69
637.05	1431.95
637.39	1427.45
637.73	1423.29
638.08	1419.45
638.42	1414.81
638.77	1409.64
639.11	1404.17
639.45	1399.71
639.80	1394.52
640.14	1389.00
640.49	1383.93
640.83	1378.05
641.17	1373.31
641.52	1368.02
641.86	1362.12
642.20	1358.62
642.55	1351.60
642.89	1344.67
643.23	1338.33
643.58	1333.52
643.92	1326.60
644.26	1320.29
644.61	1313.81
644.95	1306.93
645.29	1299.38
645.64	1294.24
645.98	1287.74
646.32	1282.14
646.66	1275.26
647.01	1267.88
647.35	1261.81
647.69	1255.14
648.04	1249.48
648.38	1243.38
648.72	1237.38
649.06	1231.60
649.41	1223.33
649.75	1216.62
650.09	1210.67
650.43	1204.33
650.78	1197.02
651.12	1190.60
651.46	1183.64
651.80	1177.24
652.14	1171.19
652.49	1165.45
652.83	1158.26
653.17	1152.05
653.51	1145.12
653.85	1139.02
654.20	1132.98
654.54	1126.26
654.88	1119.57
655.22	1113.17
655.56	1106.12
655.90	1099.26
656.25	1092.86
656.59	1086.95
656.93	1081.38
657.27	1075.10
657.61	1068.88
657.95	1062.76
658.29	1056.76
658.64	1051.38
658.98	1045.00
659.32	1037.71
659.66	1031.26
660.00	1025.07
660.34	1017.95
660.68	1011.81
661.02	1005.86
661.36	999.36
661.70	993.07
662.05	985.98
662.39	980.00
662.73	974.07
663.07	968.95
663.41	962.19
663.75	955.98
664.09	949.52
664.43	943.14
664.77	936.55
665.11	929.98
665.45	923.38
665.79	917.69
666.13	911.52
666.47	906.62
666.81	900.52
667.15	894.38
667.49	889.71
667.83	885.60
668.17	879.67
668.51	874.36
668.85	869.38
669.19	865.57
669.53	859.10
669.87	852.90
670.21	846.52
670.55	840.74
670.89	836.10
671.23	830.62
671.57	825.14
671.91	820.33
672.25	815.55
672.58	811.67
672.92	805.86
673.26	800.86
673.60	795.33
673.94	790.00
674.28	784.86
674.62	779.86
674.96	774.29
675.30	769.76
675.64	764.43
675.97	759.57
676.31	753.55
676.65	748.86
676.99	745.40
677.33	740.60
677.67	736.19
678.01	730.90
678.34	726.43
678.68	722.40
679.02	717.21
679.36	712.26
679.70	706.36
680.04	701.19
680.37	696.38
680.71	691.21
681.05	686.90
681.39	682.33
681.73	676.95
682.06	671.76
682.40	666.93
682.74	663.17
683.08	658.62
683.42	653.88
683.75	649.50
684.09	643.88
684.43	639.26
684.77	634.69
685.10	630.74
685.44	626.19
685.78	621.12
686.12	617.19
686.45	612.64
686.79	608.45
687.13	604.98
687.46	600.79
687.80	597.69
688.14	593.55
688.48	589.86
688.81	586.50
689.15	582.98
689.49	578.60
689.82	574.45
690.16	569.67
690.50	565.95
690.83	561.88
691.17	557.57
691.51	554.00
691.84	550.40
692.18	546.38
692.52	542.55
692.85	539.52
693.19	536.24
693.52	532.64
693.86	528.95
694.20	524.74
694.53	520.88
694.87	516.67
695.21	512.71
695.54	508.88
695.88	504.29
696.21	500.21
696.55	496.88
696.88	493.17
697.22	489.98
697.56	486.90
697.89	483.62
698.23	480.86
698.56	477.00
698.90	473.62
699.23	470.05
699.57	467.19
699.90	463.45
700.24	459.90
700.58	457.10
700.91	454.40
701.25	453.38
701.58	451.43
701.92	448.93
702.25	446.19
702.59	442.93
702.92	440.60
703.26	437.90
703.59	435.21
703.93	434.55
704.26	432.36
704.60	429.88
704.93	427.12
705.26	424.45
705.60	422.71
705.93	420.21
706.27	417.88
706.60	415.31
706.94	413.74
707.27	411.31
707.61	408.93
707.94	406.55
708.27	402.62
708.61	399.38
708.94	396.71
709.28	394.38
709.61	392.21
709.94	390.17
710.28	387.83
710.61	385.67
710.95	381.21
711.28	380.40
711.61	377.98
711.95	376.43
712.28	374.36
712.61	372.17
712.95	370.86
713.28	369.52
713.61	367.10
713.95	364.83
714.28	362.90
714.61	360.67
714.95	358.55
715.28	356.31
715.61	354.48
715.95	352.74
716.28	351.02
716.61	349.38
716.95	347.57
717.28	346.00
717.61	344.40
717.94	343.10
718.28	339.79
718.61	338.31
718.94	336.05
719.27	334.50
719.61	332.90
719.94	330.98
720.27	328.31
720.60	327.02
720.94	325.14
721.27	323.74
721.60	322.93
721.93	321.60
722.27	320.95
722.60	319.83
722.93	318.24
723.26	316.67
723.59	315.55
723.93	314.64
724.26	313.67
724.59	312.40
724.92	311.12
725.25	310.38
725.59	308.69
725.92	307.98
726.25	306.86
726.58	305.62
726.91	304.38
727.24	304.00
727.57	302.83
727.91	301.67
728.24	300.93
728.57	299.50
728.90	299.02
729.23	297.67
729.56	297.62
729.89	297.05
730.22	296.31
730.55	295.21
730.89	293.90
731.22	292.79
731.55	291.79
731.88	291.00
732.21	289.88
732.54	289.17
732.87	288.14
733.20	287.14
733.53	286.57
733.86	285.90
734.19	284.55
734.52	284.05
734.85	284.43
735.18	283.17
735.51	282.81
735.84	281.71
736.17	281.45
736.50	279.64
736.83	281.10
737.16	280.62
737.49	279.90
737.82	279.38
738.15	278.95
738.48	278.33
738.81	277.19
739.14	276.00
739.47	275.45
739.80	274.71
740.13	274.55
740.46	273.43
740.79	272.52
741.12	271.86
741.45	271.10
741.78	269.67
742.11	269.81
742.44	268.74
742.77	268.50
743.10	267.31
743.43	266.69
743.75	263.86
744.08	265.55
744.41	265.02
744.74	264.17
745.07	263.10
745.40	262.79
745.73	263.26
746.06	263.10
746.39	262.40
746.71	261.76
747.04	260.62
747.37	260.24
747.70	260.02
748.03	259.57
748.36	259.07
748.68	258.24
749.01	257.00
749.34	256.95
749.67	256.36
750.00	256.36
750.33	257.24
750.65	256.95
750.98	254.12
751.31	253.57
751.64	253.24
751.97	253.86
752.29	253.26
752.62	252.00
752.95	251.26
753.28	250.81
753.60	250.31
753.93	250.62
754.26	250.12
754.59	249.17
754.91	248.43
755.24	248.00
755.57	247.60
755.90	246.98
756.22	246.12
756.55	245.33
756.88	244.45
757.20	242.90
757.53	241.98
757.86	241.29
758.19	241.00
758.51	240.52
758.84	239.17
759.17	238.40
759.49	238.12
759.82	239.00
760.15	238.76
760.47	238.57
760.80	237.62
761.13	237.69
761.45	237.36
761.78	237.38
762.11	237.29
762.43	237.02
762.76	236.86
763.08	236.81
763.41	236.83
763.74	236.86
764.06	236.48
764.39	236.36
764.71	235.98
765.04	235.50
765.37	235.17
765.69	234.83
766.02	234.74
766.34	234.40
766.67	233.14
767.00	233.43
767.32	234.10
767.65	235.38
767.97	234.81
768.30	234.79
768.62	234.48
768.95	233.86
769.27	233.38
769.60	233.50
769.92	233.05
770.25	232.31
770.57	231.45
770.90	231.14
771.22	230.62
771.55	230.79
771.87	230.98
772.20	230.74
772.52	232.26
772.85	234.55
773.17	234.38
773.50	234.36
773.82	233.45
774.15	232.26
774.47	230.40
774.80	230.12
775.12	229.86
775.45	229.88
775.77	229.67
776.09	230.02
776.42	229.90
776.74	230.17
777.07	229.74
777.39	229.81
777.72	229.55
778.04	229.74
778.36	229.29
778.69	229.05
779.01	228.86
779.33	227.10
779.66	224.74
779.98	224.48
780.31	224.02
780.63	225.12
780.95	225.36
781.28	225.38
781.60	225.12
781.92	225.02
782.25	224.64
782.57	224.76
782.89	224.24
783.22	223.86
783.54	223.52
783.86	223.93
784.19	223.62
784.51	224.12
784.83	223.60
785.16	223.48
