SpectraSuite Data File
++++++++++++++++++++++++++++++++++++
Date: Tue Apr 02 18:38:48 EDT 2013
User: group
Dark Spectrum Present: No
Reference Spectrum Present: No
Number of Sampled Component Spectra: 1
Spectrometers: USB2E7196
Integration Time (usec): 580000 (USB2E7196)
Spectra Averaged: 2 (USB2E7196)
Boxcar Smoothing: 10 (USB2E7196)
Correct for Electrical Dark: No (USB2E7196)
Strobe/Lamp Enabled: No (USB2E7196)
Correct for Detector Non-linearity: No (USB2E7196)
Correct for Stray Light: No (USB2E7196)
Number of Pixels in Processed Spectrum: 2048
>>>>>Begin Processed Spectral Data<<<<<
339.09	0.00
339.48	192.50
339.86	193.00
340.24	194.00
340.63	198.50
341.01	227.50
341.39	200.00
341.78	201.00
342.16	210.00
342.54	203.50
342.93	195.76
343.31	205.40
343.69	205.98
344.07	206.57
344.46	207.24
344.84	207.64
345.22	206.74
345.60	207.40
345.99	207.88
346.37	207.81
346.75	207.95
347.13	208.19
347.52	208.52
347.90	209.33
348.28	209.43
348.66	209.93
349.05	209.26
349.43	209.50
349.81	209.55
350.19	209.86
350.57	210.17
350.96	210.62
351.34	210.98
351.72	211.10
352.10	211.31
352.48	211.52
352.87	211.83
353.25	211.86
353.63	211.62
354.01	211.55
354.39	211.83
354.77	212.02
355.15	212.50
355.54	212.26
355.92	211.52
356.30	211.64
356.68	212.81
357.06	213.10
357.44	213.02
357.82	213.45
358.20	214.45
358.58	214.57
358.97	214.52
359.35	215.02
359.73	215.67
360.11	215.76
360.49	215.86
360.87	215.74
361.25	216.14
361.63	216.98
362.01	217.26
362.39	217.00
362.77	217.26
363.15	217.21
363.53	217.43
363.91	217.95
364.29	217.93
364.67	216.10
365.05	216.33
365.43	216.55
365.81	216.71
366.19	216.93
366.57	217.79
366.95	217.79
367.33	217.29
367.71	217.19
368.09	217.36
368.47	217.48
368.85	217.55
369.23	217.86
369.61	217.05
369.99	217.67
370.37	218.14
370.75	218.98
371.13	218.60
371.51	218.24
371.89	218.26
372.27	218.36
372.65	218.50
373.03	218.62
373.41	218.64
373.78	218.43
374.16	217.31
374.54	216.55
374.92	216.48
375.30	216.69
375.68	216.21
376.06	216.60
376.44	216.31
376.82	216.50
377.19	216.43
377.57	216.55
377.95	215.67
378.33	215.43
378.71	214.21
379.09	214.55
379.47	215.07
379.84	214.98
380.22	214.79
380.60	214.45
380.98	214.02
381.36	213.86
381.73	213.57
382.11	213.76
382.49	213.88
382.87	213.48
383.25	213.26
383.62	215.60
384.00	214.74
384.38	214.71
384.76	214.76
385.13	215.57
385.51	215.50
385.89	215.43
386.27	215.43
386.64	215.79
387.02	215.50
387.40	215.14
387.78	214.95
388.15	215.12
388.53	214.83
388.91	215.07
389.29	214.69
389.66	214.90
390.04	214.67
390.42	215.00
390.79	215.36
391.17	215.36
391.55	213.12
391.92	213.40
392.30	213.90
392.68	213.55
393.05	213.02
393.43	213.05
393.81	213.14
394.18	212.86
394.56	212.76
394.94	213.36
395.31	213.14
395.69	214.00
396.06	214.45
396.44	214.81
396.82	214.71
397.19	216.21
397.57	215.93
397.95	216.55
398.32	216.07
398.70	216.17
399.07	216.62
399.45	216.83
399.82	216.88
400.20	216.52
400.58	216.83
400.95	216.07
401.33	216.64
401.70	218.45
402.08	218.71
402.45	219.10
402.83	219.48
403.20	220.05
403.58	220.05
403.95	220.21
404.33	220.98
404.71	221.36
405.08	222.43
405.46	222.88
405.83	223.10
406.21	223.55
406.58	224.10
406.96	224.60
407.33	225.05
407.70	225.71
408.08	227.98
408.45	228.90
408.83	230.50
409.20	230.81
409.58	230.38
409.95	231.67
410.33	232.79
410.70	233.36
411.08	234.69
411.45	235.71
411.82	236.81
412.20	238.48
412.57	241.14
412.95	241.02
413.32	243.31
413.69	245.02
414.07	247.00
414.44	249.19
414.82	251.62
415.19	254.50
415.56	257.05
415.94	258.55
416.31	261.74
416.68	264.71
417.06	268.71
417.43	272.83
417.81	276.71
418.18	280.90
418.55	285.24
418.93	289.83
419.30	294.67
419.67	299.88
420.04	304.81
420.42	309.64
420.79	317.64
421.16	324.00
421.54	331.76
421.91	339.05
422.28	346.38
422.66	353.79
423.03	362.50
423.40	370.57
423.77	379.17
424.15	387.19
424.52	395.95
424.89	405.36
425.26	414.29
425.64	423.26
426.01	432.83
426.38	442.83
426.75	453.95
427.13	464.88
427.50	475.86
427.87	487.45
428.24	499.02
428.61	508.71
428.99	521.50
429.36	534.12
429.73	546.62
430.10	559.71
430.47	573.07
430.85	585.48
431.22	600.36
431.59	617.21
431.96	632.98
432.33	649.67
432.70	666.19
433.08	684.31
433.45	702.24
433.82	720.00
434.19	740.40
434.56	759.60
434.93	777.57
435.30	795.81
435.68	816.81
436.05	836.98
436.42	857.24
436.79	875.88
437.16	895.83
437.53	917.79
437.90	938.71
438.27	959.93
438.64	981.90
439.01	1002.31
439.38	1019.38
439.75	1036.48
440.13	1056.40
440.50	1074.74
440.87	1090.67
441.24	1106.79
441.61	1123.98
441.98	1136.93
442.35	1150.69
442.72	1166.17
443.09	1182.12
443.46	1191.12
443.83	1197.33
444.20	1202.74
444.57	1210.17
444.94	1213.93
445.31	1217.67
445.68	1223.50
446.05	1225.52
446.42	1223.83
446.79	1221.93
447.16	1218.98
447.53	1217.12
447.90	1209.24
448.27	1201.90
448.64	1191.19
449.01	1183.52
449.37	1170.43
449.74	1156.93
450.11	1144.02
450.48	1126.88
450.85	1108.79
451.22	1093.02
451.59	1079.38
451.96	1066.21
452.33	1048.17
452.70	1031.67
453.07	1011.12
453.43	988.71
453.80	968.76
454.17	949.81
454.54	931.43
454.91	912.38
455.28	893.98
455.65	876.43
456.02	861.76
456.38	846.86
456.75	828.64
457.12	813.24
457.49	798.17
457.86	781.81
458.23	770.00
458.59	756.07
458.96	742.67
459.33	729.67
459.70	717.12
460.07	706.88
460.43	695.12
460.80	685.43
461.17	676.83
461.54	667.52
461.91	658.36
462.27	649.19
462.64	641.12
463.01	632.43
463.38	624.69
463.74	613.29
464.11	606.00
464.48	599.26
464.85	591.71
465.21	586.74
465.58	580.76
465.95	573.07
466.32	567.36
466.68	561.26
467.05	555.67
467.42	549.60
467.78	543.62
468.15	538.60
468.52	534.07
468.88	527.64
469.25	521.83
469.62	518.14
469.98	513.36
470.35	509.48
470.72	504.79
471.08	499.81
471.45	496.40
471.82	493.05
472.18	488.88
472.55	485.93
472.92	481.40
473.28	478.05
473.65	474.57
474.02	471.36
474.38	468.69
474.75	466.50
475.11	464.24
475.48	461.83
475.85	459.43
476.21	457.12
476.58	455.76
476.94	454.88
477.31	453.19
477.67	452.05
478.04	450.67
478.41	450.07
478.77	451.17
479.14	450.10
479.50	449.60
479.87	449.29
480.23	449.36
480.60	449.24
480.96	449.10
481.33	450.31
481.69	450.40
482.06	450.50
482.42	450.67
482.79	451.26
483.15	452.12
483.52	453.81
483.88	454.48
484.25	455.50
484.61	456.24
484.98	457.36
485.34	459.19
485.71	461.50
486.07	463.33
486.44	463.52
486.80	465.33
487.17	466.98
487.53	469.81
487.90	472.43
488.26	475.88
488.62	478.93
488.99	481.21
489.35	484.52
489.72	488.57
490.08	492.38
490.44	495.19
490.81	499.17
491.17	502.62
491.54	507.21
491.90	511.79
492.26	516.10
492.63	520.62
492.99	524.95
493.36	529.45
493.72	534.71
494.08	539.93
494.45	545.81
494.81	552.26
495.17	557.93
495.54	563.93
495.90	569.88
496.26	576.24
496.63	582.69
496.99	589.95
497.35	596.81
497.72	603.48
498.08	611.19
498.44	618.29
498.80	626.02
499.17	633.93
499.53	641.33
499.89	650.07
500.26	658.12
500.62	666.26
500.98	675.17
501.34	684.33
501.71	693.90
502.07	702.67
502.43	711.36
502.79	720.24
503.16	729.81
503.52	738.52
503.88	747.57
504.24	757.29
504.60	767.00
504.97	776.86
505.33	787.00
505.69	797.48
506.05	807.43
506.41	817.52
506.78	826.57
507.14	836.48
507.50	846.79
507.86	857.48
508.22	867.55
508.59	877.17
508.95	887.74
509.31	898.62
509.67	908.67
510.03	918.71
510.39	929.40
510.75	939.88
511.12	950.57
511.48	961.45
511.84	972.45
512.20	982.19
512.56	992.36
512.92	1002.55
513.28	1012.86
513.64	1023.19
514.00	1033.24
514.37	1044.21
514.73	1055.62
515.09	1065.76
515.45	1075.64
515.81	1086.38
516.17	1096.24
516.53	1104.79
516.89	1113.07
517.25	1122.79
517.61	1132.62
517.97	1141.93
518.33	1150.76
518.69	1160.36
519.05	1169.64
519.41	1178.17
519.77	1188.79
520.13	1197.33
520.49	1206.19
520.85	1214.36
521.21	1224.76
521.57	1233.98
521.93	1242.40
522.29	1250.36
522.65	1258.52
523.01	1267.07
523.37	1274.69
523.73	1283.02
524.09	1291.76
524.45	1300.07
524.81	1307.95
525.17	1316.64
525.53	1324.43
525.89	1332.43
526.25	1340.36
526.61	1346.93
526.97	1353.98
527.33	1360.67
527.68	1370.43
528.04	1378.00
528.40	1385.21
528.76	1391.26
529.12	1398.40
529.48	1406.21
529.84	1413.95
530.20	1421.02
530.56	1428.33
530.91	1435.93
531.27	1442.98
531.63	1449.95
531.99	1456.79
532.35	1463.88
532.71	1469.62
533.07	1476.95
533.42	1486.29
533.78	1492.57
534.14	1500.36
534.50	1506.74
534.86	1513.60
535.21	1517.62
535.57	1524.64
535.93	1531.21
536.29	1538.60
536.65	1544.45
537.00	1549.81
537.36	1554.64
537.72	1560.10
538.08	1565.86
538.44	1571.43
538.79	1577.07
539.15	1581.86
539.51	1587.90
539.87	1592.98
540.22	1598.50
540.58	1604.07
540.94	1606.00
541.29	1611.60
541.65	1615.31
542.01	1621.60
542.37	1625.38
542.72	1629.45
543.08	1633.14
543.44	1638.69
543.79	1641.19
544.15	1645.45
544.51	1650.24
544.87	1655.31
545.22	1659.69
545.58	1663.26
545.94	1667.24
546.29	1671.67
546.65	1676.21
547.01	1679.10
547.36	1682.67
547.72	1685.83
548.07	1688.69
548.43	1692.98
548.79	1694.88
549.14	1698.55
549.50	1701.12
549.86	1704.12
550.21	1708.81
550.57	1711.76
550.92	1713.45
551.28	1717.07
551.64	1720.00
551.99	1722.38
552.35	1723.33
552.70	1726.43
553.06	1729.02
553.41	1730.95
553.77	1734.71
554.13	1737.55
554.48	1741.07
554.84	1745.10
555.19	1749.07
555.55	1753.74
555.90	1756.21
556.26	1759.67
556.61	1762.10
556.97	1765.19
557.32	1767.98
557.68	1769.71
558.03	1772.36
558.39	1774.57
558.74	1776.79
559.10	1778.86
559.45	1782.00
559.81	1785.43
560.16	1787.19
560.52	1789.98
560.87	1792.88
561.23	1793.98
561.58	1797.71
561.94	1800.38
562.29	1801.90
562.64	1804.00
563.00	1803.21
563.35	1805.43
563.71	1807.55
564.06	1810.19
564.42	1812.24
564.77	1814.57
565.12	1818.64
565.48	1823.83
565.83	1826.57
566.19	1829.62
566.54	1832.00
566.89	1833.90
567.25	1837.36
567.60	1841.93
567.96	1845.76
568.31	1848.71
568.66	1851.62
569.02	1852.31
569.37	1852.50
569.72	1854.57
570.08	1855.55
570.43	1857.76
570.78	1859.14
571.14	1860.95
571.49	1861.83
571.84	1862.79
572.20	1864.64
572.55	1864.52
572.90	1862.29
573.26	1863.24
573.61	1862.83
573.96	1863.57
574.31	1863.40
574.67	1862.38
575.02	1861.10
575.37	1859.07
575.72	1857.69
576.08	1856.43
576.43	1854.62
576.78	1854.67
577.13	1853.50
577.49	1852.07
577.84	1851.12
578.19	1850.14
578.54	1849.90
578.90	1849.93
579.25	1848.19
579.60	1845.29
579.95	1842.50
580.30	1840.43
580.66	1838.55
581.01	1837.10
581.36	1834.62
581.71	1832.21
582.06	1830.74
582.42	1827.95
582.77	1824.24
583.12	1821.64
583.47	1818.69
583.82	1816.43
584.17	1813.10
584.53	1811.02
584.88	1808.02
585.23	1805.21
585.58	1801.29
585.93	1796.21
586.28	1791.62
586.63	1788.29
586.98	1785.12
587.34	1782.17
587.69	1779.29
588.04	1775.17
588.39	1770.76
588.74	1766.24
589.09	1762.71
589.44	1757.05
589.79	1753.14
590.14	1750.88
590.49	1746.81
590.84	1742.83
591.19	1738.81
591.54	1735.45
591.89	1730.64
592.25	1728.90
592.60	1723.90
592.95	1720.48
593.30	1717.07
593.65	1712.40
594.00	1707.62
594.35	1709.05
594.70	1704.02
595.05	1698.76
595.40	1693.74
595.75	1689.40
596.10	1686.29
596.45	1682.17
596.80	1679.02
597.15	1674.90
597.50	1669.21
597.85	1665.33
598.19	1660.19
598.54	1654.69
598.89	1649.33
599.24	1645.17
599.59	1638.57
599.94	1633.86
600.29	1628.45
600.64	1623.14
600.99	1619.86
601.34	1615.81
601.69	1605.21
602.04	1600.88
602.39	1595.76
602.74	1592.45
603.08	1586.74
603.43	1582.21
603.78	1577.31
604.13	1572.24
604.48	1566.10
604.83	1560.76
605.18	1556.12
605.53	1551.17
605.87	1546.00
606.22	1540.43
606.57	1534.07
606.92	1529.05
607.27	1524.31
607.62	1519.60
607.96	1514.86
608.31	1509.14
608.66	1502.67
609.01	1496.69
609.36	1491.02
609.70	1486.26
610.05	1479.38
610.40	1473.98
610.75	1466.43
611.10	1460.10
611.44	1453.29
611.79	1447.64
612.14	1442.83
612.49	1434.98
612.83	1428.38
613.18	1422.93
613.53	1417.14
613.88	1410.17
614.22	1402.86
614.57	1396.24
614.92	1388.43
615.27	1381.88
615.61	1374.50
615.96	1368.52
616.31	1362.43
616.65	1356.81
617.00	1349.86
617.35	1343.19
617.70	1336.71
618.04	1330.79
618.39	1323.67
618.74	1317.93
619.08	1311.21
619.43	1304.19
619.78	1298.19
620.12	1292.40
620.47	1285.79
620.82	1279.50
621.16	1273.55
621.51	1268.24
621.85	1261.60
622.20	1255.36
622.55	1248.10
622.89	1241.81
623.24	1235.33
623.59	1228.76
623.93	1222.21
624.28	1216.17
624.62	1212.00
624.97	1207.48
625.32	1201.55
625.66	1196.52
626.01	1190.67
626.35	1184.57
626.70	1178.12
627.04	1172.40
627.39	1166.00
627.73	1160.95
628.08	1154.76
628.43	1149.10
628.77	1142.24
629.12	1137.00
629.46	1132.05
629.81	1126.88
630.15	1121.07
630.50	1115.38
630.84	1109.24
631.19	1102.24
631.53	1095.57
631.88	1087.33
632.22	1079.60
632.57	1073.40
632.91	1066.64
633.26	1060.64
633.60	1054.50
633.95	1048.52
634.29	1042.17
634.64	1036.10
634.98	1029.00
635.32	1023.79
635.67	1017.71
636.01	1012.14
636.36	1005.74
636.70	1000.19
637.05	993.90
637.39	987.93
637.73	982.02
638.08	976.45
638.42	971.12
638.77	966.10
639.11	960.48
639.45	954.98
639.80	948.83
640.14	943.12
640.49	936.50
640.83	930.26
641.17	924.57
641.52	919.26
641.86	914.17
642.20	909.45
642.55	903.12
642.89	897.40
643.23	891.60
643.58	886.17
643.92	879.38
644.26	873.52
644.61	868.36
644.95	862.21
645.29	856.74
645.64	851.45
645.98	845.74
646.32	840.71
646.66	834.64
647.01	828.79
647.35	823.50
647.69	817.83
648.04	812.98
648.38	806.98
648.72	801.17
649.06	794.79
649.41	788.83
649.75	783.17
650.09	777.86
650.43	771.40
650.78	765.69
651.12	760.12
651.46	754.60
651.80	748.81
652.14	743.60
652.49	738.71
652.83	732.88
653.17	727.40
653.51	722.62
653.85	717.83
654.20	713.12
654.54	707.40
654.88	702.14
655.22	697.55
655.56	692.79
655.90	687.48
656.25	682.98
656.59	678.36
656.93	673.40
657.27	669.07
657.61	664.83
657.95	659.93
658.29	655.10
658.64	650.62
658.98	645.71
659.32	641.00
659.66	635.81
660.00	631.76
660.34	627.40
660.68	622.02
661.02	617.81
661.36	613.31
661.70	608.83
662.05	604.67
662.39	600.29
662.73	597.17
663.07	594.55
663.41	590.24
663.75	585.14
664.09	580.83
664.43	576.45
664.77	572.38
665.11	568.24
665.45	564.86
665.79	561.50
666.13	557.62
666.47	553.83
666.81	550.21
667.15	545.64
667.49	542.17
667.83	539.69
668.17	536.10
668.51	532.81
668.85	529.60
669.19	527.14
669.53	523.36
669.87	519.19
670.21	514.88
670.55	511.60
670.89	509.67
671.23	506.57
671.57	503.24
671.91	500.14
672.25	497.50
672.58	495.21
672.92	491.48
673.26	488.55
673.60	485.88
673.94	483.38
674.28	480.69
674.62	478.10
674.96	474.36
675.30	471.57
675.64	468.50
675.97	465.93
676.31	462.83
676.65	459.86
676.99	457.88
677.33	454.62
677.67	452.05
678.01	448.88
678.34	446.67
678.68	444.52
679.02	442.07
679.36	439.21
679.70	435.83
680.04	433.74
680.37	431.52
680.71	429.17
681.05	426.48
681.39	424.36
681.73	421.38
682.06	418.74
682.40	415.81
682.74	413.62
683.08	411.81
683.42	408.90
683.75	407.00
684.09	404.00
684.43	402.14
684.77	399.64
685.10	397.26
685.44	394.93
685.78	392.24
686.12	390.12
686.45	388.12
686.79	386.05
687.13	384.12
687.46	381.93
687.80	380.02
688.14	377.95
688.48	375.81
688.81	374.24
689.15	373.29
689.49	371.64
689.82	369.69
690.16	367.10
690.50	365.29
690.83	362.95
691.17	360.93
691.51	358.98
691.84	357.62
692.18	355.67
692.52	354.12
692.85	352.90
693.19	352.02
693.52	350.29
693.86	348.38
694.20	346.55
694.53	344.95
694.87	343.05
695.21	341.31
695.54	340.07
695.88	338.21
696.21	335.67
696.55	334.36
696.88	333.17
697.22	331.76
697.56	330.67
697.89	329.17
698.23	328.05
698.56	326.79
698.90	325.38
699.23	323.86
699.57	322.60
699.90	321.00
700.24	319.12
700.58	317.71
700.91	317.14
701.25	317.38
701.58	316.57
701.92	315.71
702.25	314.60
702.59	312.98
702.92	311.90
703.26	311.02
703.59	309.88
703.93	310.64
704.26	309.60
704.60	308.45
704.93	307.36
705.26	306.24
705.60	305.71
705.93	304.38
706.27	304.07
706.60	303.21
706.94	303.02
707.27	301.74
707.61	301.00
707.94	299.74
708.27	297.40
708.61	295.98
708.94	295.02
709.28	293.95
709.61	292.81
709.94	292.12
710.28	291.26
710.61	290.19
710.95	287.14
711.28	287.71
711.61	286.79
711.95	286.33
712.28	285.33
712.61	284.24
712.95	284.55
713.28	284.43
713.61	283.26
713.95	281.88
714.28	281.38
714.61	280.36
714.95	279.52
715.28	278.50
715.61	277.57
715.95	276.69
716.28	275.79
716.61	275.81
716.95	274.81
717.28	274.12
717.61	273.71
717.94	272.86
718.28	270.60
718.61	269.74
718.94	268.67
719.27	267.81
719.61	267.14
719.94	265.79
720.27	264.05
720.60	263.26
720.94	262.31
721.27	261.69
721.60	261.45
721.93	260.81
722.27	260.86
722.60	260.76
722.93	260.14
723.26	259.88
723.59	258.88
723.93	258.71
724.26	258.31
724.59	257.40
724.92	257.05
725.25	257.07
725.59	256.71
725.92	256.60
726.25	256.40
726.58	255.88
726.91	255.12
727.24	255.17
727.57	254.81
727.91	254.19
728.24	253.90
728.57	253.33
728.90	253.12
729.23	252.17
729.56	252.55
729.89	252.21
730.22	251.50
730.55	251.07
730.89	250.48
731.22	250.00
731.55	249.69
731.88	249.38
732.21	248.62
732.54	247.98
732.87	247.83
733.20	247.55
733.53	247.38
733.86	247.60
734.19	246.74
734.52	246.67
734.85	247.95
735.18	247.26
735.51	247.62
735.84	247.31
736.17	247.50
736.50	246.14
736.83	248.10
737.16	247.95
737.49	247.98
737.82	247.67
738.15	247.57
738.48	247.24
738.81	246.90
739.14	246.62
739.47	246.45
739.80	245.81
740.13	245.81
740.46	245.02
740.79	244.24
741.12	243.93
741.45	243.60
741.78	242.05
742.11	242.33
742.44	241.50
742.77	241.40
743.10	240.90
743.43	240.52
743.75	238.14
744.08	240.45
744.41	240.02
744.74	239.55
745.07	238.81
745.40	239.00
745.73	239.71
746.06	239.57
746.39	239.60
746.71	239.24
747.04	238.52
747.37	238.40
747.70	238.69
748.03	238.50
748.36	238.33
748.68	238.21
749.01	237.50
749.34	237.17
749.67	237.10
750.00	236.88
750.33	238.00
750.65	237.86
750.98	235.17
751.31	234.83
751.64	234.93
751.97	235.93
752.29	235.55
752.62	234.17
752.95	233.98
753.28	233.69
753.60	233.64
753.93	234.33
754.26	234.29
754.59	233.36
754.91	233.00
755.24	232.40
755.57	231.93
755.90	231.79
756.22	231.48
756.55	230.95
756.88	230.55
757.20	229.26
757.53	228.50
757.86	228.57
758.19	228.57
758.51	228.29
758.84	226.86
759.17	226.62
759.49	226.86
759.82	227.60
760.15	227.50
760.47	227.05
760.80	226.02
761.13	226.40
761.45	226.40
761.78	226.36
762.11	226.43
762.43	226.38
762.76	226.02
763.08	226.21
763.41	226.43
763.74	226.19
764.06	226.17
764.39	226.24
764.71	225.76
765.04	225.48
765.37	224.90
765.69	224.86
766.02	224.60
766.34	224.29
766.67	223.33
767.00	223.43
767.32	224.62
767.65	225.74
767.97	225.21
768.30	224.98
768.62	224.81
768.95	224.52
769.27	224.38
769.60	224.52
769.92	224.14
770.25	223.38
770.57	223.29
770.90	222.79
771.22	222.52
771.55	222.67
771.87	222.88
772.20	222.98
772.52	224.71
772.85	227.14
773.17	227.24
773.50	226.88
773.82	226.62
774.15	225.43
774.47	224.12
774.80	223.88
775.12	223.81
775.45	223.93
775.77	224.17
776.09	224.26
776.42	224.50
776.74	224.79
777.07	224.67
777.39	224.64
777.72	224.57
778.04	224.79
778.36	224.24
778.69	223.93
779.01	223.93
779.33	222.00
779.66	219.57
779.98	219.14
780.31	219.33
780.63	220.12
780.95	220.29
781.28	220.29
781.60	220.14
781.92	220.21
782.25	220.00
782.57	219.81
782.89	219.26
783.22	218.74
783.54	218.43
783.86	218.57
784.19	218.38
784.51	219.00
784.83	218.55
785.16	218.64
785.48	218.48
785.80	218.43
