SpectraSuite Data File
++++++++++++++++++++++++++++++++++++
Date: Tue Apr 02 18:45:34 EDT 2013
User: group
Dark Spectrum Present: No
Reference Spectrum Present: No
Number of Sampled Component Spectra: 1
Spectrometers: USB2E7196
Integration Time (usec): 580000 (USB2E7196)
Spectra Averaged: 2 (USB2E7196)
Boxcar Smoothing: 10 (USB2E7196)
Correct for Electrical Dark: No (USB2E7196)
Strobe/Lamp Enabled: No (USB2E7196)
Correct for Detector Non-linearity: No (USB2E7196)
Correct for Stray Light: No (USB2E7196)
Number of Pixels in Processed Spectrum: 2048
>>>>>Begin Processed Spectral Data<<<<<
339.09	0.00
339.48	191.00
339.86	190.00
340.24	195.00
340.63	197.50
341.01	236.50
341.39	198.50
341.78	204.00
342.16	208.00
342.54	204.50
342.93	197.19
343.31	207.14
343.69	207.83
344.07	208.50
344.46	209.38
344.84	210.02
345.22	208.71
345.60	209.21
345.99	209.50
346.37	209.57
346.75	209.74
347.13	209.60
347.52	209.83
347.90	210.45
348.28	210.45
348.66	211.05
349.05	210.29
349.43	210.57
349.81	210.60
350.19	210.60
350.57	210.57
350.96	210.98
351.34	211.14
351.72	211.17
352.10	211.43
352.48	211.17
352.87	211.05
353.25	211.17
353.63	210.86
354.01	211.00
354.39	210.95
354.77	210.81
355.15	211.52
355.54	211.29
355.92	210.69
356.30	210.81
356.68	212.07
357.06	212.26
357.44	212.02
357.82	212.12
358.20	213.17
358.58	213.29
358.97	213.21
359.35	213.57
359.73	214.33
360.11	214.31
360.49	214.52
360.87	214.62
361.25	214.90
361.63	216.00
362.01	215.98
362.39	215.88
362.77	216.07
363.15	215.98
363.53	216.05
363.91	216.12
364.29	216.10
364.67	214.02
365.05	214.17
365.43	214.60
365.81	214.64
366.19	214.57
366.57	215.43
366.95	215.43
367.33	214.95
367.71	214.76
368.09	215.31
368.47	215.12
368.85	214.98
369.23	215.45
369.61	214.69
369.99	215.60
370.37	216.14
370.75	217.24
371.13	216.83
371.51	216.55
371.89	216.98
372.27	217.12
372.65	217.40
373.03	217.38
373.41	216.83
373.78	216.79
374.16	215.86
374.54	215.10
374.92	214.74
375.30	214.71
375.68	214.05
376.06	213.93
376.44	213.88
376.82	214.05
377.19	213.67
377.57	213.40
377.95	212.38
378.33	212.19
378.71	211.19
379.09	211.52
379.47	212.05
379.84	211.48
380.22	211.31
380.60	210.93
380.98	210.93
381.36	210.95
381.73	210.57
382.11	211.00
382.49	211.14
382.87	211.12
383.25	211.31
383.62	213.90
384.00	213.57
384.38	213.81
384.76	214.40
385.13	215.31
385.51	215.60
385.89	215.38
386.27	215.45
386.64	215.83
387.02	215.67
387.40	215.52
387.78	216.07
388.15	216.05
388.53	215.98
388.91	215.93
389.29	216.05
389.66	216.43
390.04	216.26
390.42	216.55
390.79	216.62
391.17	216.52
391.55	214.50
391.92	214.57
392.30	214.71
392.68	214.07
393.05	213.60
393.43	213.69
393.81	213.74
394.18	213.40
394.56	213.45
394.94	213.93
395.31	213.62
395.69	213.95
396.06	214.33
396.44	214.62
396.82	214.57
397.19	215.74
397.57	215.67
397.95	215.62
398.32	215.10
398.70	215.33
399.07	215.45
399.45	215.40
399.82	215.31
400.20	215.24
400.58	215.21
400.95	214.45
401.33	214.83
401.70	216.60
402.08	216.74
402.45	216.71
402.83	217.02
403.20	217.48
403.58	217.19
403.95	217.60
404.33	218.05
404.71	218.31
405.08	219.43
405.46	219.60
405.83	220.26
406.21	220.57
406.58	220.98
406.96	221.71
407.33	222.21
407.70	222.93
408.08	224.88
408.45	225.86
408.83	227.21
409.20	227.48
409.58	227.02
409.95	228.24
410.33	229.02
410.70	229.50
411.08	230.81
411.45	232.21
411.82	232.86
412.20	234.60
412.57	236.81
412.95	236.38
413.32	238.07
413.69	239.62
414.07	241.33
414.44	243.05
414.82	244.83
415.19	247.33
415.56	249.69
415.94	251.07
416.31	253.90
416.68	256.40
417.06	259.76
417.43	263.24
417.81	266.40
418.18	270.29
418.55	273.93
418.93	277.90
419.30	281.86
419.67	286.57
420.04	290.79
420.42	295.00
420.79	302.10
421.16	307.98
421.54	314.52
421.91	320.67
422.28	327.00
422.66	333.67
423.03	341.24
423.40	347.76
423.77	354.71
424.15	361.71
424.52	369.52
424.89	378.21
425.26	385.79
425.64	393.50
426.01	401.50
426.38	410.48
426.75	419.90
427.13	428.98
427.50	438.31
427.87	448.17
428.24	457.93
428.61	466.64
428.99	477.67
429.36	488.17
429.73	499.60
430.10	511.07
430.47	522.45
430.85	532.98
431.22	546.10
431.59	561.12
431.96	574.02
432.33	587.38
432.70	600.79
433.08	616.57
433.45	631.64
433.82	646.98
434.19	663.50
434.56	680.07
434.93	695.83
435.30	711.74
435.68	728.64
436.05	746.07
436.42	762.90
436.79	778.33
437.16	794.90
437.53	812.29
437.90	830.05
438.27	847.67
438.64	865.74
439.01	881.88
439.38	894.57
439.75	909.12
440.13	925.95
440.50	941.52
440.87	954.60
441.24	967.57
441.61	981.45
441.98	991.93
442.35	1004.38
442.72	1016.98
443.09	1030.26
443.46	1038.38
443.83	1043.64
444.20	1048.36
444.57	1053.95
444.94	1057.62
445.31	1061.48
445.68	1066.88
446.05	1068.24
446.42	1066.90
446.79	1065.79
447.16	1064.43
447.53	1063.05
447.90	1057.05
448.27	1050.83
448.64	1041.62
449.01	1035.62
449.37	1025.19
449.74	1014.60
450.11	1002.67
450.48	988.48
450.85	972.64
451.22	960.40
451.59	948.40
451.96	936.29
452.33	921.67
452.70	907.74
453.07	890.31
453.43	870.93
453.80	855.10
454.17	839.67
454.54	824.52
454.91	808.69
455.28	793.26
455.65	778.21
456.02	766.17
456.38	753.76
456.75	738.74
457.12	725.40
457.49	712.93
457.86	698.48
458.23	688.86
458.59	677.24
458.96	665.40
459.33	655.05
459.70	645.02
460.07	636.67
460.43	626.88
460.80	618.81
461.17	611.38
461.54	602.83
461.91	595.00
462.27	586.98
462.64	579.86
463.01	572.10
463.38	566.31
463.74	556.17
464.11	550.14
464.48	544.45
464.85	538.45
465.21	534.26
465.58	529.33
465.95	522.00
466.32	517.21
466.68	511.79
467.05	506.50
467.42	501.64
467.78	496.50
468.15	491.67
468.52	487.83
468.88	482.26
469.25	477.48
469.62	473.60
469.98	469.24
470.35	465.76
470.72	462.26
471.08	456.95
471.45	454.57
471.82	451.71
472.18	448.05
472.55	445.36
472.92	441.38
473.28	438.57
473.65	436.07
474.02	433.33
474.38	431.17
474.75	429.52
475.11	426.93
475.48	424.81
475.85	422.79
476.21	420.90
476.58	419.69
476.94	418.76
477.31	417.86
477.67	416.98
478.04	416.10
478.41	415.36
478.77	417.12
479.14	415.40
479.50	414.79
479.87	414.79
480.23	414.67
480.60	414.43
480.96	414.07
481.33	414.86
481.69	415.02
482.06	415.43
482.42	415.43
482.79	415.88
483.15	416.36
483.52	417.64
483.88	418.00
484.25	418.95
484.61	419.71
484.98	420.33
485.34	422.26
485.71	423.48
486.07	424.67
486.44	424.26
486.80	425.86
487.17	427.31
487.53	429.60
487.90	431.48
488.26	434.33
488.62	437.26
488.99	439.43
489.35	442.05
489.72	444.48
490.08	447.00
490.44	449.60
490.81	452.86
491.17	455.71
491.54	459.26
491.90	462.48
492.26	466.14
492.63	469.48
492.99	472.81
493.36	477.05
493.72	481.88
494.08	486.10
494.45	490.98
494.81	495.98
495.17	500.48
495.54	505.55
495.90	510.17
496.26	515.31
496.63	520.86
496.99	526.19
497.35	531.74
497.72	538.26
498.08	544.38
498.44	550.71
498.80	557.26
499.17	563.74
499.53	570.21
499.89	576.88
500.26	583.81
500.62	590.29
500.98	597.45
501.34	604.14
501.71	611.83
502.07	619.07
502.43	625.90
502.79	632.76
503.16	639.76
503.52	646.88
503.88	654.12
504.24	661.33
504.60	669.60
504.97	677.79
505.33	685.05
505.69	693.12
506.05	700.62
506.41	707.93
506.78	715.76
507.14	723.17
507.50	731.40
507.86	739.05
508.22	747.10
508.59	754.43
508.95	762.17
509.31	770.74
509.67	778.40
510.03	786.19
510.39	794.50
510.75	802.29
511.12	810.43
511.48	817.98
511.84	825.74
512.20	833.19
512.56	840.71
512.92	848.48
513.28	856.17
513.64	863.29
514.00	870.74
514.37	877.31
514.73	884.69
515.09	891.14
515.45	897.74
515.81	904.83
516.17	911.69
516.53	918.31
516.89	923.55
517.25	930.76
517.61	937.88
517.97	943.93
518.33	950.50
518.69	957.21
519.05	963.36
519.41	969.36
519.77	975.93
520.13	981.74
520.49	987.24
520.85	992.40
521.21	998.76
521.57	1004.36
521.93	1010.36
522.29	1015.52
522.65	1021.00
523.01	1027.17
523.37	1031.93
523.73	1037.00
524.09	1041.86
524.45	1047.21
524.81	1051.52
525.17	1055.26
525.53	1060.05
525.89	1064.74
526.25	1069.19
526.61	1073.21
526.97	1077.05
527.33	1080.86
527.68	1086.17
528.04	1090.67
528.40	1094.76
528.76	1098.76
529.12	1103.64
529.48	1108.14
529.84	1113.26
530.20	1117.88
530.56	1122.19
530.91	1127.26
531.27	1131.83
531.63	1136.33
531.99	1139.88
532.35	1143.21
532.71	1147.57
533.07	1151.60
533.42	1157.48
533.78	1161.14
534.14	1165.81
534.50	1170.17
534.86	1174.69
535.21	1176.79
535.57	1181.21
535.93	1185.00
536.29	1189.33
536.65	1192.50
537.00	1195.38
537.36	1198.57
537.72	1201.50
538.08	1205.21
538.44	1207.62
538.79	1210.90
539.15	1213.86
539.51	1217.31
539.87	1221.33
540.22	1224.74
540.58	1228.64
540.94	1230.02
541.29	1232.76
541.65	1234.64
542.01	1237.02
542.37	1239.31
542.72	1241.50
543.08	1242.40
543.44	1245.24
543.79	1246.50
544.15	1249.62
544.51	1253.21
544.87	1255.93
545.22	1258.98
545.58	1261.21
545.94	1263.48
546.29	1265.57
546.65	1268.45
547.01	1271.10
547.36	1273.64
547.72	1276.14
548.07	1278.31
548.43	1280.40
548.79	1282.29
549.14	1285.38
549.50	1288.93
549.86	1290.45
550.21	1293.48
550.57	1297.55
550.92	1299.07
551.28	1302.79
551.64	1305.33
551.99	1307.17
552.35	1309.43
552.70	1312.45
553.06	1315.17
553.41	1317.79
553.77	1321.81
554.13	1325.07
554.48	1329.55
554.84	1333.64
555.19	1337.90
555.55	1342.17
555.90	1346.40
556.26	1351.00
556.61	1354.95
556.97	1357.67
557.32	1362.07
557.68	1366.79
558.03	1370.33
558.39	1375.26
558.74	1378.76
559.10	1382.43
559.45	1387.12
559.81	1392.00
560.16	1395.83
560.52	1399.93
560.87	1405.69
561.23	1409.83
561.58	1414.98
561.94	1418.31
562.29	1421.45
562.64	1425.43
563.00	1429.10
563.35	1432.86
563.71	1436.93
564.06	1441.10
564.42	1446.33
564.77	1452.10
565.12	1457.19
565.48	1464.26
565.83	1470.07
566.19	1476.07
566.54	1480.81
566.89	1486.10
567.25	1492.02
567.60	1498.69
567.96	1507.07
568.31	1513.55
568.66	1519.60
569.02	1524.52
569.37	1530.29
569.72	1535.83
570.08	1540.83
570.43	1545.86
570.78	1552.43
571.14	1558.71
571.49	1564.79
571.84	1570.48
572.20	1575.29
572.55	1580.45
572.90	1583.60
573.26	1587.71
573.61	1591.95
573.96	1597.02
574.31	1601.62
574.67	1605.38
575.02	1607.98
575.37	1608.76
575.72	1611.38
576.08	1615.50
576.43	1618.45
576.78	1621.45
577.13	1625.29
577.49	1628.74
577.84	1633.24
578.19	1636.98
578.54	1641.10
578.90	1644.60
579.25	1648.55
579.60	1651.10
579.95	1653.90
580.30	1657.10
580.66	1661.57
581.01	1664.93
581.36	1669.40
581.71	1672.10
582.06	1676.07
582.42	1679.90
582.77	1684.21
583.12	1687.38
583.47	1689.07
583.82	1693.00
584.17	1696.86
584.53	1701.29
584.88	1705.55
585.23	1709.43
585.58	1711.79
585.93	1713.48
586.28	1717.76
586.63	1720.50
586.98	1724.14
587.34	1728.64
587.69	1731.55
588.04	1732.95
588.39	1735.52
588.74	1736.21
589.09	1739.43
589.44	1740.45
589.79	1742.98
590.14	1744.67
590.49	1746.21
590.84	1748.38
591.19	1750.43
591.54	1752.48
591.89	1753.24
592.25	1756.60
592.60	1756.76
592.95	1757.83
593.30	1760.86
593.65	1761.71
594.00	1762.33
594.35	1768.62
594.70	1768.31
595.05	1770.07
595.40	1772.19
595.75	1773.21
596.10	1775.17
596.45	1776.24
596.80	1778.33
597.15	1779.05
597.50	1778.95
597.85	1780.95
598.19	1781.26
598.54	1781.55
598.89	1782.43
599.24	1783.48
599.59	1782.05
599.94	1782.24
600.29	1782.14
600.64	1781.19
600.99	1780.67
601.34	1781.26
601.69	1776.79
602.04	1776.81
602.39	1775.93
602.74	1776.05
603.08	1774.88
603.43	1775.83
603.78	1775.29
604.13	1774.43
604.48	1774.10
604.83	1775.36
605.18	1775.55
605.53	1775.69
605.87	1774.79
606.22	1772.62
606.57	1771.29
606.92	1769.60
607.27	1768.36
607.62	1769.02
607.96	1768.69
608.31	1767.98
608.66	1766.71
609.01	1764.17
609.36	1762.29
609.70	1761.48
610.05	1758.93
610.40	1758.88
610.75	1756.40
611.10	1754.24
611.44	1752.10
611.79	1750.33
612.14	1747.26
612.49	1743.00
612.83	1740.52
613.18	1739.31
613.53	1737.50
613.88	1734.52
614.22	1731.52
614.57	1727.93
614.92	1723.79
615.27	1719.74
615.61	1715.74
615.96	1712.33
616.31	1709.81
616.65	1708.12
617.00	1704.50
617.35	1701.83
617.70	1698.05
618.04	1693.95
618.39	1691.24
618.74	1687.19
619.08	1682.81
619.43	1679.67
619.78	1676.83
620.12	1673.74
620.47	1669.02
620.82	1664.38
621.16	1660.12
621.51	1658.71
621.85	1655.43
622.20	1652.17
622.55	1647.76
622.89	1645.05
623.24	1642.45
623.59	1638.29
623.93	1633.43
624.28	1628.31
624.62	1626.12
624.97	1622.76
625.32	1619.05
625.66	1615.19
626.01	1611.48
626.35	1607.95
626.70	1604.14
627.04	1600.90
627.39	1596.17
627.73	1593.40
628.08	1591.36
628.43	1588.38
628.77	1583.12
629.12	1580.43
629.46	1576.67
629.81	1573.50
630.15	1568.60
630.50	1562.98
630.84	1558.98
631.19	1554.69
631.53	1551.40
631.88	1544.14
632.22	1538.31
632.57	1534.26
632.91	1528.40
633.26	1524.38
633.60	1519.12
633.95	1513.81
634.29	1508.21
634.64	1504.45
634.98	1499.02
635.32	1494.24
635.67	1490.29
636.01	1485.21
636.36	1479.29
636.70	1475.07
637.05	1469.83
637.39	1465.52
637.73	1461.19
638.08	1456.95
638.42	1452.86
638.77	1447.95
639.11	1444.02
639.45	1439.21
639.80	1433.62
640.14	1428.81
640.49	1424.07
640.83	1419.45
641.17	1414.98
641.52	1410.24
641.86	1404.60
642.20	1400.45
642.55	1395.02
642.89	1388.71
643.23	1383.05
643.58	1379.43
643.92	1372.90
644.26	1368.12
644.61	1362.60
644.95	1357.45
645.29	1350.79
645.64	1345.45
645.98	1340.48
646.32	1335.43
646.66	1330.31
647.01	1325.17
647.35	1320.55
647.69	1314.52
648.04	1309.12
648.38	1303.60
648.72	1297.86
649.06	1292.02
649.41	1285.74
649.75	1278.21
650.09	1272.45
650.43	1265.79
650.78	1259.17
651.12	1253.21
651.46	1246.50
651.80	1240.45
652.14	1233.93
652.49	1228.62
652.83	1221.93
653.17	1215.38
653.51	1209.21
653.85	1203.19
654.20	1196.24
654.54	1188.50
654.88	1181.88
655.22	1175.98
655.56	1169.33
655.90	1163.07
656.25	1157.07
656.59	1150.29
656.93	1144.90
657.27	1139.67
657.61	1134.83
657.95	1129.14
658.29	1122.90
658.64	1117.81
658.98	1111.55
659.32	1105.10
659.66	1099.00
660.00	1092.93
660.34	1087.00
660.68	1080.95
661.02	1074.55
661.36	1069.21
661.70	1064.07
662.05	1058.10
662.39	1052.76
662.73	1047.90
663.07	1043.19
663.41	1037.62
663.75	1031.98
664.09	1026.17
664.43	1019.48
664.77	1013.83
665.11	1007.19
665.45	1001.88
665.79	996.00
666.13	989.88
666.47	984.29
666.81	978.57
667.15	973.12
667.49	968.07
667.83	962.60
668.17	956.88
668.51	951.10
668.85	945.69
669.19	940.90
669.53	934.50
669.87	927.74
670.21	921.50
670.55	915.36
670.89	910.57
671.23	905.55
671.57	900.43
671.91	894.26
672.25	888.95
672.58	884.21
672.92	878.12
673.26	873.00
673.60	868.05
673.94	862.62
674.28	857.36
674.62	851.98
674.96	846.52
675.30	841.52
675.64	836.79
675.97	832.07
676.31	826.93
676.65	821.62
676.99	817.74
677.33	812.71
677.67	808.36
678.01	802.26
678.34	797.19
678.68	793.43
679.02	788.12
679.36	782.86
679.70	777.05
680.04	772.52
680.37	767.74
680.71	762.60
681.05	758.12
681.39	753.10
681.73	748.10
682.06	743.50
682.40	739.52
682.74	734.95
683.08	730.29
683.42	725.10
683.75	720.50
684.09	715.17
684.43	710.17
684.77	704.64
685.10	700.45
685.44	695.62
685.78	689.81
686.12	685.52
686.45	681.02
686.79	676.33
687.13	672.55
687.46	667.93
687.80	664.00
688.14	659.33
688.48	655.31
688.81	651.19
689.15	646.64
689.49	641.55
689.82	637.26
690.16	632.21
690.50	627.48
690.83	622.74
691.17	618.14
691.51	614.00
691.84	610.69
692.18	606.21
692.52	602.21
692.85	598.33
693.19	595.62
693.52	591.48
693.86	587.21
694.20	582.62
694.53	578.79
694.87	574.10
695.21	570.17
695.54	566.00
695.88	561.07
696.21	556.55
696.55	552.62
696.88	548.31
697.22	544.67
697.56	541.86
697.89	538.57
698.23	535.19
698.56	530.93
698.90	526.79
699.23	523.14
699.57	519.55
699.90	515.81
700.24	511.24
700.58	508.19
700.91	505.19
701.25	503.69
701.58	500.57
701.92	498.36
702.25	494.88
702.59	491.21
702.92	488.02
703.26	485.29
703.59	482.26
703.93	480.86
704.26	478.07
704.60	475.07
704.93	471.86
705.26	468.69
705.60	466.43
705.93	463.17
706.27	460.60
706.60	458.29
706.94	456.14
707.27	453.05
707.61	450.12
707.94	447.33
708.27	442.74
708.61	439.71
708.94	436.52
709.28	433.88
709.61	431.17
709.94	429.36
710.28	426.95
710.61	424.29
710.95	420.00
711.28	419.05
711.61	416.17
711.95	414.14
712.28	411.50
712.61	408.93
712.95	407.74
713.28	406.07
713.61	403.02
713.95	400.14
714.28	398.17
714.61	395.90
714.95	393.26
715.28	390.76
715.61	388.40
715.95	385.95
716.28	383.55
716.61	381.64
716.95	379.02
717.28	376.57
717.61	374.60
717.94	372.55
718.28	368.95
718.61	366.69
718.94	364.52
719.27	362.52
719.61	360.67
719.94	358.24
720.27	355.67
720.60	353.86
720.94	351.93
721.27	350.21
721.60	348.48
721.93	347.02
722.27	346.21
722.60	344.90
722.93	343.17
723.26	341.88
723.59	340.48
723.93	339.26
724.26	337.93
724.59	336.26
724.92	334.88
725.25	333.74
725.59	332.67
725.92	331.24
726.25	330.07
726.58	329.05
726.91	327.60
727.24	326.81
727.57	325.74
727.91	324.21
728.24	323.38
728.57	321.83
728.90	320.86
729.23	318.79
729.56	318.26
729.89	317.43
730.22	316.00
730.55	314.55
730.89	313.36
731.22	311.98
731.55	310.83
731.88	309.74
732.21	308.33
732.54	307.10
732.87	306.29
733.20	305.33
733.53	303.95
733.86	303.07
734.19	301.36
734.52	300.21
734.85	300.50
735.18	298.93
735.51	298.48
735.84	297.62
736.17	297.26
736.50	295.43
736.83	296.62
737.16	296.10
737.49	295.33
737.82	294.19
738.15	293.83
738.48	292.93
738.81	291.67
739.14	290.62
739.47	289.40
739.80	288.21
740.13	287.19
740.46	286.10
740.79	284.83
741.12	284.07
741.45	283.02
741.78	281.21
742.11	281.05
742.44	279.98
742.77	279.26
743.10	278.17
743.43	277.43
743.75	274.62
744.08	276.43
744.41	275.64
744.74	274.86
745.07	273.52
745.40	273.14
745.73	273.55
746.06	273.14
746.39	272.98
746.71	272.12
747.04	271.43
747.37	270.90
747.70	270.83
748.03	270.17
748.36	269.81
748.68	269.14
749.01	267.74
749.34	267.29
749.67	266.74
750.00	266.55
750.33	267.48
750.65	266.88
750.98	263.74
751.31	263.38
751.64	262.90
751.97	263.60
752.29	262.90
752.62	261.50
752.95	260.74
753.28	259.83
753.60	259.38
753.93	259.50
754.26	258.95
754.59	257.64
754.91	257.00
755.24	256.55
755.57	255.62
755.90	255.33
756.22	254.45
756.55	253.57
756.88	252.81
757.20	250.67
757.53	249.62
757.86	248.93
758.19	248.38
758.51	248.05
758.84	246.40
759.17	245.76
759.49	245.36
759.82	245.98
760.15	245.76
760.47	245.43
760.80	244.10
761.13	244.12
761.45	243.79
761.78	243.26
762.11	242.60
762.43	242.38
762.76	242.12
763.08	242.17
763.41	242.05
763.74	241.55
764.06	241.26
764.39	241.29
764.71	240.83
765.04	240.14
765.37	239.57
765.69	239.40
766.02	239.45
766.34	239.14
766.67	237.88
767.00	238.00
767.32	238.71
767.65	239.71
767.97	239.12
768.30	238.88
768.62	238.71
768.95	238.57
769.27	238.38
769.60	238.17
769.92	237.38
770.25	236.88
770.57	236.17
770.90	236.10
771.22	235.50
771.55	235.33
771.87	235.43
772.20	235.19
772.52	236.50
772.85	238.50
773.17	238.31
773.50	238.02
773.82	237.43
774.15	236.29
774.47	234.71
774.80	234.38
775.12	234.36
775.45	234.19
775.77	233.90
776.09	233.95
776.42	233.67
776.74	234.26
777.07	233.95
777.39	234.02
777.72	233.36
778.04	233.48
778.36	233.10
778.69	232.74
779.01	232.55
779.33	230.71
779.66	228.05
779.98	227.79
780.31	227.62
780.63	228.36
780.95	228.48
781.28	228.57
781.60	228.17
781.92	228.00
782.25	227.60
782.57	227.48
782.89	226.98
783.22	226.88
783.54	226.21
783.86	226.26
784.19	225.98
784.51	226.95
784.83	226.57
