SpectraSuite Data File
++++++++++++++++++++++++++++++++++++
Date: Tue Apr 02 18:45:09 EDT 2013
User: group
Dark Spectrum Present: No
Reference Spectrum Present: No
Number of Sampled Component Spectra: 1
Spectrometers: USB2E7196
Integration Time (usec): 580000 (USB2E7196)
Spectra Averaged: 2 (USB2E7196)
Boxcar Smoothing: 10 (USB2E7196)
Correct for Electrical Dark: No (USB2E7196)
Strobe/Lamp Enabled: No (USB2E7196)
Correct for Detector Non-linearity: No (USB2E7196)
Correct for Stray Light: No (USB2E7196)
Number of Pixels in Processed Spectrum: 2048
>>>>>Begin Processed Spectral Data<<<<<
339.09	0.00
339.48	191.50
339.86	194.50
340.24	194.50
340.63	196.50
341.01	232.50
341.39	202.00
341.78	205.00
342.16	210.50
342.54	206.50
342.93	197.07
343.31	206.83
343.69	207.36
344.07	208.02
344.46	208.74
344.84	209.10
345.22	207.98
345.60	208.40
345.99	208.69
346.37	208.57
346.75	208.57
347.13	208.43
347.52	208.52
347.90	209.31
348.28	209.10
348.66	209.57
349.05	208.64
349.43	209.05
349.81	209.38
350.19	209.60
350.57	209.60
350.96	210.00
351.34	210.31
351.72	210.50
352.10	210.38
352.48	210.26
352.87	210.40
353.25	210.29
353.63	210.10
354.01	209.83
354.39	210.00
354.77	209.98
355.15	210.67
355.54	210.52
355.92	209.69
356.30	209.95
356.68	211.24
357.06	211.52
357.44	211.14
357.82	210.81
358.20	211.74
358.58	211.95
358.97	212.02
359.35	212.60
359.73	213.10
360.11	213.17
360.49	213.43
360.87	213.48
361.25	213.83
361.63	214.67
362.01	215.07
362.39	214.88
362.77	215.02
363.15	215.10
363.53	215.19
363.91	215.43
364.29	215.48
364.67	213.69
365.05	213.76
365.43	214.14
365.81	214.55
366.19	214.79
366.57	215.60
366.95	215.55
367.33	214.95
367.71	214.90
368.09	215.57
368.47	215.43
368.85	215.67
369.23	216.45
369.61	215.62
369.99	216.29
370.37	216.64
370.75	217.71
371.13	217.21
371.51	217.02
371.89	217.45
372.27	217.29
372.65	217.33
373.03	217.48
373.41	217.40
373.78	217.24
374.16	216.24
374.54	215.29
374.92	215.07
375.30	215.24
375.68	214.81
376.06	214.86
376.44	215.10
376.82	215.26
377.19	214.60
377.57	214.81
377.95	214.12
378.33	214.02
378.71	212.90
379.09	213.21
379.47	213.50
379.84	213.02
380.22	213.17
380.60	213.26
380.98	213.07
381.36	213.05
381.73	213.05
382.11	213.57
382.49	213.93
382.87	213.88
383.25	213.60
383.62	216.10
384.00	215.48
384.38	215.48
384.76	215.76
385.13	216.74
385.51	216.71
385.89	216.60
386.27	216.69
386.64	216.98
387.02	216.79
387.40	216.71
387.78	217.07
388.15	217.07
388.53	216.93
388.91	217.00
389.29	216.71
389.66	216.67
390.04	216.21
390.42	216.40
390.79	216.38
391.17	216.26
391.55	214.05
391.92	214.14
392.30	214.40
392.68	213.88
393.05	213.64
393.43	213.67
393.81	213.57
394.18	213.31
394.56	213.24
394.94	213.69
395.31	213.64
395.69	214.19
396.06	214.43
396.44	214.40
396.82	214.19
397.19	215.45
397.57	215.64
397.95	216.00
398.32	215.55
398.70	215.71
399.07	216.60
399.45	216.48
399.82	216.31
400.20	215.95
400.58	215.95
400.95	214.98
401.33	215.48
401.70	217.12
402.08	216.98
402.45	217.12
402.83	217.74
403.20	217.83
403.58	217.26
403.95	217.64
404.33	218.21
404.71	218.48
405.08	219.43
405.46	219.57
405.83	219.90
406.21	220.26
406.58	220.76
406.96	220.64
407.33	221.31
407.70	222.29
408.08	224.45
408.45	225.38
408.83	226.74
409.20	227.14
409.58	226.62
409.95	228.07
410.33	228.95
410.70	229.19
411.08	230.43
411.45	231.71
411.82	232.74
412.20	234.33
412.57	236.90
412.95	236.26
413.32	237.98
413.69	239.38
414.07	241.07
414.44	242.93
414.82	244.98
415.19	247.38
415.56	249.55
415.94	250.55
416.31	253.17
416.68	255.79
417.06	259.02
417.43	262.67
417.81	266.07
418.18	269.81
418.55	273.21
418.93	276.90
419.30	281.02
419.67	285.38
420.04	289.48
420.42	293.50
420.79	300.86
421.16	306.24
421.54	313.31
421.91	319.26
422.28	325.52
422.66	332.48
423.03	340.12
423.40	346.98
423.77	354.21
424.15	361.19
424.52	369.10
424.89	377.19
425.26	384.67
425.64	392.07
426.01	400.48
426.38	409.71
426.75	419.43
427.13	428.88
427.50	438.12
427.87	448.14
428.24	458.17
428.61	466.40
428.99	477.71
429.36	487.83
429.73	498.83
430.10	509.83
430.47	520.98
430.85	531.62
431.22	543.88
431.59	558.76
431.96	571.98
432.33	585.76
432.70	600.00
433.08	616.05
433.45	631.33
433.82	646.64
434.19	663.62
434.56	680.48
434.93	696.07
435.30	711.69
435.68	729.05
436.05	746.02
436.42	763.29
436.79	779.26
437.16	796.31
437.53	814.64
437.90	832.67
438.27	850.17
438.64	867.93
439.01	885.33
439.38	899.40
439.75	913.81
440.13	930.36
440.50	945.40
440.87	958.19
441.24	971.38
441.61	985.74
441.98	996.17
442.35	1007.83
442.72	1020.79
443.09	1034.33
443.46	1042.19
443.83	1048.05
444.20	1052.90
444.57	1058.93
444.94	1062.60
445.31	1065.93
445.68	1071.36
446.05	1073.33
446.42	1072.38
446.79	1071.05
447.16	1068.24
447.53	1067.40
447.90	1060.76
448.27	1054.24
448.64	1045.24
449.01	1039.19
449.37	1028.02
449.74	1017.31
450.11	1006.50
450.48	991.88
450.85	976.05
451.22	963.45
451.59	951.00
451.96	939.26
452.33	923.31
452.70	908.95
453.07	891.64
453.43	872.45
453.80	856.10
454.17	840.17
454.54	824.67
454.91	809.02
455.28	793.05
455.65	778.64
456.02	767.64
456.38	755.24
456.75	739.83
457.12	726.57
457.49	713.69
457.86	699.26
458.23	689.19
458.59	677.83
458.96	665.79
459.33	655.07
459.70	644.67
460.07	636.48
460.43	626.52
460.80	618.14
461.17	610.52
461.54	602.26
461.91	594.48
462.27	586.26
462.64	579.07
463.01	571.33
463.38	564.81
463.74	554.05
464.11	547.43
464.48	541.83
464.85	535.83
465.21	531.62
465.58	526.36
465.95	519.90
466.32	514.90
466.68	509.50
467.05	504.76
467.42	499.52
467.78	494.36
468.15	489.52
468.52	485.88
468.88	480.45
469.25	475.48
469.62	472.38
469.98	468.64
470.35	465.31
470.72	461.95
471.08	457.43
471.45	454.81
471.82	452.40
472.18	448.76
472.55	446.05
472.92	442.10
473.28	439.17
473.65	436.02
474.02	433.02
474.38	431.45
474.75	429.29
475.11	427.19
475.48	425.40
475.85	423.98
476.21	422.31
476.58	421.14
476.94	420.57
477.31	418.76
477.67	417.60
478.04	416.45
478.41	415.57
478.77	417.14
479.14	415.95
479.50	415.21
479.87	414.88
480.23	414.69
480.60	414.62
480.96	414.69
481.33	415.86
481.69	416.02
482.06	416.02
482.42	416.74
482.79	417.19
483.15	418.00
483.52	419.10
483.88	419.36
484.25	419.86
484.61	420.40
484.98	421.43
485.34	423.19
485.71	424.74
486.07	426.31
486.44	425.48
486.80	427.36
487.17	428.69
487.53	430.76
487.90	432.74
488.26	435.71
488.62	438.64
488.99	440.38
489.35	443.26
489.72	445.62
490.08	448.12
490.44	450.64
490.81	453.67
491.17	456.43
491.54	460.05
491.90	464.12
492.26	467.48
492.63	471.26
492.99	474.48
493.36	478.62
493.72	482.88
494.08	487.64
494.45	492.14
494.81	497.50
495.17	502.05
495.54	507.31
495.90	511.93
496.26	516.26
496.63	521.55
496.99	527.14
497.35	533.29
497.72	538.95
498.08	544.67
498.44	550.74
498.80	556.93
499.17	562.90
499.53	568.79
499.89	575.83
500.26	582.10
500.62	588.93
500.98	595.57
501.34	602.88
501.71	610.76
502.07	617.86
502.43	624.38
502.79	631.43
503.16	638.29
503.52	645.81
503.88	653.00
504.24	660.95
504.60	667.93
504.97	675.67
505.33	683.52
505.69	692.48
506.05	699.76
506.41	707.43
506.78	715.05
507.14	722.93
507.50	730.10
507.86	738.24
508.22	746.19
508.59	753.81
508.95	761.69
509.31	769.29
509.67	777.50
510.03	785.29
510.39	793.26
510.75	801.26
511.12	808.10
511.48	816.26
511.84	823.24
512.20	831.21
512.56	838.86
512.92	846.43
513.28	853.74
513.64	861.62
514.00	869.40
514.37	876.88
514.73	883.79
515.09	891.76
515.45	898.33
515.81	904.48
516.17	911.48
516.53	917.81
516.89	923.60
517.25	929.50
517.61	936.52
517.97	942.83
518.33	948.76
518.69	955.57
519.05	961.95
519.41	968.60
519.77	976.36
520.13	981.57
520.49	986.95
520.85	992.48
521.21	998.48
521.57	1004.12
521.93	1008.95
522.29	1014.76
522.65	1019.10
523.01	1024.86
523.37	1030.14
523.73	1034.93
524.09	1039.17
524.45	1043.95
524.81	1048.62
525.17	1053.52
525.53	1057.90
525.89	1062.38
526.25	1067.62
526.61	1071.48
526.97	1075.36
527.33	1078.50
527.68	1084.88
528.04	1089.33
528.40	1093.40
528.76	1097.36
529.12	1101.24
529.48	1107.36
529.84	1111.55
530.20	1116.26
530.56	1120.69
530.91	1125.38
531.27	1130.07
531.63	1135.17
531.99	1139.14
532.35	1143.00
532.71	1146.19
533.07	1150.88
533.42	1157.67
533.78	1161.14
534.14	1165.07
534.50	1168.88
534.86	1173.14
535.21	1175.12
535.57	1180.21
535.93	1183.60
536.29	1187.86
536.65	1192.19
537.00	1193.88
537.36	1197.64
537.72	1200.81
538.08	1204.40
538.44	1207.14
538.79	1210.62
539.15	1213.00
539.51	1216.81
539.87	1220.50
540.22	1223.62
540.58	1226.90
540.94	1227.69
541.29	1230.90
541.65	1233.69
542.01	1237.86
542.37	1240.38
542.72	1242.74
543.08	1243.93
543.44	1247.14
543.79	1248.76
544.15	1251.45
544.51	1255.95
544.87	1258.64
545.22	1261.57
545.58	1263.57
545.94	1266.86
546.29	1269.55
546.65	1272.43
547.01	1274.52
547.36	1277.62
547.72	1279.79
548.07	1282.14
548.43	1284.67
548.79	1286.55
549.14	1288.98
549.50	1291.12
549.86	1292.60
550.21	1295.36
550.57	1298.50
550.92	1300.76
551.28	1304.14
551.64	1306.76
551.99	1308.57
552.35	1311.14
552.70	1313.83
553.06	1317.64
553.41	1320.90
553.77	1325.38
554.13	1328.74
554.48	1332.86
554.84	1336.57
555.19	1341.12
555.55	1346.38
555.90	1349.95
556.26	1354.74
556.61	1359.12
556.97	1362.24
557.32	1366.14
557.68	1370.43
558.03	1374.55
558.39	1378.43
558.74	1382.12
559.10	1386.05
559.45	1390.21
559.81	1393.83
560.16	1398.07
560.52	1402.26
560.87	1406.67
561.23	1409.36
561.58	1415.50
561.94	1418.98
562.29	1423.71
562.64	1428.43
563.00	1431.40
563.35	1436.02
563.71	1439.38
564.06	1444.00
564.42	1449.71
564.77	1455.45
565.12	1461.19
565.48	1469.17
565.83	1475.33
566.19	1480.50
566.54	1485.86
566.89	1491.62
567.25	1498.67
567.60	1505.93
567.96	1513.07
568.31	1519.93
568.66	1526.55
569.02	1530.52
569.37	1537.14
569.72	1541.83
570.08	1546.64
570.43	1552.86
570.78	1559.17
571.14	1565.10
571.49	1570.21
571.84	1576.40
572.20	1582.02
572.55	1587.19
572.90	1589.02
573.26	1592.98
573.61	1597.29
573.96	1601.38
574.31	1606.05
574.67	1609.48
575.02	1612.02
575.37	1614.55
575.72	1617.71
576.08	1622.36
576.43	1626.83
576.78	1630.40
577.13	1634.17
577.49	1638.26
577.84	1642.31
578.19	1645.38
578.54	1649.17
578.90	1653.86
579.25	1656.57
579.60	1659.36
579.95	1662.17
580.30	1665.57
580.66	1670.10
581.01	1674.31
581.36	1677.36
581.71	1680.83
582.06	1685.55
582.42	1689.45
582.77	1692.14
583.12	1694.95
583.47	1697.45
583.82	1701.02
584.17	1704.31
584.53	1708.14
584.88	1711.62
585.23	1715.52
585.58	1718.36
585.93	1721.52
586.28	1722.98
586.63	1725.76
586.98	1729.29
587.34	1732.57
587.69	1735.79
588.04	1738.21
588.39	1740.60
588.74	1742.38
589.09	1744.48
589.44	1745.02
589.79	1747.24
590.14	1749.93
590.49	1751.26
590.84	1752.81
591.19	1754.76
591.54	1756.12
591.89	1756.60
592.25	1760.19
592.60	1759.62
592.95	1761.36
593.30	1762.90
593.65	1765.10
594.00	1765.55
594.35	1772.19
594.70	1772.76
595.05	1774.26
595.40	1774.69
595.75	1775.88
596.10	1777.90
596.45	1778.81
596.80	1780.43
597.15	1781.52
597.50	1781.26
597.85	1783.12
598.19	1782.55
598.54	1782.36
598.89	1782.50
599.24	1784.00
599.59	1782.79
599.94	1783.26
600.29	1783.38
600.64	1783.33
600.99	1783.60
601.34	1784.71
601.69	1778.31
602.04	1778.02
602.39	1776.05
602.74	1775.52
603.08	1774.76
603.43	1775.33
603.78	1774.40
604.13	1773.07
604.48	1771.62
604.83	1772.90
605.18	1771.79
605.53	1772.31
605.87	1771.50
606.22	1770.95
606.57	1768.60
606.92	1766.57
607.27	1766.00
607.62	1764.55
607.96	1764.05
608.31	1762.95
608.66	1761.10
609.01	1759.67
609.36	1758.62
609.70	1758.19
610.05	1755.86
610.40	1754.48
610.75	1752.07
611.10	1750.98
611.44	1748.69
611.79	1746.55
612.14	1742.93
612.49	1739.95
612.83	1736.64
613.18	1733.45
613.53	1730.29
613.88	1728.02
614.22	1725.14
614.57	1720.90
614.92	1718.07
615.27	1714.43
615.61	1710.69
615.96	1707.00
616.31	1704.71
616.65	1702.33
617.00	1699.64
617.35	1697.93
617.70	1694.69
618.04	1691.19
618.39	1687.40
618.74	1684.83
619.08	1681.48
619.43	1678.62
619.78	1675.07
620.12	1672.17
620.47	1669.24
620.82	1665.93
621.16	1663.00
621.51	1660.36
621.85	1657.10
622.20	1653.55
622.55	1649.17
622.89	1646.12
623.24	1643.62
623.59	1639.60
623.93	1635.21
624.28	1630.83
624.62	1629.12
624.97	1626.10
625.32	1621.86
625.66	1617.71
626.01	1612.98
626.35	1609.79
626.70	1605.67
627.04	1602.86
627.39	1598.38
627.73	1595.38
628.08	1591.86
628.43	1586.76
628.77	1581.43
629.12	1578.00
629.46	1574.74
629.81	1570.86
630.15	1566.12
630.50	1560.93
630.84	1556.67
631.19	1552.48
631.53	1547.64
631.88	1539.55
632.22	1533.12
632.57	1529.62
632.91	1524.50
633.26	1521.14
633.60	1515.81
633.95	1510.67
634.29	1505.29
634.64	1501.07
634.98	1496.02
635.32	1492.00
635.67	1488.90
636.01	1484.95
636.36	1479.38
636.70	1475.86
637.05	1471.19
637.39	1467.02
637.73	1462.10
638.08	1457.55
638.42	1452.69
638.77	1448.93
639.11	1445.90
639.45	1442.36
639.80	1436.36
640.14	1432.48
640.49	1427.07
640.83	1422.40
641.17	1418.45
641.52	1413.55
641.86	1408.48
642.20	1403.71
642.55	1397.60
642.89	1391.43
643.23	1386.55
643.58	1382.57
643.92	1375.36
644.26	1370.26
644.61	1364.74
644.95	1359.12
645.29	1352.95
645.64	1347.14
645.98	1340.93
646.32	1335.57
646.66	1329.45
647.01	1323.26
647.35	1317.02
647.69	1311.74
648.04	1306.07
648.38	1299.40
648.72	1294.33
649.06	1288.31
649.41	1282.24
649.75	1276.45
650.09	1270.74
650.43	1264.19
650.78	1257.55
651.12	1251.17
651.46	1244.60
651.80	1237.83
652.14	1232.40
652.49	1227.14
652.83	1220.71
653.17	1213.83
653.51	1206.19
653.85	1200.57
654.20	1195.26
654.54	1188.88
654.88	1181.19
655.22	1175.64
655.56	1169.52
655.90	1162.71
656.25	1156.50
656.59	1149.52
656.93	1144.05
657.27	1138.17
657.61	1132.14
657.95	1126.48
658.29	1120.31
658.64	1114.98
658.98	1108.33
659.32	1101.33
659.66	1094.36
660.00	1088.29
660.34	1082.55
660.68	1076.45
661.02	1069.33
661.36	1063.05
661.70	1056.81
662.05	1051.57
662.39	1045.00
662.73	1039.74
663.07	1034.24
663.41	1027.93
663.75	1022.02
664.09	1015.81
664.43	1009.36
664.77	1003.60
665.11	996.90
665.45	991.40
665.79	985.38
666.13	980.40
666.47	974.69
666.81	969.19
667.15	963.64
667.49	958.62
667.83	954.38
668.17	948.95
668.51	943.00
668.85	938.31
669.19	933.74
669.53	927.81
669.87	921.81
670.21	915.69
670.55	910.21
670.89	905.64
671.23	900.07
671.57	894.83
671.91	889.67
672.25	884.55
672.58	879.83
672.92	874.02
673.26	868.45
673.60	863.33
673.94	858.00
674.28	852.71
674.62	847.40
674.96	841.69
675.30	836.69
675.64	831.86
675.97	826.83
676.31	820.98
676.65	816.07
676.99	811.10
677.33	806.07
677.67	801.76
678.01	795.67
678.34	790.36
678.68	785.64
679.02	779.48
679.36	774.74
679.70	769.43
680.04	764.95
680.37	759.76
680.71	755.57
681.05	750.83
681.39	745.98
681.73	741.12
682.06	736.10
682.40	731.48
682.74	726.95
683.08	722.14
683.42	717.12
683.75	711.79
684.09	707.00
684.43	702.29
684.77	696.64
685.10	691.98
685.44	687.05
685.78	682.21
686.12	678.36
686.45	673.24
686.79	668.33
687.13	664.02
687.46	659.81
687.80	655.00
688.14	650.62
688.48	646.43
688.81	641.81
689.15	638.17
689.49	633.67
689.82	629.12
690.16	623.79
690.50	619.38
690.83	615.33
691.17	610.45
691.51	605.95
691.84	602.48
692.18	598.50
692.52	594.79
692.85	590.81
693.19	588.00
693.52	584.00
693.86	579.36
694.20	574.95
694.53	570.95
694.87	567.02
695.21	563.00
695.54	559.02
695.88	554.90
696.21	549.43
696.55	545.45
696.88	541.52
697.22	538.26
697.56	535.26
697.89	531.29
698.23	528.02
698.56	524.12
698.90	520.79
699.23	516.71
699.57	513.14
699.90	509.64
700.24	505.12
700.58	501.79
700.91	499.19
701.25	497.40
701.58	495.07
701.92	492.14
702.25	488.79
702.59	484.64
702.92	481.31
703.26	478.86
703.59	475.62
703.93	474.50
704.26	471.62
704.60	468.38
704.93	465.40
705.26	462.40
705.60	460.14
705.93	456.48
706.27	454.52
706.60	451.60
706.94	449.19
707.27	446.02
707.61	443.38
707.94	440.12
708.27	435.45
708.61	431.90
708.94	429.07
709.28	426.64
709.61	424.43
709.94	422.31
710.28	419.74
710.61	417.14
710.95	412.93
711.28	412.02
711.61	409.71
711.95	407.93
712.28	405.43
712.61	403.19
712.95	402.24
713.28	400.81
713.61	398.60
713.95	396.05
714.28	393.90
714.61	391.45
714.95	389.24
715.28	387.05
715.61	384.76
715.95	382.60
716.28	380.21
716.61	378.62
716.95	376.38
717.28	374.29
717.61	372.64
717.94	370.67
718.28	366.76
718.61	364.45
718.94	362.48
719.27	360.33
719.61	358.55
719.94	355.76
720.27	352.67
720.60	350.83
720.94	348.79
721.27	347.48
721.60	346.26
721.93	344.69
722.27	344.10
722.60	342.50
722.93	340.67
723.26	339.33
723.59	337.64
723.93	336.19
724.26	335.00
724.59	333.19
724.92	332.26
725.25	331.60
725.59	330.24
725.92	328.95
726.25	327.95
726.58	326.48
726.91	325.19
727.24	324.55
727.57	323.07
727.91	321.69
728.24	320.62
728.57	319.14
728.90	318.40
729.23	316.38
729.56	316.45
729.89	315.43
730.22	313.95
730.55	312.64
730.89	311.71
731.22	310.26
731.55	309.29
731.88	307.79
732.21	306.33
732.54	305.00
732.87	304.00
733.20	302.98
733.53	302.05
733.86	301.40
734.19	299.69
734.52	299.12
734.85	299.55
735.18	298.05
735.51	297.60
735.84	296.62
736.17	296.60
736.50	294.57
736.83	296.12
737.16	295.55
737.49	294.79
737.82	293.76
738.15	293.12
738.48	292.33
738.81	291.29
739.14	290.45
739.47	289.57
739.80	288.45
740.13	287.86
740.46	286.52
740.79	285.24
741.12	284.43
741.45	283.29
741.78	281.17
742.11	280.95
742.44	279.81
742.77	279.40
743.10	278.21
743.43	277.31
743.75	274.33
744.08	276.12
744.41	275.07
744.74	273.98
745.07	272.88
745.40	272.45
745.73	272.81
746.06	272.02
746.39	271.86
746.71	270.88
747.04	269.67
747.37	269.07
747.70	268.86
748.03	268.12
748.36	267.67
748.68	267.29
749.01	265.90
749.34	265.33
749.67	264.45
750.00	263.98
750.33	264.93
750.65	264.60
750.98	261.38
751.31	261.31
751.64	261.24
751.97	261.98
752.29	261.14
752.62	259.38
752.95	258.55
753.28	257.64
753.60	257.50
753.93	257.67
754.26	257.26
754.59	255.98
754.91	255.48
755.24	254.86
755.57	254.10
755.90	253.62
756.22	252.95
756.55	252.62
756.88	251.76
757.20	249.90
757.53	248.71
757.86	248.14
758.19	247.50
758.51	247.02
758.84	245.45
759.17	244.98
759.49	244.71
759.82	245.29
760.15	245.10
760.47	244.60
760.80	243.67
761.13	243.57
761.45	243.33
761.78	242.95
762.11	242.55
762.43	242.29
762.76	242.07
763.08	242.02
763.41	241.36
763.74	240.95
764.06	240.64
764.39	240.38
764.71	240.19
765.04	239.71
765.37	238.86
765.69	238.45
766.02	237.93
766.34	237.55
766.67	236.64
767.00	236.69
767.32	237.48
767.65	238.38
767.97	237.74
768.30	237.76
768.62	237.38
768.95	237.02
769.27	236.71
769.60	236.79
769.92	236.26
770.25	235.64
770.57	235.19
770.90	234.74
771.22	234.24
771.55	234.12
771.87	234.00
772.20	234.02
772.52	235.83
772.85	238.19
773.17	238.07
773.50	237.67
773.82	236.93
774.15	235.79
774.47	234.07
774.80	233.88
775.12	233.48
775.45	233.38
775.77	233.31
776.09	233.24
776.42	232.86
776.74	233.29
777.07	232.98
777.39	232.88
777.72	232.81
778.04	233.00
778.36	232.31
778.69	232.21
779.01	232.19
779.33	229.93
779.66	227.48
779.98	227.21
780.31	226.88
780.63	227.64
780.95	227.74
781.28	227.64
781.60	227.26
781.92	226.76
782.25	226.48
782.57	226.24
782.89	226.00
783.22	225.79
783.54	225.02
783.86	225.17
784.19	224.95
784.51	225.19
784.83	224.71
785.16	224.74
