SpectraSuite Data File
++++++++++++++++++++++++++++++++++++
Date: Tue Apr 02 18:42:04 EDT 2013
User: group
Dark Spectrum Present: No
Reference Spectrum Present: No
Number of Sampled Component Spectra: 1
Spectrometers: USB2E7196
Integration Time (usec): 580000 (USB2E7196)
Spectra Averaged: 2 (USB2E7196)
Boxcar Smoothing: 10 (USB2E7196)
Correct for Electrical Dark: No (USB2E7196)
Strobe/Lamp Enabled: No (USB2E7196)
Correct for Detector Non-linearity: No (USB2E7196)
Correct for Stray Light: No (USB2E7196)
Number of Pixels in Processed Spectrum: 2048
>>>>>Begin Processed Spectral Data<<<<<
339.09	0.00
339.48	192.00
339.86	194.00
340.24	196.00
340.63	198.00
341.01	235.50
341.39	204.00
341.78	207.50
342.16	216.00
342.54	207.00
342.93	198.62
343.31	208.50
343.69	208.93
344.07	209.57
344.46	210.40
344.84	210.98
345.22	209.60
345.60	209.98
345.99	210.36
346.37	209.95
346.75	210.12
347.13	210.07
347.52	210.31
347.90	211.24
348.28	211.38
348.66	211.86
349.05	211.38
349.43	211.64
349.81	211.86
350.19	211.64
350.57	211.76
350.96	212.07
351.34	212.12
351.72	212.48
352.10	212.55
352.48	212.31
352.87	212.21
353.25	212.24
353.63	212.26
354.01	211.79
354.39	212.05
354.77	212.07
355.15	212.57
355.54	212.26
355.92	211.38
356.30	211.55
356.68	212.86
357.06	213.10
357.44	212.67
357.82	212.36
358.20	213.62
358.58	213.67
358.97	213.57
359.35	213.90
359.73	214.33
360.11	214.45
360.49	214.81
360.87	214.95
361.25	215.55
361.63	216.02
362.01	216.40
362.39	216.02
362.77	216.33
363.15	216.12
363.53	216.26
363.91	216.45
364.29	216.33
364.67	214.21
365.05	214.00
365.43	214.40
365.81	214.62
366.19	214.62
366.57	215.26
366.95	215.12
367.33	214.83
367.71	214.67
368.09	215.17
368.47	215.05
368.85	214.95
369.23	215.12
369.61	214.43
369.99	214.98
370.37	215.71
370.75	216.43
371.13	216.12
371.51	215.74
371.89	216.12
372.27	216.21
372.65	216.50
373.03	216.81
373.41	216.79
373.78	216.81
374.16	215.64
374.54	214.93
374.92	214.95
375.30	214.88
375.68	214.57
376.06	214.48
376.44	214.19
376.82	214.31
377.19	214.02
377.57	214.19
377.95	213.48
378.33	213.19
378.71	212.14
379.09	212.43
379.47	212.90
379.84	212.71
380.22	212.55
380.60	212.31
380.98	212.07
381.36	212.07
381.73	211.55
382.11	212.29
382.49	212.71
382.87	212.26
383.25	212.26
383.62	214.69
384.00	214.10
384.38	214.48
384.76	214.93
385.13	216.00
385.51	215.88
385.89	215.98
386.27	216.02
386.64	216.36
387.02	216.05
387.40	215.81
387.78	216.05
388.15	216.12
388.53	216.21
388.91	216.38
389.29	216.26
389.66	217.05
390.04	216.57
390.42	216.83
390.79	217.12
391.17	217.33
391.55	215.00
391.92	215.29
392.30	215.19
392.68	214.74
393.05	214.36
393.43	214.50
393.81	214.50
394.18	214.21
394.56	214.05
394.94	214.60
395.31	214.33
395.69	214.74
396.06	215.24
396.44	215.43
396.82	215.36
397.19	216.36
397.57	215.90
397.95	216.33
398.32	215.62
398.70	215.81
399.07	216.07
399.45	216.17
399.82	216.14
400.20	216.26
400.58	216.40
400.95	215.52
401.33	215.86
401.70	217.31
402.08	217.40
402.45	217.52
402.83	218.12
403.20	218.67
403.58	218.45
403.95	218.60
404.33	218.88
404.71	219.00
405.08	220.31
405.46	220.79
405.83	221.02
406.21	221.38
406.58	222.02
406.96	222.55
407.33	223.02
407.70	223.69
408.08	225.67
408.45	226.52
408.83	227.81
409.20	228.14
409.58	227.60
409.95	228.74
410.33	229.60
410.70	229.83
411.08	230.98
411.45	232.31
411.82	233.26
412.20	234.74
412.57	237.31
412.95	236.79
413.32	238.40
413.69	240.00
414.07	241.67
414.44	243.38
414.82	245.19
415.19	247.88
415.56	249.90
415.94	251.19
416.31	253.79
416.68	256.52
417.06	260.12
417.43	263.69
417.81	267.10
418.18	271.02
418.55	274.81
418.93	278.52
419.30	282.55
419.67	287.21
420.04	291.60
420.42	295.76
420.79	303.07
421.16	308.95
421.54	316.07
421.91	322.45
422.28	328.62
422.66	335.64
423.03	343.57
423.40	350.62
423.77	357.93
424.15	365.24
424.52	372.67
424.89	381.33
425.26	389.43
425.64	397.24
426.01	405.74
426.38	414.95
426.75	425.19
427.13	434.57
427.50	444.24
427.87	454.52
428.24	464.83
428.61	473.31
428.99	484.64
429.36	495.43
429.73	506.71
430.10	517.98
430.47	529.83
430.85	540.64
431.22	553.57
431.59	568.55
431.96	582.10
432.33	596.67
432.70	610.67
433.08	626.55
433.45	642.17
433.82	657.48
434.19	674.40
434.56	690.86
434.93	707.26
435.30	723.02
435.68	740.62
436.05	758.31
436.42	775.60
436.79	791.74
437.16	808.43
437.53	826.64
437.90	845.05
438.27	862.71
438.64	880.83
439.01	898.33
439.38	912.62
439.75	927.31
440.13	944.26
440.50	959.95
440.87	973.62
441.24	987.55
441.61	1002.10
441.98	1013.07
442.35	1025.24
442.72	1038.00
443.09	1051.88
443.46	1059.19
443.83	1064.48
444.20	1069.10
444.57	1074.74
444.94	1078.93
445.31	1082.64
445.68	1088.17
446.05	1089.83
446.42	1088.93
446.79	1087.79
447.16	1085.31
447.53	1084.38
447.90	1078.40
448.27	1071.55
448.64	1062.29
449.01	1055.83
449.37	1045.43
449.74	1034.00
450.11	1022.45
450.48	1007.10
450.85	990.79
451.22	978.81
451.59	966.69
451.96	954.95
452.33	939.52
452.70	924.48
453.07	906.98
453.43	887.14
453.80	870.88
454.17	854.64
454.54	838.64
454.91	822.76
455.28	806.48
455.65	790.67
456.02	779.38
456.38	766.79
456.75	750.62
457.12	736.76
457.49	724.17
457.86	709.76
458.23	700.00
458.59	688.40
458.96	676.33
459.33	664.93
459.70	654.67
460.07	646.21
460.43	636.74
460.80	628.26
461.17	621.19
461.54	612.52
461.91	604.33
462.27	595.76
462.64	588.21
463.01	579.81
463.38	573.12
463.74	562.10
464.11	555.14
464.48	549.74
464.85	543.14
465.21	538.74
465.58	533.95
465.95	526.86
466.32	521.95
466.68	516.05
467.05	510.86
467.42	505.17
467.78	499.31
468.15	493.95
468.52	490.33
468.88	484.62
469.25	479.62
469.62	476.19
469.98	472.45
470.35	468.86
470.72	465.71
471.08	461.33
471.45	458.62
471.82	456.14
472.18	452.45
472.55	449.86
472.92	445.86
473.28	442.50
473.65	439.95
474.02	437.29
474.38	435.79
474.75	433.93
475.11	431.64
475.48	430.19
475.85	428.74
476.21	426.12
476.58	424.81
476.94	423.57
477.31	421.95
477.67	420.76
478.04	419.74
478.41	419.05
478.77	420.40
479.14	419.14
479.50	418.17
479.87	417.95
480.23	417.81
480.60	417.79
480.96	417.74
481.33	418.62
481.69	418.67
482.06	418.64
482.42	419.36
482.79	420.19
483.15	420.71
483.52	421.81
483.88	422.07
484.25	422.50
484.61	423.26
484.98	424.19
485.34	426.12
485.71	427.31
486.07	428.50
486.44	427.90
486.80	429.74
487.17	431.02
487.53	433.02
487.90	434.71
488.26	437.76
488.62	440.52
488.99	442.48
489.35	445.00
489.72	447.86
490.08	450.14
490.44	452.79
490.81	455.86
491.17	458.26
491.54	462.00
491.90	466.05
492.26	469.98
492.63	473.48
492.99	476.95
493.36	481.14
493.72	485.60
494.08	490.29
494.45	494.93
494.81	500.02
495.17	504.67
495.54	510.52
495.90	515.29
496.26	520.69
496.63	526.00
496.99	531.33
497.35	537.02
497.72	543.45
498.08	548.86
498.44	555.36
498.80	562.57
499.17	568.86
499.53	574.60
499.89	581.24
500.26	588.36
500.62	595.33
500.98	602.57
501.34	609.81
501.71	617.21
502.07	624.19
502.43	631.10
502.79	637.90
503.16	644.62
503.52	652.07
503.88	658.64
504.24	665.95
504.60	673.50
504.97	681.50
505.33	688.64
505.69	697.79
506.05	704.95
506.41	712.33
506.78	719.98
507.14	727.67
507.50	735.48
507.86	743.55
508.22	751.02
508.59	758.29
508.95	766.24
509.31	775.40
509.67	783.62
510.03	791.50
510.39	799.55
510.75	807.48
511.12	814.71
511.48	823.12
511.84	831.07
512.20	839.14
512.56	846.07
512.92	854.57
513.28	861.86
513.64	869.14
514.00	876.98
514.37	884.83
514.73	892.98
515.09	900.50
515.45	907.12
515.81	914.43
516.17	921.79
516.53	927.69
516.89	933.21
517.25	939.76
517.61	947.43
517.97	953.52
518.33	960.67
518.69	967.90
519.05	974.31
519.41	981.50
519.77	988.38
520.13	994.95
520.49	999.98
520.85	1005.12
521.21	1012.24
521.57	1018.00
521.93	1022.95
522.29	1028.21
522.65	1033.71
523.01	1039.88
523.37	1044.81
523.73	1050.67
524.09	1056.24
524.45	1061.36
524.81	1066.24
525.17	1071.17
525.53	1077.14
525.89	1081.33
526.25	1085.21
526.61	1089.19
526.97	1093.07
527.33	1097.05
527.68	1103.26
528.04	1108.48
528.40	1113.64
528.76	1116.71
529.12	1120.31
529.48	1125.88
529.84	1129.69
530.20	1134.17
530.56	1138.69
530.91	1143.48
531.27	1147.07
531.63	1152.00
531.99	1155.64
532.35	1159.52
532.71	1163.10
533.07	1167.02
533.42	1173.31
533.78	1178.55
534.14	1183.38
534.50	1187.33
534.86	1192.00
535.21	1194.10
535.57	1198.29
535.93	1201.57
536.29	1207.55
536.65	1212.33
537.00	1215.71
537.36	1220.10
537.72	1223.76
538.08	1227.38
538.44	1229.98
538.79	1233.67
539.15	1236.21
539.51	1240.57
539.87	1244.76
540.22	1249.10
540.58	1252.90
540.94	1254.19
541.29	1256.88
541.65	1259.55
542.01	1263.60
542.37	1266.07
542.72	1268.52
543.08	1270.74
543.44	1274.21
543.79	1275.50
544.15	1278.33
544.51	1282.36
544.87	1285.45
545.22	1288.21
545.58	1291.07
545.94	1295.14
546.29	1297.62
546.65	1301.57
547.01	1303.74
547.36	1307.07
547.72	1309.29
548.07	1312.24
548.43	1314.50
548.79	1317.83
549.14	1320.90
549.50	1323.21
549.86	1325.43
550.21	1329.43
550.57	1333.02
550.92	1335.07
551.28	1338.45
551.64	1341.52
551.99	1343.86
552.35	1346.90
552.70	1349.26
553.06	1352.43
553.41	1355.38
553.77	1360.38
554.13	1364.14
554.48	1368.36
554.84	1371.76
555.19	1375.38
555.55	1380.00
555.90	1383.88
556.26	1387.62
556.61	1391.19
556.97	1394.64
557.32	1398.98
557.68	1402.19
558.03	1406.07
558.39	1410.86
558.74	1415.29
559.10	1418.98
559.45	1423.67
559.81	1428.62
560.16	1432.74
560.52	1437.26
560.87	1442.12
561.23	1445.26
561.58	1450.86
561.94	1455.43
562.29	1460.38
562.64	1465.40
563.00	1469.12
563.35	1474.26
563.71	1479.05
564.06	1484.88
564.42	1490.24
564.77	1496.62
565.12	1503.64
565.48	1511.60
565.83	1518.24
566.19	1523.79
566.54	1529.88
566.89	1535.17
567.25	1540.74
567.60	1548.31
567.96	1555.50
568.31	1561.71
568.66	1568.67
569.02	1572.38
569.37	1578.14
569.72	1584.21
570.08	1588.76
570.43	1593.38
570.78	1599.67
571.14	1605.52
571.49	1610.36
571.84	1616.12
572.20	1620.24
572.55	1624.40
572.90	1626.79
573.26	1630.33
573.61	1634.60
573.96	1639.00
574.31	1643.12
574.67	1647.14
575.02	1650.26
575.37	1652.19
575.72	1655.12
576.08	1658.50
576.43	1663.00
576.78	1665.88
577.13	1668.79
577.49	1673.21
577.84	1678.79
578.19	1682.40
578.54	1686.07
578.90	1690.21
579.25	1692.76
579.60	1695.81
579.95	1697.64
580.30	1700.43
580.66	1704.86
581.01	1708.52
581.36	1711.02
581.71	1713.76
582.06	1717.88
582.42	1722.45
582.77	1725.93
583.12	1728.52
583.47	1731.60
583.82	1734.05
584.17	1737.55
584.53	1740.12
584.88	1742.14
585.23	1744.05
585.58	1744.98
585.93	1745.90
586.28	1748.05
586.63	1751.50
586.98	1753.93
587.34	1757.76
587.69	1759.33
588.04	1760.45
588.39	1761.79
588.74	1762.52
589.09	1765.38
589.44	1765.10
589.79	1765.24
590.14	1767.05
590.49	1769.12
590.84	1769.43
591.19	1770.83
591.54	1771.76
591.89	1772.64
592.25	1775.93
592.60	1776.14
592.95	1778.05
593.30	1779.76
593.65	1780.12
594.00	1779.31
594.35	1785.74
594.70	1784.33
595.05	1785.50
595.40	1786.10
595.75	1786.90
596.10	1789.67
596.45	1789.02
596.80	1789.93
597.15	1790.31
597.50	1789.90
597.85	1790.36
598.19	1790.69
598.54	1789.88
598.89	1789.62
599.24	1789.52
599.59	1787.83
599.94	1787.02
600.29	1786.86
600.64	1786.12
600.99	1786.14
601.34	1786.60
601.69	1780.64
602.04	1780.55
602.39	1779.64
602.74	1779.10
603.08	1777.07
603.43	1775.93
603.78	1776.07
604.13	1775.38
604.48	1774.00
604.83	1773.60
605.18	1772.60
605.53	1772.55
605.87	1770.38
606.22	1768.74
606.57	1767.43
606.92	1764.86
607.27	1764.62
607.62	1763.10
607.96	1762.00
608.31	1760.86
608.66	1758.71
609.01	1757.14
609.36	1755.95
609.70	1753.83
610.05	1751.38
610.40	1749.93
610.75	1746.81
611.10	1744.07
611.44	1741.40
611.79	1738.86
612.14	1735.43
612.49	1731.31
612.83	1726.95
613.18	1725.00
613.53	1722.50
613.88	1718.21
614.22	1715.50
614.57	1711.33
614.92	1707.93
615.27	1703.83
615.61	1698.86
615.96	1695.07
616.31	1691.07
616.65	1687.69
617.00	1683.93
617.35	1680.10
617.70	1675.90
618.04	1671.33
618.39	1666.93
618.74	1662.50
619.08	1658.00
619.43	1653.76
619.78	1649.79
620.12	1645.83
620.47	1641.76
620.82	1636.07
621.16	1632.00
621.51	1628.36
621.85	1623.60
622.20	1618.31
622.55	1613.14
622.89	1608.64
623.24	1604.02
623.59	1598.88
623.93	1593.48
624.28	1589.81
624.62	1587.64
624.97	1584.71
625.32	1580.50
625.66	1576.60
626.01	1572.19
626.35	1568.36
626.70	1563.74
627.04	1560.64
627.39	1556.10
627.73	1552.36
628.08	1549.36
628.43	1545.95
628.77	1541.12
629.12	1536.81
629.46	1532.57
629.81	1527.81
630.15	1523.52
630.50	1518.64
630.84	1513.50
631.19	1508.67
631.53	1503.29
631.88	1494.67
632.22	1487.38
632.57	1482.98
632.91	1476.29
633.26	1471.55
633.60	1466.29
633.95	1460.88
634.29	1454.43
634.64	1449.10
634.98	1442.93
635.32	1437.52
635.67	1432.64
636.01	1427.95
636.36	1422.76
636.70	1419.02
637.05	1414.76
637.39	1410.05
637.73	1405.88
638.08	1402.14
638.42	1397.12
638.77	1391.79
639.11	1387.69
639.45	1383.31
639.80	1377.10
640.14	1372.21
640.49	1366.76
640.83	1360.74
641.17	1355.71
641.52	1349.93
641.86	1345.38
642.20	1340.90
642.55	1333.95
642.89	1327.52
643.23	1320.88
643.58	1315.67
643.92	1307.88
644.26	1301.02
644.61	1294.95
644.95	1288.48
645.29	1281.36
645.64	1275.74
645.98	1269.95
646.32	1264.50
646.66	1257.71
647.01	1251.62
647.35	1245.79
647.69	1239.52
648.04	1233.86
648.38	1227.88
648.72	1222.31
649.06	1215.40
649.41	1208.19
649.75	1202.74
650.09	1195.81
650.43	1188.98
650.78	1181.40
651.12	1175.60
651.46	1169.05
651.80	1161.88
652.14	1155.00
652.49	1148.98
652.83	1141.98
653.17	1134.52
653.51	1126.81
653.85	1121.00
654.20	1114.95
654.54	1107.45
654.88	1099.93
655.22	1093.76
655.56	1086.21
655.90	1078.88
656.25	1071.79
656.59	1065.76
656.93	1059.33
657.27	1054.40
657.61	1047.62
657.95	1041.55
658.29	1034.88
658.64	1029.74
658.98	1023.48
659.32	1017.24
659.66	1010.88
660.00	1004.71
660.34	998.43
660.68	992.17
661.02	985.21
661.36	978.40
661.70	972.74
662.05	967.60
662.39	962.02
662.73	957.29
663.07	952.88
663.41	947.43
663.75	940.83
664.09	934.69
664.43	927.74
664.77	922.45
665.11	916.43
665.45	910.81
665.79	905.07
666.13	898.83
666.47	892.81
666.81	887.00
667.15	881.38
667.49	876.62
667.83	872.14
668.17	866.71
668.51	861.69
668.85	856.86
669.19	851.76
669.53	844.64
669.87	838.86
670.21	831.98
670.55	826.57
670.89	821.76
671.23	816.05
671.57	810.55
671.91	805.64
672.25	800.50
672.58	795.83
672.92	790.14
673.26	785.05
673.60	780.07
673.94	774.62
674.28	770.24
674.62	765.69
674.96	759.98
675.30	755.38
675.64	750.38
675.97	745.17
676.31	739.67
676.65	735.14
676.99	731.19
677.33	726.88
677.67	722.05
678.01	717.21
678.34	713.26
678.68	709.36
679.02	704.31
679.36	699.71
679.70	694.14
680.04	689.14
680.37	684.76
680.71	680.33
681.05	676.21
681.39	671.31
681.73	666.10
682.06	662.31
682.40	657.86
682.74	653.74
683.08	650.14
683.42	645.71
683.75	642.14
684.09	636.33
684.43	632.10
684.77	627.33
685.10	623.26
685.44	618.95
685.78	614.10
686.12	609.76
686.45	604.83
686.79	600.45
687.13	596.74
687.46	592.88
687.80	589.10
688.14	584.86
688.48	581.02
688.81	576.81
689.15	572.90
689.49	568.86
689.82	564.60
690.16	559.50
690.50	555.69
690.83	551.26
691.17	546.67
691.51	542.83
691.84	539.64
692.18	535.60
692.52	531.43
692.85	527.90
693.19	525.31
693.52	521.98
693.86	518.55
694.20	514.79
694.53	510.95
694.87	506.88
695.21	502.81
695.54	498.86
695.88	495.76
696.21	491.38
696.55	488.14
696.88	484.60
697.22	480.95
697.56	477.98
697.89	474.36
698.23	472.31
698.56	469.05
698.90	465.98
699.23	462.10
699.57	459.14
699.90	455.81
700.24	451.69
700.58	449.12
700.91	446.38
701.25	445.00
701.58	443.17
701.92	441.12
702.25	438.64
702.59	435.64
702.92	432.74
703.26	430.05
703.59	427.31
703.93	426.24
704.26	424.12
704.60	421.07
704.93	418.62
705.26	415.67
705.60	413.36
705.93	409.93
706.27	408.36
706.60	406.36
706.94	404.76
707.27	402.31
707.61	399.62
707.94	397.14
708.27	393.52
708.61	390.31
708.94	387.69
709.28	385.88
709.61	383.74
709.94	381.31
710.28	379.62
710.61	377.69
710.95	374.17
711.28	373.43
711.61	371.50
711.95	369.88
712.28	367.86
712.61	365.57
712.95	364.98
713.28	364.07
713.61	361.98
713.95	359.50
714.28	357.95
714.61	356.64
714.95	354.81
715.28	352.86
715.61	351.05
715.95	349.26
716.28	347.43
716.61	346.07
716.95	344.14
717.28	342.07
717.61	340.14
717.94	338.40
718.28	335.52
718.61	333.95
718.94	332.10
719.27	330.60
719.61	329.17
719.94	327.31
720.27	324.38
720.60	322.57
720.94	321.31
721.27	319.86
721.60	318.64
721.93	317.29
722.27	316.81
722.60	315.93
722.93	314.71
723.26	313.45
723.59	312.07
723.93	311.33
724.26	310.21
724.59	308.69
724.92	307.86
725.25	307.19
725.59	306.10
725.92	305.21
726.25	304.21
726.58	303.29
726.91	301.90
727.24	301.55
727.57	300.95
727.91	299.33
728.24	298.50
728.57	297.07
728.90	296.50
729.23	294.69
729.56	294.43
729.89	293.33
730.22	292.19
730.55	291.07
730.89	289.93
731.22	288.86
731.55	288.43
731.88	287.64
732.21	286.64
732.54	285.21
732.87	284.64
733.20	284.00
733.53	283.14
733.86	282.71
734.19	281.48
734.52	280.74
734.85	281.45
735.18	280.50
735.51	280.57
735.84	279.88
736.17	279.62
736.50	277.98
736.83	279.71
737.16	279.12
737.49	278.60
737.82	278.12
738.15	277.74
738.48	277.02
738.81	276.14
739.14	275.26
739.47	274.55
739.80	273.31
740.13	272.79
740.46	271.71
740.79	270.50
741.12	269.95
741.45	269.05
741.78	267.19
742.11	266.90
742.44	265.74
742.77	265.24
743.10	264.36
743.43	263.55
743.75	260.50
744.08	262.57
744.41	261.95
744.74	261.17
745.07	260.14
745.40	259.71
745.73	259.88
746.06	259.19
746.39	259.31
746.71	258.60
747.04	257.57
747.37	257.12
747.70	256.98
748.03	256.31
748.36	255.93
748.68	255.36
749.01	254.60
749.34	253.95
749.67	253.33
750.00	253.14
750.33	254.36
750.65	254.24
750.98	251.17
751.31	250.86
751.64	250.60
751.97	251.57
752.29	251.02
752.62	249.83
752.95	249.57
753.28	248.81
753.60	248.64
753.93	249.07
754.26	248.90
754.59	247.83
754.91	247.31
755.24	247.10
755.57	246.69
755.90	245.90
756.22	245.48
756.55	244.76
756.88	243.93
757.20	241.98
757.53	240.86
757.86	240.38
758.19	239.76
758.51	239.38
758.84	237.81
759.17	237.31
759.49	237.02
759.82	237.55
760.15	237.74
760.47	237.29
760.80	236.24
761.13	236.21
761.45	235.93
761.78	235.67
762.11	235.17
762.43	234.69
762.76	234.55
763.08	234.38
763.41	234.40
763.74	234.26
764.06	233.90
764.39	234.10
764.71	233.76
765.04	233.45
765.37	233.07
765.69	233.07
766.02	232.90
766.34	232.36
766.67	231.17
767.00	230.69
767.32	231.50
767.65	232.52
767.97	232.21
768.30	232.26
768.62	231.90
768.95	231.48
769.27	231.31
769.60	231.31
769.92	230.90
770.25	230.36
770.57	229.76
770.90	229.64
771.22	229.07
771.55	229.07
771.87	229.00
772.20	228.79
772.52	230.21
772.85	232.19
773.17	232.21
773.50	232.05
773.82	231.90
774.15	230.86
774.47	229.43
774.80	228.76
775.12	228.62
775.45	228.50
775.77	228.33
776.09	228.64
776.42	228.69
776.74	229.24
777.07	229.02
777.39	228.95
777.72	228.74
778.04	228.83
778.36	228.52
778.69	228.50
779.01	228.43
779.33	226.50
779.66	224.45
779.98	224.10
780.31	224.00
780.63	224.62
780.95	224.88
781.28	224.79
781.60	224.64
781.92	224.57
782.25	224.45
782.57	224.33
782.89	224.05
783.22	223.62
783.54	222.98
783.86	223.07
784.19	222.98
784.51	223.60
784.83	223.10
785.16	222.90
