SpectraSuite Data File
++++++++++++++++++++++++++++++++++++
Date: Tue Apr 02 18:38:02 EDT 2013
User: group
Dark Spectrum Present: No
Reference Spectrum Present: No
Number of Sampled Component Spectra: 1
Spectrometers: USB2E7196
Integration Time (usec): 580000 (USB2E7196)
Spectra Averaged: 2 (USB2E7196)
Boxcar Smoothing: 10 (USB2E7196)
Correct for Electrical Dark: No (USB2E7196)
Strobe/Lamp Enabled: No (USB2E7196)
Correct for Detector Non-linearity: No (USB2E7196)
Correct for Stray Light: No (USB2E7196)
Number of Pixels in Processed Spectrum: 2048
>>>>>Begin Processed Spectral Data<<<<<
339.09	0.00
339.48	188.50
339.86	198.50
340.24	192.50
340.63	195.00
341.01	232.50
341.39	201.00
341.78	208.00
342.16	208.00
342.54	202.50
342.93	196.69
343.31	206.43
343.69	207.21
344.07	207.57
344.46	208.52
344.84	209.05
345.22	207.90
345.60	208.24
345.99	208.24
346.37	208.38
346.75	208.81
347.13	209.07
347.52	209.29
347.90	210.02
348.28	210.19
348.66	210.83
349.05	210.26
349.43	210.43
349.81	210.93
350.19	211.29
350.57	211.50
350.96	211.71
351.34	212.12
351.72	212.33
352.10	212.62
352.48	212.50
352.87	212.64
353.25	212.52
353.63	212.55
354.01	212.48
354.39	212.50
354.77	212.40
355.15	212.86
355.54	212.57
355.92	211.90
356.30	211.98
356.68	213.12
357.06	213.48
357.44	213.12
357.82	212.83
358.20	213.90
358.58	214.00
358.97	214.14
359.35	214.45
359.73	214.88
360.11	214.98
360.49	215.48
360.87	215.40
361.25	215.83
361.63	216.31
362.01	216.79
362.39	216.67
362.77	216.86
363.15	216.76
363.53	217.07
363.91	217.17
364.29	217.12
364.67	215.26
365.05	215.26
365.43	215.67
365.81	216.00
366.19	215.81
366.57	216.43
366.95	216.33
367.33	216.10
367.71	215.90
368.09	216.17
368.47	215.67
368.85	216.02
369.23	216.33
369.61	215.88
369.99	216.52
370.37	216.98
370.75	217.83
371.13	217.64
371.51	217.33
371.89	217.55
372.27	217.50
372.65	217.62
373.03	217.40
373.41	217.12
373.78	216.83
374.16	215.88
374.54	215.36
374.92	215.17
375.30	215.02
375.68	214.88
376.06	214.95
376.44	214.90
376.82	214.95
377.19	214.79
377.57	214.79
377.95	213.69
378.33	213.33
378.71	212.38
379.09	212.67
379.47	212.95
379.84	212.81
380.22	212.74
380.60	212.40
380.98	212.69
381.36	212.55
381.73	212.38
382.11	212.88
382.49	212.93
382.87	212.60
383.25	212.71
383.62	214.90
384.00	214.26
384.38	214.29
384.76	214.83
385.13	215.64
385.51	215.57
385.89	215.62
386.27	215.76
386.64	215.93
387.02	215.60
387.40	215.38
387.78	215.52
388.15	215.62
388.53	215.57
388.91	215.29
389.29	215.50
389.66	215.86
390.04	215.55
390.42	215.81
390.79	216.14
391.17	216.31
391.55	214.02
391.92	214.19
392.30	214.40
392.68	213.69
393.05	213.60
393.43	214.00
393.81	214.17
394.18	213.81
394.56	213.76
394.94	214.29
395.31	214.07
395.69	214.81
396.06	215.07
396.44	215.17
396.82	215.19
397.19	216.21
397.57	216.19
397.95	216.43
398.32	215.93
398.70	216.40
399.07	216.55
399.45	216.69
399.82	216.60
400.20	216.48
400.58	216.48
400.95	215.74
401.33	216.00
401.70	217.55
402.08	217.88
402.45	218.14
402.83	218.67
403.20	219.19
403.58	218.79
403.95	219.12
404.33	220.00
404.71	220.45
405.08	221.79
405.46	222.17
405.83	222.79
406.21	223.43
406.58	223.76
406.96	224.21
407.33	224.86
407.70	225.81
408.08	228.26
408.45	229.38
408.83	230.26
409.20	230.71
409.58	230.24
409.95	231.55
410.33	232.79
410.70	233.36
411.08	234.71
411.45	236.17
411.82	237.07
412.20	238.55
412.57	241.12
412.95	240.57
413.32	242.36
413.69	243.69
414.07	245.29
414.44	247.31
414.82	249.52
415.19	252.31
415.56	254.71
415.94	256.19
416.31	259.33
416.68	262.71
417.06	266.69
417.43	270.81
417.81	274.74
418.18	278.67
418.55	283.10
418.93	287.55
419.30	292.33
419.67	297.98
420.04	303.05
420.42	308.36
420.79	316.90
421.16	323.40
421.54	331.48
421.91	338.93
422.28	346.29
422.66	354.14
423.03	363.14
423.40	371.38
423.77	379.98
424.15	388.48
424.52	397.50
424.89	407.36
425.26	416.38
425.64	425.29
426.01	434.95
426.38	445.10
426.75	456.12
427.13	467.10
427.50	478.43
427.87	490.55
428.24	502.12
428.61	512.07
428.99	525.55
429.36	537.90
429.73	550.90
430.10	564.36
430.47	577.71
430.85	590.67
431.22	605.64
431.59	622.79
431.96	637.67
432.33	654.29
432.70	670.07
433.08	689.33
433.45	707.19
433.82	725.57
434.19	745.64
434.56	765.17
434.93	784.02
435.30	803.24
435.68	824.26
436.05	844.60
436.42	865.05
436.79	883.55
437.16	904.57
437.53	926.50
437.90	947.69
438.27	969.31
438.64	991.62
439.01	1012.81
439.38	1029.24
439.75	1047.86
440.13	1068.10
440.50	1087.48
440.87	1103.48
441.24	1119.69
441.61	1137.76
441.98	1151.21
442.35	1166.17
442.72	1181.95
443.09	1197.50
443.46	1206.71
443.83	1213.62
444.20	1219.38
444.57	1227.26
444.94	1231.86
445.31	1236.36
445.68	1242.88
446.05	1245.21
446.42	1242.79
446.79	1241.36
447.16	1240.05
447.53	1238.69
447.90	1231.83
448.27	1224.52
448.64	1214.52
449.01	1208.02
449.37	1194.60
449.74	1181.76
450.11	1168.24
450.48	1150.50
450.85	1132.00
451.22	1117.26
451.59	1103.52
451.96	1090.14
452.33	1071.71
452.70	1054.40
453.07	1033.95
453.43	1011.24
453.80	991.64
454.17	973.26
454.54	954.62
454.91	934.60
455.28	914.64
455.65	896.71
456.02	882.21
456.38	866.60
456.75	847.76
457.12	831.67
457.49	816.26
457.86	799.83
458.23	788.19
458.59	774.29
458.96	760.05
459.33	746.88
459.70	734.24
460.07	724.02
460.43	712.52
460.80	702.33
461.17	693.52
461.54	683.17
461.91	673.95
462.27	663.76
462.64	656.19
463.01	647.81
463.38	640.10
463.74	628.14
464.11	620.29
464.48	613.45
464.85	606.17
465.21	600.98
465.58	594.88
465.95	586.76
466.32	580.98
466.68	574.48
467.05	568.50
467.42	562.52
467.78	556.19
468.15	550.05
468.52	545.24
468.88	539.05
469.25	533.76
469.62	529.55
469.98	525.10
470.35	520.79
470.72	516.62
471.08	511.33
471.45	508.26
471.82	505.17
472.18	501.57
472.55	498.57
472.92	494.07
473.28	490.40
473.65	487.26
474.02	484.10
474.38	482.10
474.75	479.74
475.11	476.86
475.48	475.17
475.85	473.05
476.21	471.26
476.58	469.60
476.94	468.48
477.31	467.07
477.67	465.79
478.04	464.50
478.41	464.07
478.77	465.26
479.14	464.12
479.50	463.33
479.87	462.31
480.23	462.33
480.60	462.31
480.96	462.64
481.33	463.76
481.69	464.26
482.06	464.07
482.42	464.67
482.79	465.57
483.15	466.29
483.52	467.81
483.88	468.60
484.25	469.81
484.61	470.57
484.98	471.60
485.34	474.19
485.71	476.24
486.07	477.93
486.44	478.24
486.80	479.98
487.17	481.98
487.53	485.36
487.90	487.93
488.26	491.33
488.62	494.98
488.99	497.55
489.35	501.10
489.72	504.90
490.08	508.81
490.44	512.21
490.81	516.48
491.17	520.45
491.54	525.40
491.90	530.36
492.26	536.02
492.63	541.14
492.99	545.52
493.36	550.83
493.72	556.86
494.08	561.90
494.45	568.43
494.81	575.00
495.17	580.98
495.54	587.90
495.90	594.14
496.26	600.24
496.63	607.33
496.99	614.05
497.35	621.45
497.72	629.14
498.08	637.02
498.44	644.69
498.80	653.07
499.17	661.05
499.53	668.83
499.89	677.38
500.26	685.81
500.62	694.48
500.98	703.79
501.34	712.52
501.71	723.10
502.07	732.60
502.43	741.31
502.79	750.17
503.16	759.45
503.52	768.74
503.88	778.76
504.24	788.62
504.60	797.95
504.97	808.31
505.33	818.33
505.69	829.40
506.05	839.62
506.41	849.38
506.78	859.21
507.14	868.95
507.50	879.48
507.86	890.64
508.22	900.98
508.59	910.40
508.95	920.79
509.31	931.62
509.67	941.57
510.03	951.62
510.39	962.33
510.75	972.40
511.12	983.10
511.48	992.71
511.84	1002.81
512.20	1013.14
512.56	1022.81
512.92	1032.71
513.28	1041.74
513.64	1052.02
514.00	1061.83
514.37	1071.21
514.73	1080.86
515.09	1090.40
515.45	1099.21
515.81	1108.14
516.17	1117.12
516.53	1125.74
516.89	1133.05
517.25	1141.50
517.61	1150.83
517.97	1158.52
518.33	1166.88
518.69	1175.17
519.05	1183.21
519.41	1191.10
519.77	1200.36
520.13	1207.48
520.49	1214.36
520.85	1221.76
521.21	1228.93
521.57	1236.29
521.93	1243.45
522.29	1251.10
522.65	1256.36
523.01	1262.88
523.37	1269.07
523.73	1275.43
524.09	1281.24
524.45	1287.00
524.81	1292.74
525.17	1298.43
525.53	1304.50
525.89	1310.52
526.25	1315.86
526.61	1320.26
526.97	1324.98
527.33	1328.98
527.68	1335.79
528.04	1340.43
528.40	1344.29
528.76	1348.29
529.12	1352.14
529.48	1356.98
529.84	1360.29
530.20	1364.79
530.56	1368.21
530.91	1371.67
531.27	1375.62
531.63	1380.02
531.99	1383.29
532.35	1385.62
532.71	1388.19
533.07	1391.62
533.42	1396.76
533.78	1399.71
534.14	1404.10
534.50	1406.40
534.86	1410.64
535.21	1411.07
535.57	1413.86
535.93	1416.62
536.29	1419.88
536.65	1423.05
537.00	1424.62
537.36	1427.31
537.72	1429.69
538.08	1432.64
538.44	1435.52
538.79	1437.12
539.15	1438.00
539.51	1440.90
539.87	1443.50
540.22	1445.21
540.58	1446.69
540.94	1445.69
541.29	1446.57
541.65	1446.60
542.01	1448.95
542.37	1448.07
542.72	1447.95
543.08	1448.00
543.44	1448.60
543.79	1447.81
544.15	1447.95
544.51	1449.45
544.87	1449.05
545.22	1448.79
545.58	1447.40
545.94	1446.69
546.29	1446.52
546.65	1446.43
547.01	1444.95
547.36	1444.71
547.72	1443.98
548.07	1443.50
548.43	1442.55
548.79	1441.33
549.14	1440.48
549.50	1439.29
549.86	1437.71
550.21	1437.69
550.57	1437.14
550.92	1435.81
551.28	1434.69
551.64	1433.19
551.99	1430.60
552.35	1429.64
552.70	1428.26
553.06	1428.29
553.41	1426.64
553.77	1426.17
554.13	1424.14
554.48	1423.17
554.84	1422.64
555.19	1421.24
555.55	1421.50
555.90	1420.57
556.26	1419.57
556.61	1417.50
556.97	1415.00
557.32	1414.50
557.68	1413.17
558.03	1411.43
558.39	1410.17
558.74	1408.45
559.10	1406.88
559.45	1405.60
559.81	1403.33
560.16	1402.14
560.52	1399.95
560.87	1399.00
561.23	1396.45
561.58	1397.48
561.94	1395.31
562.29	1392.76
562.64	1391.48
563.00	1388.29
563.35	1386.26
563.71	1385.07
564.06	1383.62
564.42	1381.98
564.77	1380.83
565.12	1380.40
565.48	1381.02
565.83	1379.90
566.19	1378.64
566.54	1377.29
566.89	1376.12
567.25	1375.93
567.60	1375.07
567.96	1375.76
568.31	1375.36
568.66	1374.90
569.02	1370.81
569.37	1368.90
569.72	1367.29
570.08	1365.98
570.43	1363.62
570.78	1361.69
571.14	1359.40
571.49	1358.10
571.84	1357.17
572.20	1354.26
572.55	1351.83
572.90	1348.19
573.26	1345.33
573.61	1342.40
573.96	1339.83
574.31	1337.05
574.67	1333.40
575.02	1329.55
575.37	1324.52
575.72	1320.07
576.08	1316.00
576.43	1313.00
576.78	1310.10
577.13	1305.57
577.49	1301.98
577.84	1297.98
578.19	1294.33
578.54	1290.90
578.90	1288.02
579.25	1283.79
579.60	1279.17
579.95	1274.62
580.30	1270.26
580.66	1267.14
581.01	1263.60
581.36	1259.33
581.71	1254.48
582.06	1251.83
582.42	1247.71
582.77	1243.36
583.12	1239.31
583.47	1235.67
583.82	1231.38
584.17	1227.00
584.53	1224.60
584.88	1220.69
585.23	1218.14
585.58	1214.02
585.93	1209.26
586.28	1204.45
586.63	1200.64
586.98	1198.07
587.34	1194.12
587.69	1189.36
588.04	1184.19
588.39	1179.98
588.74	1174.83
589.09	1171.31
589.44	1165.12
589.79	1161.14
590.14	1157.40
590.49	1152.69
590.84	1147.67
591.19	1143.83
591.54	1140.24
591.89	1134.57
592.25	1131.95
592.60	1126.05
592.95	1122.21
593.30	1118.36
593.65	1113.57
594.00	1108.55
594.35	1109.69
594.70	1104.74
595.05	1100.95
595.40	1097.19
595.75	1092.90
596.10	1089.69
596.45	1085.60
596.80	1081.76
597.15	1077.29
597.50	1071.86
597.85	1068.88
598.19	1065.43
598.54	1061.00
598.89	1055.74
599.24	1051.86
599.59	1045.19
599.94	1040.52
600.29	1035.79
600.64	1031.40
600.99	1028.29
601.34	1024.67
601.69	1014.05
602.04	1009.64
602.39	1004.90
602.74	1000.60
603.08	995.98
603.43	991.93
603.78	987.26
604.13	982.79
604.48	977.95
604.83	974.57
605.18	970.02
605.53	965.17
605.87	961.05
606.22	957.50
606.57	953.33
606.92	948.93
607.27	945.31
607.62	940.57
607.96	936.67
608.31	932.17
608.66	927.33
609.01	923.19
609.36	919.36
609.70	915.69
610.05	910.83
610.40	906.81
610.75	901.95
611.10	897.81
611.44	893.86
611.79	888.95
612.14	884.52
612.49	879.07
612.83	874.57
613.18	869.43
613.53	865.00
613.88	860.21
614.22	855.55
614.57	851.10
614.92	846.90
615.27	842.36
615.61	837.31
615.96	832.83
616.31	828.00
616.65	824.14
617.00	819.24
617.35	815.29
617.70	810.79
618.04	806.19
618.39	801.60
618.74	797.50
619.08	793.95
619.43	789.48
619.78	785.95
620.12	782.40
620.47	778.67
620.82	774.12
621.16	770.29
621.51	767.83
621.85	763.60
622.20	759.67
622.55	755.21
622.89	751.36
623.24	747.64
623.59	743.83
623.93	739.86
624.28	736.81
624.62	734.93
624.97	732.81
625.32	729.29
625.66	725.38
626.01	721.62
626.35	718.29
626.70	714.36
627.04	710.64
627.39	706.24
627.73	703.81
628.08	700.19
628.43	696.40
628.77	691.60
629.12	688.55
629.46	685.52
629.81	682.36
630.15	678.64
630.50	675.19
630.84	671.90
631.19	667.76
631.53	663.95
631.88	658.24
632.22	652.90
632.57	649.62
632.91	646.19
633.26	642.55
633.60	638.67
633.95	635.69
634.29	631.64
634.64	628.45
634.98	623.86
635.32	621.81
635.67	618.83
636.01	615.60
636.36	612.12
636.70	608.90
637.05	605.71
637.39	602.57
637.73	599.21
638.08	596.64
638.42	593.88
638.77	590.93
639.11	588.36
639.45	585.88
639.80	582.95
640.14	580.52
640.49	577.26
640.83	574.60
641.17	571.12
641.52	568.40
641.86	565.38
642.20	563.74
642.55	559.64
642.89	556.71
643.23	554.07
643.58	552.26
643.92	548.83
644.26	545.71
644.61	543.24
644.95	540.64
645.29	536.90
645.64	534.67
645.98	531.38
646.32	529.07
646.66	525.57
647.01	522.38
647.35	519.10
647.69	517.00
648.04	514.71
648.38	512.38
648.72	509.83
649.06	507.24
649.41	503.81
649.75	501.19
650.09	498.69
650.43	495.60
650.78	492.12
651.12	489.21
651.46	486.60
651.80	483.71
652.14	480.86
652.49	479.14
652.83	476.05
653.17	473.83
653.51	470.24
653.85	468.52
654.20	466.74
654.54	464.26
654.88	461.36
655.22	459.55
655.56	457.31
655.90	455.43
656.25	453.19
656.59	450.86
656.93	448.90
657.27	447.31
657.61	445.07
657.95	443.29
658.29	441.33
658.64	440.00
658.98	438.14
659.32	435.93
659.66	433.45
660.00	431.79
660.34	429.62
660.68	428.26
661.02	426.07
661.36	423.10
661.70	421.43
662.05	419.74
662.39	417.17
662.73	415.69
663.07	414.69
663.41	413.45
663.75	411.43
664.09	409.64
664.43	407.38
664.77	405.93
665.11	403.50
665.45	401.74
665.79	399.76
666.13	397.98
666.47	396.43
666.81	395.21
667.15	392.57
667.49	391.24
667.83	389.88
668.17	388.17
668.51	387.19
668.85	386.00
669.19	385.07
669.53	383.31
669.87	381.29
670.21	379.07
670.55	377.00
670.89	376.55
671.23	375.07
671.57	373.67
671.91	372.29
672.25	371.21
672.58	370.83
672.92	368.69
673.26	367.43
673.60	366.26
673.94	364.43
674.28	363.76
674.62	362.55
674.96	361.05
675.30	359.88
675.64	358.60
675.97	357.00
676.31	355.29
676.65	353.88
676.99	353.21
677.33	351.67
677.67	350.76
678.01	348.67
678.34	347.43
678.68	346.38
679.02	345.29
679.36	344.07
679.70	341.76
680.04	341.17
680.37	339.64
680.71	338.36
681.05	337.31
681.39	335.98
681.73	334.57
682.06	333.02
682.40	331.86
682.74	330.83
683.08	330.24
683.42	328.95
683.75	328.31
684.09	326.50
684.43	325.45
684.77	323.95
685.10	322.76
685.44	321.57
685.78	320.10
686.12	318.90
686.45	317.79
686.79	316.88
687.13	315.76
687.46	314.69
687.80	314.36
688.14	313.33
688.48	312.71
688.81	311.81
689.15	311.62
689.49	310.38
689.82	309.57
690.16	307.83
690.50	306.81
690.83	305.12
691.17	304.05
691.51	302.95
691.84	302.17
692.18	301.17
692.52	300.29
692.85	299.81
693.19	299.43
693.52	298.36
693.86	297.36
694.20	296.81
694.53	296.26
694.87	294.74
695.21	293.19
695.54	292.05
695.88	290.55
696.21	289.02
696.55	288.64
696.88	287.71
697.22	286.48
697.56	286.12
697.89	285.52
698.23	285.10
698.56	284.14
698.90	283.67
699.23	282.81
699.57	282.14
699.90	281.00
700.24	279.93
700.58	279.62
700.91	279.19
701.25	279.98
701.58	279.69
701.92	279.64
702.25	279.64
702.59	278.71
702.92	278.52
703.26	278.14
703.59	277.29
703.93	278.31
704.26	278.40
704.60	277.74
704.93	277.00
705.26	276.00
705.60	275.93
705.93	275.00
706.27	275.38
706.60	275.38
706.94	275.74
707.27	274.98
707.61	274.10
707.94	273.48
708.27	270.93
708.61	269.76
708.94	269.10
709.28	268.57
709.61	268.00
709.94	267.67
710.28	267.33
710.61	266.83
710.95	264.29
711.28	264.90
711.61	264.02
711.95	264.19
712.28	263.62
712.61	262.86
712.95	263.36
713.28	263.33
713.61	262.14
713.95	260.64
714.28	260.26
714.61	260.00
714.95	259.43
715.28	258.88
715.61	258.45
715.95	258.26
716.28	257.83
716.61	258.12
716.95	257.33
717.28	256.55
717.61	256.10
717.94	255.95
718.28	254.05
718.61	253.81
718.94	252.83
719.27	252.52
719.61	252.29
719.94	251.07
720.27	249.24
720.60	248.83
720.94	248.74
721.27	248.48
721.60	248.24
721.93	247.76
722.27	248.12
722.60	247.86
722.93	246.71
723.26	246.33
723.59	245.38
723.93	245.12
724.26	245.10
724.59	244.67
724.92	244.55
725.25	244.95
725.59	244.62
725.92	244.67
726.25	244.33
726.58	244.10
726.91	243.95
727.24	244.33
727.57	244.17
727.91	243.43
728.24	243.07
728.57	242.33
728.90	242.50
729.23	241.55
729.56	242.62
729.89	242.71
730.22	242.19
730.55	242.05
730.89	241.90
731.22	241.12
731.55	240.81
731.88	240.50
732.21	239.74
732.54	239.17
732.87	239.10
733.20	239.02
733.53	238.62
733.86	238.40
734.19	237.90
734.52	237.90
734.85	239.31
735.18	238.74
735.51	239.40
735.84	239.02
736.17	239.31
736.50	237.64
736.83	239.45
737.16	239.45
737.49	239.24
737.82	239.10
738.15	239.52
738.48	239.38
738.81	238.83
739.14	238.62
739.47	238.45
739.80	237.69
740.13	237.83
740.46	237.50
740.79	236.95
741.12	236.71
741.45	236.14
741.78	234.62
742.11	235.24
742.44	234.45
742.77	234.67
743.10	234.43
743.43	234.19
743.75	231.95
744.08	234.12
744.41	234.05
744.74	233.69
745.07	232.93
745.40	233.12
745.73	234.02
746.06	233.90
746.39	234.05
746.71	234.02
747.04	233.31
747.37	233.14
747.70	233.29
748.03	232.93
748.36	232.95
748.68	233.12
749.01	232.36
749.34	232.36
749.67	231.95
750.00	231.88
750.33	233.24
750.65	233.40
750.98	230.83
751.31	230.52
751.64	230.40
751.97	231.45
752.29	231.24
752.62	230.21
752.95	229.88
753.28	229.55
753.60	229.48
753.93	229.93
754.26	229.95
754.59	229.40
754.91	229.14
755.24	228.90
755.57	228.43
755.90	228.19
756.22	227.60
756.55	227.12
756.88	226.67
757.20	225.43
757.53	224.79
757.86	224.90
758.19	225.10
758.51	225.17
758.84	224.05
759.17	223.55
759.49	223.45
759.82	224.40
760.15	224.50
760.47	224.10
760.80	223.40
761.13	223.52
761.45	223.36
761.78	223.36
762.11	223.31
762.43	223.21
762.76	223.02
763.08	223.14
763.41	223.40
763.74	223.36
764.06	223.33
764.39	223.26
764.71	222.98
765.04	222.48
765.37	222.07
765.69	221.79
766.02	221.83
766.34	221.43
766.67	220.69
767.00	220.76
767.32	222.00
767.65	223.14
767.97	223.10
768.30	223.36
768.62	223.40
768.95	222.95
769.27	223.05
769.60	223.38
769.92	223.21
770.25	222.67
770.57	222.43
770.90	221.93
771.22	221.79
771.55	221.64
771.87	221.50
772.20	221.38
772.52	223.02
772.85	225.48
773.17	225.64
773.50	225.24
773.82	224.90
774.15	223.64
774.47	222.26
774.80	221.81
775.12	221.64
775.45	221.86
775.77	222.10
776.09	222.02
776.42	221.93
776.74	222.36
777.07	222.52
777.39	222.52
777.72	222.50
778.04	222.76
778.36	222.55
778.69	222.90
779.01	222.95
779.33	221.52
779.66	218.90
779.98	218.76
780.31	218.83
780.63	219.79
780.95	220.19
781.28	220.26
781.60	220.10
781.92	219.98
782.25	219.62
782.57	219.71
782.89	219.43
783.22	219.17
783.54	218.60
783.86	218.45
784.19	218.45
784.51	218.86
784.83	218.48
785.16	218.48
785.48	218.45
785.80	218.57
786.12	218.57
786.45	218.62
786.77	218.64
787.09	218.38
787.42	217.26
787.74	217.26
788.06	217.48
