SpectraSuite Data File
++++++++++++++++++++++++++++++++++++
Date: Tue Apr 02 18:46:17 EDT 2013
User: group
Dark Spectrum Present: No
Reference Spectrum Present: No
Number of Sampled Component Spectra: 1
Spectrometers: USB2E7196
Integration Time (usec): 580000 (USB2E7196)
Spectra Averaged: 2 (USB2E7196)
Boxcar Smoothing: 10 (USB2E7196)
Correct for Electrical Dark: No (USB2E7196)
Strobe/Lamp Enabled: No (USB2E7196)
Correct for Detector Non-linearity: No (USB2E7196)
Correct for Stray Light: No (USB2E7196)
Number of Pixels in Processed Spectrum: 2048
>>>>>Begin Processed Spectral Data<<<<<
339.09	0.00
339.48	195.50
339.86	196.50
340.24	196.50
340.63	200.50
341.01	228.00
341.39	202.00
341.78	206.00
342.16	212.50
342.54	205.00
342.93	199.29
343.31	209.12
343.69	209.86
344.07	210.33
344.46	211.14
344.84	211.71
345.22	210.86
345.60	211.33
345.99	211.67
346.37	211.62
346.75	211.71
347.13	211.69
347.52	211.60
347.90	212.21
348.28	212.19
348.66	212.64
349.05	212.26
349.43	212.62
349.81	212.79
350.19	213.10
350.57	213.21
350.96	213.36
351.34	213.52
351.72	213.21
352.10	213.24
352.48	213.07
352.87	212.90
353.25	212.76
353.63	212.71
354.01	212.57
354.39	212.64
354.77	212.60
355.15	213.31
355.54	213.07
355.92	212.33
356.30	212.38
356.68	213.36
357.06	213.21
357.44	212.64
357.82	212.62
358.20	213.12
358.58	213.00
358.97	212.88
359.35	213.17
359.73	213.79
360.11	213.79
360.49	213.57
360.87	213.74
361.25	213.69
361.63	214.29
362.01	214.43
362.39	214.19
362.77	214.40
363.15	214.26
363.53	214.14
363.91	214.38
364.29	214.33
364.67	212.64
365.05	212.67
365.43	212.83
365.81	212.98
366.19	213.14
366.57	214.07
366.95	214.19
367.33	213.93
367.71	213.86
368.09	214.26
368.47	214.55
368.85	214.33
369.23	215.10
369.61	214.14
369.99	214.74
370.37	214.93
370.75	215.95
371.13	215.45
371.51	215.19
371.89	215.26
372.27	215.50
372.65	215.43
373.03	215.31
373.41	215.43
373.78	215.38
374.16	214.36
374.54	213.55
374.92	213.31
375.30	213.43
375.68	212.76
376.06	212.79
376.44	212.81
376.82	213.21
377.19	213.02
377.57	213.26
377.95	212.33
378.33	212.45
378.71	211.33
379.09	211.71
379.47	212.24
379.84	211.93
380.22	211.43
380.60	211.24
380.98	211.12
381.36	211.12
381.73	210.60
382.11	211.12
382.49	211.17
382.87	211.00
383.25	210.81
383.62	213.55
384.00	213.17
384.38	213.10
384.76	213.31
385.13	214.33
385.51	214.36
385.89	214.52
386.27	214.38
386.64	214.86
387.02	214.38
387.40	214.19
387.78	214.43
388.15	214.90
388.53	215.00
388.91	215.05
389.29	215.02
389.66	215.64
390.04	215.33
390.42	215.57
390.79	216.00
391.17	216.05
391.55	213.98
391.92	214.05
392.30	214.33
392.68	213.93
393.05	213.62
393.43	213.57
393.81	213.64
394.18	213.26
394.56	213.19
394.94	213.83
395.31	213.60
395.69	214.38
396.06	214.64
396.44	214.88
396.82	215.10
397.19	216.17
397.57	215.90
397.95	216.55
398.32	216.19
398.70	216.05
399.07	216.60
399.45	216.31
399.82	216.33
400.20	216.26
400.58	216.36
400.95	215.50
401.33	216.12
401.70	217.60
402.08	217.98
402.45	217.95
402.83	218.55
403.20	219.05
403.58	218.86
403.95	219.24
404.33	219.62
404.71	219.60
405.08	220.67
405.46	220.98
405.83	221.21
406.21	221.48
406.58	222.07
406.96	222.19
407.33	223.00
407.70	224.00
408.08	226.14
408.45	226.76
408.83	227.93
409.20	228.38
409.58	228.00
409.95	229.07
410.33	229.95
410.70	230.21
411.08	231.29
411.45	232.17
411.82	233.12
412.20	234.62
412.57	236.95
412.95	236.55
413.32	238.29
413.69	239.57
414.07	241.48
414.44	243.10
414.82	245.17
415.19	247.43
415.56	249.57
415.94	250.67
416.31	253.88
416.68	256.45
417.06	259.76
417.43	263.19
417.81	266.62
418.18	270.31
418.55	273.81
418.93	277.67
419.30	281.69
419.67	285.98
420.04	290.36
420.42	294.83
420.79	301.95
421.16	307.17
421.54	313.95
421.91	320.00
422.28	326.38
422.66	332.50
423.03	339.98
423.40	346.55
423.77	353.55
424.15	359.93
424.52	368.05
424.89	376.69
425.26	384.45
425.64	392.02
426.01	400.05
426.38	408.71
426.75	418.14
427.13	427.26
427.50	436.98
427.87	447.10
428.24	456.83
428.61	465.29
428.99	477.02
429.36	487.31
429.73	498.31
430.10	510.07
430.47	522.05
430.85	532.40
431.22	544.60
431.59	559.88
431.96	573.31
432.33	586.60
432.70	599.36
433.08	615.57
433.45	630.88
433.82	646.38
434.19	663.40
434.56	679.95
434.93	695.57
435.30	711.02
435.68	728.14
436.05	745.31
436.42	761.90
436.79	777.17
437.16	794.64
437.53	813.43
437.90	831.00
438.27	848.67
438.64	867.14
439.01	884.40
439.38	897.50
439.75	911.50
440.13	928.62
440.50	944.88
440.87	957.24
441.24	970.36
441.61	984.69
441.98	995.45
442.35	1007.79
442.72	1020.90
443.09	1034.02
443.46	1041.43
443.83	1046.95
444.20	1051.69
444.57	1057.38
444.94	1059.90
445.31	1063.69
445.68	1069.29
446.05	1071.14
446.42	1070.21
446.79	1069.02
447.16	1067.45
447.53	1066.24
447.90	1059.81
448.27	1052.88
448.64	1044.29
449.01	1037.98
449.37	1026.88
449.74	1015.55
450.11	1003.79
450.48	989.52
450.85	974.31
451.22	962.26
451.59	950.50
451.96	938.93
452.33	923.50
452.70	909.62
453.07	891.67
453.43	871.71
453.80	854.95
454.17	838.93
454.54	823.71
454.91	807.38
455.28	791.86
455.65	776.81
456.02	765.90
456.38	753.36
456.75	738.29
457.12	725.12
457.49	713.07
457.86	699.43
458.23	689.05
458.59	677.62
458.96	665.57
459.33	654.81
459.70	644.50
460.07	637.02
460.43	627.57
460.80	619.14
461.17	611.93
461.54	603.69
461.91	595.64
462.27	587.67
462.64	580.55
463.01	573.12
463.38	566.86
463.74	556.17
464.11	549.48
464.48	543.76
464.85	537.81
465.21	533.36
465.58	528.24
465.95	521.62
466.32	516.43
466.68	511.12
467.05	506.07
467.42	500.98
467.78	495.50
468.15	490.90
468.52	486.90
468.88	481.52
469.25	476.98
469.62	473.62
469.98	469.52
470.35	466.00
470.72	462.83
471.08	458.10
471.45	455.24
471.82	452.50
472.18	449.05
472.55	446.48
472.92	443.10
473.28	440.24
473.65	437.40
474.02	434.55
474.38	432.88
474.75	431.05
475.11	428.90
475.48	427.02
475.85	425.02
476.21	422.55
476.58	421.33
476.94	420.02
477.31	418.69
477.67	417.40
478.04	416.83
478.41	415.83
478.77	417.52
479.14	416.38
479.50	415.71
479.87	415.62
480.23	415.00
480.60	414.21
480.96	413.83
481.33	414.83
481.69	415.05
482.06	415.00
482.42	414.93
482.79	415.33
483.15	415.40
483.52	416.17
483.88	417.29
484.25	417.98
484.61	418.57
484.98	419.62
485.34	421.26
485.71	422.48
486.07	423.81
486.44	423.29
486.80	424.81
487.17	426.10
487.53	428.07
487.90	430.60
488.26	433.74
488.62	436.60
488.99	438.10
489.35	440.83
489.72	443.29
490.08	446.26
490.44	449.19
490.81	452.57
491.17	455.98
491.54	459.50
491.90	462.98
492.26	466.74
492.63	470.14
492.99	473.69
493.36	477.62
493.72	482.07
494.08	486.69
494.45	491.67
494.81	496.86
495.17	501.62
495.54	506.76
495.90	511.12
496.26	516.12
496.63	521.74
496.99	526.76
497.35	532.45
497.72	538.29
498.08	544.05
498.44	550.43
498.80	556.79
499.17	563.07
499.53	569.29
499.89	576.50
500.26	583.69
500.62	591.02
500.98	598.62
501.34	605.48
501.71	612.95
502.07	619.83
502.43	627.12
502.79	634.31
503.16	640.90
503.52	648.36
503.88	655.21
504.24	662.88
504.60	670.40
504.97	678.12
505.33	685.79
505.69	694.60
506.05	702.48
506.41	710.00
506.78	717.17
507.14	724.98
507.50	732.05
507.86	739.31
508.22	746.50
508.59	753.40
508.95	761.48
509.31	770.36
509.67	778.43
510.03	785.81
510.39	793.52
510.75	801.79
511.12	809.21
511.48	817.31
511.84	824.43
512.20	831.95
512.56	839.12
512.92	846.31
513.28	853.45
513.64	860.33
514.00	867.81
514.37	875.88
514.73	882.90
515.09	891.26
515.45	898.64
515.81	906.17
516.17	912.69
516.53	919.10
516.89	923.81
517.25	930.76
517.61	938.02
517.97	944.12
518.33	950.50
518.69	957.38
519.05	964.10
519.41	971.14
519.77	979.26
520.13	985.90
520.49	991.93
520.85	997.55
521.21	1004.19
521.57	1009.79
521.93	1014.29
522.29	1020.62
522.65	1025.02
523.01	1030.29
523.37	1035.14
523.73	1040.48
524.09	1045.79
524.45	1051.05
524.81	1055.17
525.17	1059.50
525.53	1063.95
525.89	1068.40
526.25	1073.60
526.61	1077.00
526.97	1080.26
527.33	1083.74
527.68	1089.88
528.04	1094.48
528.40	1098.52
528.76	1102.31
529.12	1106.38
529.48	1111.95
529.84	1114.48
530.20	1119.02
530.56	1123.74
530.91	1127.86
531.27	1131.81
531.63	1135.45
531.99	1139.98
532.35	1144.17
532.71	1147.86
533.07	1152.52
533.42	1159.26
533.78	1162.55
534.14	1167.52
534.50	1172.26
534.86	1177.02
535.21	1179.17
535.57	1182.98
535.93	1186.45
536.29	1190.95
536.65	1194.74
537.00	1197.57
537.36	1201.86
537.72	1204.95
538.08	1208.14
538.44	1211.14
538.79	1215.52
539.15	1218.93
539.51	1221.95
539.87	1225.69
540.22	1228.93
540.58	1232.24
540.94	1233.71
541.29	1237.00
541.65	1238.86
542.01	1242.12
542.37	1243.67
542.72	1245.19
543.08	1247.21
543.44	1250.00
543.79	1250.93
544.15	1253.52
544.51	1256.62
544.87	1259.19
545.22	1261.90
545.58	1264.36
545.94	1266.88
546.29	1268.90
546.65	1271.67
547.01	1273.57
547.36	1275.24
547.72	1278.26
548.07	1280.74
548.43	1282.60
548.79	1284.10
549.14	1286.40
549.50	1289.14
549.86	1291.52
550.21	1295.14
550.57	1298.88
550.92	1301.52
551.28	1304.79
551.64	1307.52
551.99	1310.36
552.35	1312.86
552.70	1315.67
553.06	1318.10
553.41	1320.88
553.77	1325.90
554.13	1328.93
554.48	1332.90
554.84	1337.10
555.19	1340.62
555.55	1345.12
555.90	1348.62
556.26	1352.36
556.61	1356.26
556.97	1359.07
557.32	1362.43
557.68	1365.81
558.03	1369.02
558.39	1372.24
558.74	1376.76
559.10	1380.55
559.45	1384.57
559.81	1389.43
560.16	1393.14
560.52	1397.24
560.87	1402.67
561.23	1404.88
561.58	1411.12
561.94	1414.95
562.29	1419.45
562.64	1423.40
563.00	1427.33
563.35	1430.81
563.71	1435.57
564.06	1441.14
564.42	1446.62
564.77	1452.55
565.12	1458.64
565.48	1465.88
565.83	1472.29
566.19	1478.57
566.54	1484.83
566.89	1489.36
567.25	1495.40
567.60	1503.67
567.96	1511.76
568.31	1518.36
568.66	1524.62
569.02	1528.40
569.37	1533.24
569.72	1538.40
570.08	1544.67
570.43	1549.17
570.78	1556.31
571.14	1562.43
571.49	1567.86
571.84	1573.05
572.20	1577.93
572.55	1582.17
572.90	1585.40
573.26	1590.29
573.61	1593.81
573.96	1597.45
574.31	1602.48
574.67	1607.07
575.02	1609.02
575.37	1611.76
575.72	1614.38
576.08	1618.55
576.43	1622.29
576.78	1627.38
577.13	1631.05
577.49	1634.24
577.84	1638.81
578.19	1641.98
578.54	1646.21
578.90	1649.64
579.25	1652.90
579.60	1655.19
579.95	1658.10
580.30	1661.64
580.66	1665.19
581.01	1668.83
581.36	1671.95
581.71	1675.29
582.06	1679.00
582.42	1683.43
582.77	1686.02
583.12	1689.64
583.47	1691.67
583.82	1695.52
584.17	1697.48
584.53	1701.62
584.88	1704.79
585.23	1708.12
585.58	1710.67
585.93	1712.79
586.28	1715.55
586.63	1719.00
586.98	1723.17
587.34	1727.50
587.69	1730.40
588.04	1733.81
588.39	1736.17
588.74	1738.10
589.09	1740.26
589.44	1740.62
589.79	1742.07
590.14	1744.64
590.49	1746.29
590.84	1748.71
591.19	1750.29
591.54	1753.31
591.89	1754.31
592.25	1757.86
592.60	1758.50
592.95	1760.50
593.30	1762.36
593.65	1764.02
594.00	1764.76
594.35	1771.50
594.70	1771.38
595.05	1772.33
595.40	1773.00
595.75	1774.98
596.10	1777.07
596.45	1778.45
596.80	1780.52
597.15	1781.33
597.50	1781.07
597.85	1783.31
598.19	1784.40
598.54	1784.90
598.89	1785.21
599.24	1785.43
599.59	1784.67
599.94	1785.05
600.29	1785.33
600.64	1785.55
600.99	1785.95
601.34	1787.19
601.69	1782.07
602.04	1782.33
602.39	1782.14
602.74	1782.26
603.08	1780.76
603.43	1781.60
603.78	1781.52
604.13	1780.93
604.48	1780.81
604.83	1782.00
605.18	1781.43
605.53	1781.07
605.87	1780.07
606.22	1779.57
606.57	1778.93
606.92	1776.88
607.27	1776.31
607.62	1776.26
607.96	1776.43
608.31	1775.36
608.66	1773.26
609.01	1771.74
609.36	1771.48
609.70	1769.93
610.05	1767.24
610.40	1765.86
610.75	1763.33
611.10	1762.24
611.44	1759.81
611.79	1758.07
612.14	1755.26
612.49	1751.02
612.83	1748.19
613.18	1745.95
613.53	1743.21
613.88	1740.40
614.22	1737.76
614.57	1734.05
614.92	1729.83
615.27	1726.10
615.61	1722.07
615.96	1718.76
616.31	1714.86
616.65	1712.12
617.00	1709.43
617.35	1707.00
617.70	1704.74
618.04	1700.86
618.39	1695.76
618.74	1692.79
619.08	1688.52
619.43	1685.31
619.78	1681.83
620.12	1679.88
620.47	1676.71
620.82	1672.60
621.16	1668.69
621.51	1665.86
621.85	1661.98
622.20	1658.31
622.55	1653.69
622.89	1651.21
623.24	1648.60
623.59	1645.81
623.93	1641.10
624.28	1636.62
624.62	1634.21
624.97	1630.55
625.32	1626.95
625.66	1624.14
626.01	1619.88
626.35	1616.55
626.70	1612.45
627.04	1610.07
627.39	1605.17
627.73	1602.57
628.08	1599.45
628.43	1595.31
628.77	1591.62
629.12	1588.52
629.46	1584.52
629.81	1581.14
630.15	1576.21
630.50	1570.88
630.84	1565.83
631.19	1560.52
631.53	1556.26
631.88	1549.79
632.22	1543.83
632.57	1539.88
632.91	1534.12
633.26	1530.12
633.60	1524.88
633.95	1519.76
634.29	1513.81
634.64	1509.29
634.98	1502.83
635.32	1498.76
635.67	1495.67
636.01	1491.21
636.36	1486.02
636.70	1481.98
637.05	1476.55
637.39	1471.98
637.73	1469.05
638.08	1465.40
638.42	1461.98
638.77	1457.98
639.11	1453.38
639.45	1449.02
639.80	1443.64
640.14	1439.69
640.49	1434.52
640.83	1429.71
641.17	1425.55
641.52	1420.95
641.86	1415.00
642.20	1411.26
642.55	1405.17
642.89	1400.12
643.23	1394.21
643.58	1390.40
643.92	1383.95
644.26	1379.14
644.61	1373.67
644.95	1367.43
645.29	1360.81
645.64	1355.71
645.98	1349.07
646.32	1344.21
646.66	1338.05
647.01	1332.29
647.35	1327.02
647.69	1321.79
648.04	1316.64
648.38	1310.71
648.72	1304.62
649.06	1299.83
649.41	1293.45
649.75	1287.98
650.09	1281.17
650.43	1274.69
650.78	1267.83
651.12	1262.24
651.46	1255.52
651.80	1250.14
652.14	1243.19
652.49	1237.60
652.83	1230.45
653.17	1224.57
653.51	1217.40
653.85	1212.00
654.20	1205.52
654.54	1198.76
654.88	1191.90
655.22	1186.26
655.56	1180.07
655.90	1174.19
656.25	1166.90
656.59	1160.71
656.93	1154.36
657.27	1149.57
657.61	1143.95
657.95	1138.86
658.29	1132.60
658.64	1127.62
658.98	1121.36
659.32	1115.02
659.66	1108.62
660.00	1102.95
660.34	1097.00
660.68	1091.17
661.02	1084.50
661.36	1078.98
661.70	1072.79
662.05	1067.10
662.39	1060.86
662.73	1054.90
663.07	1050.52
663.41	1045.29
663.75	1039.24
664.09	1033.93
664.43	1026.31
664.77	1020.17
665.11	1012.98
665.45	1007.26
665.79	1001.17
666.13	995.05
666.47	989.29
666.81	984.02
667.15	978.55
667.49	973.29
667.83	967.93
668.17	962.12
668.51	956.52
668.85	952.38
669.19	948.02
669.53	942.29
669.87	936.55
670.21	930.14
670.55	924.14
670.89	919.38
671.23	913.60
671.57	908.88
671.91	903.76
672.25	898.71
672.58	894.98
672.92	889.07
673.26	883.76
673.60	879.17
673.94	873.79
674.28	868.38
674.62	863.60
674.96	858.45
675.30	854.36
675.64	849.21
675.97	843.45
676.31	837.48
676.65	831.55
676.99	827.98
677.33	822.57
677.67	818.19
678.01	812.71
678.34	807.74
678.68	803.24
679.02	798.12
679.36	793.81
679.70	787.45
680.04	782.69
680.37	777.38
680.71	772.31
681.05	767.79
681.39	762.93
681.73	758.36
682.06	753.26
682.40	748.55
682.74	744.33
683.08	739.90
683.42	734.90
683.75	731.31
684.09	724.90
684.43	719.95
684.77	715.05
685.10	709.88
685.44	705.52
685.78	700.24
686.12	695.88
686.45	691.02
686.79	686.17
687.13	682.43
687.46	678.21
687.80	674.45
688.14	669.79
688.48	665.71
688.81	660.69
689.15	656.62
689.49	651.62
689.82	646.93
690.16	641.90
690.50	637.48
690.83	632.50
691.17	628.02
691.51	623.79
691.84	619.69
692.18	616.07
692.52	611.55
692.85	607.48
693.19	604.55
693.52	600.10
693.86	595.69
694.20	590.83
694.53	586.83
694.87	581.95
695.21	577.81
695.54	573.62
695.88	569.12
696.21	564.48
696.55	560.90
696.88	556.98
697.22	553.02
697.56	549.79
697.89	546.17
698.23	543.19
698.56	539.07
698.90	535.29
699.23	531.21
699.57	527.62
699.90	523.93
700.24	519.40
700.58	515.81
700.91	513.33
701.25	511.29
701.58	508.26
701.92	505.64
702.25	502.07
702.59	498.33
702.92	495.48
703.26	492.79
703.59	488.95
703.93	487.79
704.26	484.95
704.60	481.48
704.93	478.12
705.26	474.48
705.60	472.45
705.93	469.31
706.27	466.95
706.60	464.31
706.94	462.26
707.27	458.60
707.61	456.19
707.94	452.86
708.27	448.76
708.61	445.33
708.94	442.31
709.28	439.93
709.61	437.10
709.94	434.36
710.28	431.86
710.61	429.86
710.95	425.26
711.28	424.31
711.61	421.71
711.95	419.95
712.28	417.64
712.61	414.79
712.95	413.36
713.28	411.62
713.61	408.71
713.95	405.60
714.28	403.86
714.61	401.21
714.95	399.21
715.28	397.00
715.61	394.90
715.95	392.55
716.28	390.00
716.61	388.12
716.95	385.60
717.28	383.02
717.61	380.38
717.94	378.26
718.28	374.38
718.61	372.60
718.94	369.86
719.27	367.76
719.61	365.81
719.94	363.19
720.27	359.95
720.60	358.02
720.94	356.19
721.27	354.31
721.60	352.79
721.93	350.83
722.27	349.60
722.60	348.43
722.93	346.67
723.26	345.36
723.59	343.62
723.93	342.24
724.26	341.24
724.59	340.00
724.92	338.76
725.25	338.24
725.59	336.69
725.92	335.83
726.25	334.50
726.58	333.36
726.91	332.00
727.24	330.88
727.57	329.64
727.91	328.05
728.24	326.74
728.57	325.19
728.90	324.05
729.23	322.05
729.56	321.17
729.89	319.83
730.22	318.17
730.55	317.02
730.89	315.79
731.22	314.17
731.55	312.67
731.88	311.55
732.21	309.76
732.54	308.57
732.87	307.21
733.20	306.24
733.53	305.43
733.86	304.45
734.19	303.12
734.52	302.36
734.85	302.57
735.18	301.62
735.51	301.26
735.84	300.45
736.17	300.21
736.50	298.40
736.83	299.81
737.16	299.21
737.49	298.07
737.82	297.31
738.15	296.83
738.48	296.17
738.81	295.21
739.14	293.98
739.47	292.95
739.80	292.00
740.13	291.31
740.46	289.67
740.79	288.81
741.12	288.07
741.45	287.00
741.78	285.29
742.11	284.98
742.44	283.67
742.77	283.36
743.10	282.24
743.43	281.43
743.75	278.48
744.08	280.33
744.41	279.57
744.74	278.62
745.07	277.00
745.40	276.60
745.73	276.43
746.06	276.02
746.39	275.60
746.71	274.55
747.04	273.50
747.37	272.74
747.70	271.95
748.03	271.29
748.36	270.76
748.68	270.14
749.01	268.79
749.34	268.26
749.67	267.31
750.00	266.98
750.33	268.05
750.65	267.90
750.98	264.88
751.31	264.33
751.64	263.71
751.97	264.62
752.29	263.83
752.62	262.31
752.95	261.52
753.28	260.64
753.60	260.17
753.93	260.31
754.26	260.02
754.59	259.10
754.91	258.55
755.24	257.81
755.57	257.14
755.90	256.57
756.22	255.50
756.55	254.74
756.88	253.55
757.20	251.57
757.53	250.17
757.86	249.26
758.19	249.00
758.51	248.76
758.84	247.29
759.17	246.29
759.49	246.21
759.82	246.71
760.15	246.43
760.47	245.95
760.80	244.76
761.13	244.81
761.45	244.62
761.78	244.33
762.11	244.24
762.43	243.81
762.76	243.52
763.08	243.69
763.41	243.40
763.74	243.24
764.06	242.74
764.39	242.71
764.71	242.52
765.04	241.95
765.37	241.40
765.69	241.00
766.02	240.98
766.34	240.17
766.67	239.10
767.00	239.33
767.32	240.19
767.65	241.29
767.97	240.67
768.30	240.60
768.62	240.10
768.95	239.38
769.27	238.93
769.60	238.93
769.92	238.24
770.25	237.57
770.57	236.98
770.90	236.69
771.22	236.24
771.55	235.83
771.87	235.55
772.20	235.17
772.52	236.55
772.85	238.88
773.17	238.79
773.50	238.45
773.82	237.62
774.15	236.26
774.47	234.62
774.80	234.10
775.12	233.69
775.45	233.38
775.77	233.33
776.09	233.21
776.42	232.81
776.74	233.10
777.07	232.93
777.39	232.81
777.72	232.19
778.04	232.26
778.36	232.02
778.69	231.95
779.01	232.02
779.33	230.14
779.66	227.69
779.98	227.43
780.31	227.31
780.63	227.95
780.95	228.21
781.28	228.10
781.60	227.98
781.92	227.57
782.25	227.67
782.57	227.33
782.89	227.24
783.22	227.07
783.54	226.33
783.86	226.29
784.19	226.12
784.51	226.71
784.83	226.00
