SpectraSuite Data File
++++++++++++++++++++++++++++++++++++
Date: Tue Apr 02 18:41:39 EDT 2013
User: group
Dark Spectrum Present: No
Reference Spectrum Present: No
Number of Sampled Component Spectra: 1
Spectrometers: USB2E7196
Integration Time (usec): 580000 (USB2E7196)
Spectra Averaged: 2 (USB2E7196)
Boxcar Smoothing: 10 (USB2E7196)
Correct for Electrical Dark: No (USB2E7196)
Strobe/Lamp Enabled: No (USB2E7196)
Correct for Detector Non-linearity: No (USB2E7196)
Correct for Stray Light: No (USB2E7196)
Number of Pixels in Processed Spectrum: 2048
>>>>>Begin Processed Spectral Data<<<<<
339.09	0.00
339.48	193.00
339.86	196.50
340.24	196.00
340.63	198.00
341.01	231.50
341.39	203.50
341.78	208.00
342.16	212.00
342.54	208.50
342.93	199.38
343.31	209.24
343.69	209.90
344.07	210.50
344.46	211.26
344.84	211.95
345.22	211.00
345.60	211.43
345.99	211.50
346.37	211.43
346.75	211.38
347.13	211.12
347.52	211.05
347.90	211.48
348.28	211.62
348.66	211.88
349.05	211.40
349.43	211.45
349.81	211.57
350.19	211.55
350.57	211.55
350.96	211.74
351.34	212.07
351.72	212.07
352.10	211.98
352.48	212.10
352.87	211.98
353.25	211.81
353.63	211.43
354.01	211.24
354.39	211.31
354.77	211.21
355.15	212.05
355.54	211.90
355.92	211.36
356.30	211.14
356.68	212.43
357.06	212.48
357.44	212.02
357.82	211.76
358.20	212.69
358.58	212.57
358.97	212.50
359.35	212.74
359.73	213.05
360.11	212.98
360.49	212.71
360.87	212.74
361.25	212.98
361.63	213.64
362.01	213.83
362.39	213.71
362.77	213.95
363.15	213.67
363.53	213.48
363.91	213.93
364.29	213.86
364.67	211.93
365.05	212.12
365.43	212.52
365.81	212.83
366.19	212.83
366.57	213.69
366.95	213.48
367.33	212.93
367.71	213.00
368.09	213.36
368.47	213.55
368.85	213.31
369.23	213.69
369.61	213.07
369.99	213.69
370.37	213.83
370.75	214.86
371.13	214.69
371.51	214.74
371.89	214.57
372.27	215.05
372.65	215.14
373.03	215.05
373.41	214.88
373.78	214.55
374.16	213.43
374.54	212.74
374.92	212.62
375.30	212.55
375.68	212.31
376.06	212.52
376.44	212.17
376.82	212.55
377.19	212.52
377.57	212.60
377.95	212.10
378.33	212.05
378.71	210.95
379.09	211.02
379.47	211.26
379.84	211.12
380.22	210.95
380.60	210.60
380.98	210.43
381.36	210.74
381.73	210.71
382.11	211.36
382.49	211.50
382.87	211.62
383.25	211.90
383.62	214.21
384.00	213.69
384.38	214.10
384.76	214.48
385.13	215.29
385.51	215.45
385.89	215.10
386.27	215.26
386.64	215.55
387.02	215.31
387.40	215.02
387.78	215.17
388.15	215.12
388.53	215.10
388.91	215.36
389.29	214.88
389.66	215.26
390.04	214.86
390.42	215.29
390.79	215.45
391.17	215.67
391.55	213.43
391.92	213.48
392.30	213.55
392.68	213.12
393.05	212.83
393.43	212.79
393.81	212.95
394.18	212.71
394.56	212.83
394.94	213.31
395.31	213.26
395.69	213.74
396.06	214.02
396.44	214.52
396.82	214.19
397.19	215.21
397.57	214.93
397.95	215.31
398.32	214.57
398.70	214.71
399.07	214.74
399.45	214.62
399.82	214.88
400.20	214.57
400.58	214.55
400.95	213.83
401.33	214.48
401.70	216.17
402.08	216.26
402.45	216.17
402.83	216.86
403.20	217.17
403.58	217.26
403.95	217.79
404.33	218.17
404.71	218.48
405.08	219.81
405.46	220.31
405.83	220.74
406.21	221.31
406.58	221.48
406.96	221.98
407.33	222.69
407.70	223.31
408.08	225.52
408.45	226.36
408.83	227.48
409.20	227.76
409.58	227.29
409.95	228.62
410.33	229.69
410.70	229.93
411.08	231.29
411.45	232.31
411.82	233.31
412.20	234.69
412.57	237.38
412.95	237.21
413.32	238.74
413.69	240.17
414.07	241.90
414.44	243.76
414.82	245.83
415.19	248.38
415.56	250.67
415.94	251.86
416.31	254.81
416.68	257.60
417.06	261.05
417.43	264.64
417.81	268.26
418.18	271.93
418.55	276.00
418.93	279.95
419.30	284.29
419.67	288.62
420.04	293.05
420.42	297.74
420.79	304.79
421.16	310.76
421.54	317.88
421.91	324.29
422.28	330.71
422.66	337.45
423.03	345.50
423.40	352.33
423.77	359.93
424.15	367.00
424.52	374.86
424.89	384.02
425.26	391.95
425.64	399.48
426.01	408.17
426.38	417.19
426.75	426.55
427.13	435.67
427.50	445.36
427.87	455.33
428.24	465.50
428.61	474.26
428.99	485.90
429.36	496.07
429.73	507.26
430.10	519.12
430.47	530.98
430.85	541.86
431.22	555.02
431.59	570.52
431.96	583.71
432.33	598.07
432.70	611.57
433.08	627.90
433.45	643.38
433.82	658.57
434.19	675.62
434.56	693.67
434.93	709.64
435.30	726.12
435.68	744.17
436.05	761.62
436.42	778.88
436.79	795.14
437.16	813.21
437.53	831.95
437.90	850.57
438.27	868.57
438.64	886.71
439.01	903.79
439.38	917.43
439.75	932.52
440.13	949.60
440.50	965.05
440.87	978.05
441.24	991.86
441.61	1007.14
441.98	1018.48
442.35	1030.48
442.72	1044.00
443.09	1057.38
443.46	1066.02
443.83	1071.50
444.20	1076.62
444.57	1082.52
444.94	1086.24
445.31	1089.26
445.68	1094.62
446.05	1096.17
446.42	1094.93
446.79	1094.00
447.16	1092.10
447.53	1091.29
447.90	1085.07
448.27	1079.29
448.64	1070.71
449.01	1064.29
449.37	1052.98
449.74	1041.60
450.11	1029.95
450.48	1014.81
450.85	999.10
451.22	985.86
451.59	973.45
451.96	961.45
452.33	945.36
452.70	930.14
453.07	913.24
453.43	893.10
453.80	876.38
454.17	860.36
454.54	844.43
454.91	827.67
455.28	810.95
455.65	795.79
456.02	783.79
456.38	770.90
456.75	754.98
457.12	741.17
457.49	727.83
457.86	712.50
458.23	702.38
458.59	690.17
458.96	678.19
459.33	666.86
459.70	656.02
460.07	647.74
460.43	638.10
460.80	629.19
461.17	622.00
461.54	613.31
461.91	605.02
462.27	596.48
462.64	589.33
463.01	581.76
463.38	574.76
463.74	563.45
464.11	556.36
464.48	550.50
464.85	544.24
465.21	540.50
465.58	535.88
465.95	528.69
466.32	523.79
466.68	518.12
467.05	513.31
467.42	508.17
467.78	502.95
468.15	497.81
468.52	494.12
468.88	488.02
469.25	483.43
469.62	480.26
469.98	476.62
470.35	473.33
470.72	469.69
471.08	464.69
471.45	462.24
471.82	459.64
472.18	456.10
472.55	453.29
472.92	448.90
473.28	445.33
473.65	443.12
474.02	440.24
474.38	438.50
474.75	436.64
475.11	434.50
475.48	432.12
475.85	430.64
476.21	428.50
476.58	427.17
476.94	425.88
477.31	424.14
477.67	422.67
478.04	421.21
478.41	420.48
478.77	422.38
479.14	421.14
479.50	420.26
479.87	420.24
480.23	419.98
480.60	419.90
480.96	420.38
481.33	420.95
481.69	421.19
482.06	420.79
482.42	421.17
482.79	421.62
483.15	422.02
483.52	423.14
483.88	423.69
484.25	424.36
484.61	425.31
484.98	426.26
485.34	428.36
485.71	429.93
486.07	431.24
486.44	430.74
486.80	432.38
487.17	434.07
487.53	436.52
487.90	438.95
488.26	441.88
488.62	444.50
488.99	446.21
489.35	448.62
489.72	451.52
490.08	453.48
490.44	456.02
490.81	459.67
491.17	462.60
491.54	465.83
491.90	469.81
492.26	473.29
492.63	477.29
492.99	480.52
493.36	484.74
493.72	489.19
494.08	493.43
494.45	498.17
494.81	503.07
495.17	506.98
495.54	511.88
495.90	516.31
496.26	521.57
496.63	527.29
496.99	532.76
497.35	538.05
497.72	544.45
498.08	550.60
498.44	556.36
498.80	562.69
499.17	569.29
499.53	575.43
499.89	582.48
500.26	588.98
500.62	595.67
500.98	602.60
501.34	609.55
501.71	617.64
502.07	625.07
502.43	631.83
502.79	639.17
503.16	646.60
503.52	653.43
503.88	660.64
504.24	668.74
504.60	676.52
504.97	684.76
505.33	692.38
505.69	700.98
506.05	709.00
506.41	716.57
506.78	724.24
507.14	732.07
507.50	740.21
507.86	747.98
508.22	756.29
508.59	763.71
508.95	772.21
509.31	780.21
509.67	788.36
510.03	796.69
510.39	805.43
510.75	813.60
511.12	822.02
511.48	829.64
511.84	836.74
512.20	844.21
512.56	851.93
512.92	859.60
513.28	866.83
513.64	874.19
514.00	882.10
514.37	889.74
514.73	897.57
515.09	904.71
515.45	912.10
515.81	919.07
516.17	927.21
516.53	933.45
516.89	939.43
517.25	945.76
517.61	953.05
517.97	958.90
518.33	965.10
518.69	972.40
519.05	979.38
519.41	985.64
519.77	993.50
520.13	999.07
520.49	1005.00
520.85	1010.71
521.21	1017.48
521.57	1023.50
521.93	1028.98
522.29	1034.83
522.65	1040.48
523.01	1046.60
523.37	1052.00
523.73	1057.00
524.09	1062.76
524.45	1068.02
524.81	1073.12
525.17	1078.71
525.53	1083.52
525.89	1087.93
526.25	1092.48
526.61	1097.02
526.97	1101.86
527.33	1105.95
527.68	1112.55
528.04	1117.71
528.40	1122.48
528.76	1126.29
529.12	1130.62
529.48	1135.67
529.84	1139.48
530.20	1144.19
530.56	1149.17
530.91	1154.24
531.27	1158.14
531.63	1162.31
531.99	1166.57
532.35	1170.83
532.71	1174.86
533.07	1179.93
533.42	1187.55
533.78	1191.19
534.14	1196.00
534.50	1200.62
534.86	1205.52
535.21	1208.52
535.57	1212.71
535.93	1216.93
536.29	1222.36
536.65	1226.55
537.00	1230.02
537.36	1234.29
537.72	1237.31
538.08	1240.93
538.44	1243.93
538.79	1248.26
539.15	1251.69
539.51	1255.12
539.87	1259.52
540.22	1263.10
540.58	1266.26
540.94	1267.43
541.29	1271.33
541.65	1274.00
542.01	1277.90
542.37	1280.10
542.72	1282.74
543.08	1285.05
543.44	1288.64
543.79	1290.21
544.15	1293.88
544.51	1297.67
544.87	1300.71
545.22	1305.33
545.58	1308.38
545.94	1312.05
546.29	1314.60
546.65	1317.83
547.01	1321.40
547.36	1324.10
547.72	1325.95
548.07	1329.71
548.43	1332.07
548.79	1335.07
549.14	1337.88
549.50	1340.62
549.86	1343.50
550.21	1347.02
550.57	1350.52
550.92	1353.38
551.28	1357.21
551.64	1359.74
551.99	1363.21
552.35	1366.55
552.70	1368.69
553.06	1371.40
553.41	1374.38
553.77	1379.95
554.13	1383.76
554.48	1387.76
554.84	1392.26
555.19	1396.98
555.55	1402.40
555.90	1406.45
556.26	1411.07
556.61	1415.43
556.97	1418.69
557.32	1423.48
557.68	1427.76
558.03	1431.95
558.39	1436.05
558.74	1439.71
559.10	1444.55
559.45	1448.88
559.81	1453.24
560.16	1458.07
560.52	1463.17
560.87	1467.95
561.23	1471.10
561.58	1477.64
561.94	1481.95
562.29	1486.57
562.64	1491.67
563.00	1494.26
563.35	1499.10
563.71	1503.50
564.06	1509.05
564.42	1515.05
564.77	1520.10
565.12	1526.38
565.48	1533.57
565.83	1539.74
566.19	1545.45
566.54	1550.55
566.89	1555.38
567.25	1562.12
567.60	1568.95
567.96	1576.38
568.31	1582.71
568.66	1588.69
569.02	1592.12
569.37	1597.36
569.72	1601.98
570.08	1607.12
570.43	1612.86
570.78	1618.88
571.14	1624.00
571.49	1629.05
571.84	1634.17
572.20	1639.02
572.55	1643.24
572.90	1647.29
573.26	1651.05
573.61	1655.43
573.96	1660.07
574.31	1664.74
574.67	1667.50
575.02	1670.19
575.37	1670.74
575.72	1673.76
576.08	1677.71
576.43	1681.74
576.78	1685.69
577.13	1689.62
577.49	1692.98
577.84	1696.29
578.19	1700.12
578.54	1704.98
578.90	1708.36
579.25	1711.21
579.60	1712.76
579.95	1715.02
580.30	1717.98
580.66	1721.95
581.01	1725.93
581.36	1728.67
581.71	1731.79
582.06	1736.93
582.42	1740.71
582.77	1744.98
583.12	1747.14
583.47	1749.31
583.82	1752.05
584.17	1754.17
584.53	1757.05
584.88	1759.71
585.23	1763.14
585.58	1765.31
585.93	1765.90
586.28	1768.17
586.63	1770.83
586.98	1775.02
587.34	1778.12
587.69	1779.81
588.04	1781.43
588.39	1783.29
588.74	1783.69
589.09	1784.93
589.44	1784.45
589.79	1785.31
590.14	1787.14
590.49	1788.71
590.84	1789.36
591.19	1790.21
591.54	1791.10
591.89	1791.29
592.25	1793.45
592.60	1792.71
592.95	1793.43
593.30	1794.81
593.65	1794.90
594.00	1794.02
594.35	1798.67
594.70	1797.62
595.05	1798.76
595.40	1798.17
595.75	1797.86
596.10	1799.07
596.45	1799.26
596.80	1799.40
597.15	1799.76
597.50	1799.62
597.85	1801.07
598.19	1801.26
598.54	1801.52
598.89	1802.10
599.24	1802.93
599.59	1801.05
599.94	1801.26
600.29	1800.90
600.64	1800.21
600.99	1799.90
601.34	1800.43
601.69	1795.24
602.04	1794.90
602.39	1793.17
602.74	1793.74
603.08	1791.71
603.43	1790.86
603.78	1790.19
604.13	1790.00
604.48	1787.60
604.83	1786.55
605.18	1785.14
605.53	1784.12
605.87	1782.52
606.22	1781.05
606.57	1778.98
606.92	1777.07
607.27	1775.33
607.62	1773.43
607.96	1772.40
608.31	1770.88
608.66	1768.95
609.01	1766.07
609.36	1764.76
609.70	1762.21
610.05	1758.79
610.40	1756.98
610.75	1753.83
611.10	1751.07
611.44	1747.36
611.79	1745.33
612.14	1741.38
612.49	1736.57
612.83	1733.36
613.18	1729.88
613.53	1726.40
613.88	1722.31
614.22	1718.38
614.57	1714.33
614.92	1709.55
615.27	1703.81
615.61	1699.14
615.96	1694.88
616.31	1691.31
616.65	1687.76
617.00	1683.86
617.35	1679.50
617.70	1675.07
618.04	1670.43
618.39	1665.36
618.74	1660.95
619.08	1655.40
619.43	1651.17
619.78	1647.14
620.12	1642.14
620.47	1637.60
620.82	1631.98
621.16	1626.90
621.51	1622.90
621.85	1617.86
622.20	1612.74
622.55	1607.83
622.89	1603.50
623.24	1599.00
623.59	1594.00
623.93	1588.21
624.28	1582.95
624.62	1580.67
624.97	1578.26
625.32	1575.31
625.66	1571.02
626.01	1565.90
626.35	1562.26
626.70	1558.02
627.04	1554.55
627.39	1549.76
627.73	1545.95
628.08	1542.43
628.43	1538.57
628.77	1533.48
629.12	1529.69
629.46	1526.24
629.81	1522.02
630.15	1516.33
630.50	1510.67
630.84	1505.00
631.19	1499.12
631.53	1493.69
631.88	1485.29
632.22	1476.74
632.57	1470.90
632.91	1465.36
633.26	1460.50
633.60	1455.10
633.95	1448.62
634.29	1442.07
634.64	1436.45
634.98	1430.02
635.32	1424.90
635.67	1419.60
636.01	1414.83
636.36	1408.33
636.70	1402.31
637.05	1396.69
637.39	1391.64
637.73	1386.95
638.08	1383.17
638.42	1378.43
638.77	1374.12
639.11	1368.74
639.45	1364.48
639.80	1358.48
640.14	1352.19
640.49	1346.55
640.83	1339.98
641.17	1335.17
641.52	1329.38
641.86	1324.79
642.20	1319.81
642.55	1313.02
642.89	1306.00
643.23	1299.48
643.58	1294.71
643.92	1287.76
644.26	1282.17
644.61	1276.45
644.95	1270.00
645.29	1262.45
645.64	1257.10
645.98	1250.05
646.32	1244.71
646.66	1237.33
647.01	1230.95
647.35	1225.33
647.69	1219.19
648.04	1214.17
648.38	1207.86
648.72	1201.33
649.06	1193.81
649.41	1185.90
649.75	1179.24
650.09	1172.90
650.43	1165.45
650.78	1157.64
651.12	1151.43
651.46	1144.12
651.80	1137.26
652.14	1131.07
652.49	1125.93
652.83	1118.40
653.17	1111.76
653.51	1104.81
653.85	1098.95
654.20	1092.17
654.54	1085.29
654.88	1077.81
655.22	1071.38
655.56	1063.79
655.90	1057.95
656.25	1051.90
656.59	1046.33
656.93	1039.62
657.27	1034.60
657.61	1028.98
657.95	1022.95
658.29	1017.10
658.64	1011.95
658.98	1005.83
659.32	998.57
659.66	990.76
660.00	985.07
660.34	978.67
660.68	971.86
661.02	965.88
661.36	959.76
661.70	953.95
662.05	948.50
662.39	941.83
662.73	937.17
663.07	931.33
663.41	925.14
663.75	918.26
664.09	913.17
664.43	905.71
664.77	899.50
665.11	893.81
665.45	888.50
665.79	882.38
666.13	876.12
666.47	870.60
666.81	865.64
667.15	859.45
667.49	854.69
667.83	850.21
668.17	845.02
668.51	839.79
668.85	834.31
669.19	829.71
669.53	823.55
669.87	817.26
670.21	811.38
670.55	805.81
670.89	802.19
671.23	797.00
671.57	792.50
671.91	787.90
672.25	783.05
672.58	778.10
672.92	773.07
673.26	768.05
673.60	763.17
673.94	758.12
674.28	753.12
674.62	748.48
674.96	743.31
675.30	738.74
675.64	733.90
675.97	729.19
676.31	723.71
676.65	719.52
676.99	715.83
677.33	710.88
677.67	706.81
678.01	701.48
678.34	696.60
678.68	692.33
679.02	687.29
679.36	682.67
679.70	677.88
680.04	673.29
680.37	668.81
680.71	664.05
681.05	659.93
681.39	656.02
681.73	651.12
682.06	646.43
682.40	641.36
682.74	637.14
683.08	633.76
683.42	629.17
683.75	624.98
684.09	619.74
684.43	615.29
684.77	610.38
685.10	605.95
685.44	601.45
685.78	596.67
686.12	592.52
686.45	587.67
686.79	583.02
687.13	579.48
687.46	575.71
687.80	572.12
688.14	568.02
688.48	564.10
688.81	560.62
689.15	557.45
689.49	553.98
689.82	549.83
690.16	544.98
690.50	541.17
690.83	537.02
691.17	533.02
691.51	529.74
691.84	526.26
692.18	522.76
692.52	519.02
692.85	516.36
693.19	513.86
693.52	511.05
693.86	507.60
694.20	503.48
694.53	499.88
694.87	496.31
695.21	492.19
695.54	488.36
695.88	484.29
696.21	479.81
696.55	476.36
696.88	473.21
697.22	470.19
697.56	467.52
697.89	464.38
698.23	461.79
698.56	458.45
698.90	455.71
699.23	452.02
699.57	449.14
699.90	445.26
700.24	441.52
700.58	438.52
700.91	435.88
701.25	434.64
701.58	432.50
701.92	430.24
702.25	427.81
702.59	424.95
702.92	422.67
703.26	420.50
703.59	417.81
703.93	417.29
704.26	414.69
704.60	412.02
704.93	409.71
705.26	407.02
705.60	405.33
705.93	402.55
706.27	400.88
706.60	399.33
706.94	398.26
707.27	395.83
707.61	393.74
707.94	391.48
708.27	387.88
708.61	385.17
708.94	382.81
709.28	381.02
709.61	379.00
709.94	376.79
710.28	374.95
710.61	373.33
710.95	369.12
711.28	368.57
711.61	366.33
711.95	364.81
712.28	363.00
712.61	360.69
712.95	359.90
713.28	359.10
713.61	356.88
713.95	354.43
714.28	353.05
714.61	351.33
714.95	349.67
715.28	347.40
715.61	345.57
715.95	344.02
716.28	342.12
716.61	340.74
716.95	338.69
717.28	336.76
717.61	334.93
717.94	333.64
718.28	330.83
718.61	329.71
718.94	327.62
719.27	326.19
719.61	324.76
719.94	322.69
720.27	319.76
720.60	317.93
720.94	316.36
721.27	314.90
721.60	313.52
721.93	311.98
722.27	311.86
722.60	311.12
722.93	309.52
723.26	308.50
723.59	307.12
723.93	306.45
724.26	305.64
724.59	304.40
724.92	303.05
725.25	302.33
725.59	301.10
725.92	300.38
726.25	299.40
726.58	298.33
726.91	297.50
727.24	296.98
727.57	296.43
727.91	295.29
728.24	294.62
728.57	293.55
728.90	292.98
729.23	291.40
729.56	291.12
729.89	290.50
730.22	289.36
730.55	288.50
730.89	287.43
731.22	286.50
731.55	285.33
731.88	285.17
732.21	283.86
732.54	282.71
732.87	281.93
733.20	281.02
733.53	280.38
733.86	279.71
734.19	278.71
734.52	278.12
734.85	278.81
735.18	277.81
735.51	277.62
735.84	277.00
736.17	276.93
736.50	275.14
736.83	276.98
737.16	276.40
737.49	275.88
737.82	275.40
738.15	275.17
738.48	274.83
738.81	273.74
739.14	273.00
739.47	272.43
739.80	271.79
740.13	271.21
740.46	270.29
740.79	269.10
741.12	268.43
741.45	267.45
741.78	265.90
742.11	265.69
742.44	264.60
742.77	264.17
743.10	263.02
743.43	262.52
743.75	259.40
744.08	261.52
744.41	260.29
744.74	259.62
745.07	258.43
745.40	258.31
745.73	258.33
746.06	257.93
746.39	257.71
746.71	257.12
747.04	256.31
747.37	255.62
747.70	255.43
748.03	254.93
748.36	254.86
748.68	254.29
749.01	253.21
749.34	252.71
749.67	252.24
750.00	252.19
750.33	253.17
750.65	252.88
750.98	249.79
751.31	249.64
751.64	249.31
751.97	250.02
752.29	249.36
752.62	248.26
752.95	247.83
753.28	247.02
753.60	246.50
753.93	246.74
754.26	246.79
754.59	245.98
754.91	245.69
755.24	245.12
755.57	244.45
755.90	244.07
756.22	243.67
756.55	242.83
756.88	241.98
757.20	240.17
757.53	239.36
757.86	238.86
758.19	238.98
758.51	238.62
758.84	237.12
759.17	236.55
759.49	236.21
759.82	236.71
760.15	236.86
760.47	236.45
760.80	235.43
761.13	235.43
761.45	235.24
761.78	234.90
762.11	234.43
762.43	234.02
762.76	233.67
763.08	233.55
763.41	233.62
763.74	233.62
764.06	233.40
764.39	233.55
764.71	233.48
765.04	232.93
765.37	232.45
765.69	232.50
766.02	232.24
766.34	232.00
766.67	231.00
767.00	230.93
767.32	231.88
767.65	233.12
767.97	232.55
768.30	232.40
768.62	232.26
768.95	231.90
769.27	231.74
769.60	231.83
769.92	231.67
770.25	231.00
770.57	230.33
770.90	230.12
771.22	229.57
771.55	229.36
771.87	229.07
772.20	228.90
772.52	230.50
772.85	232.67
773.17	232.62
773.50	232.36
773.82	232.12
774.15	230.88
774.47	229.43
774.80	229.10
775.12	228.95
775.45	228.52
775.77	228.55
776.09	228.43
776.42	228.33
776.74	228.69
777.07	228.38
777.39	228.24
777.72	227.90
778.04	228.07
778.36	227.60
778.69	227.86
779.01	227.86
779.33	225.81
779.66	223.52
779.98	223.33
780.31	223.33
780.63	223.64
780.95	224.07
781.28	223.93
781.60	223.74
781.92	223.60
782.25	223.86
782.57	223.76
782.89	223.71
783.22	223.45
783.54	222.74
783.86	223.00
784.19	222.95
784.51	223.43
784.83	222.83
785.16	222.83
