SpectraSuite Data File
++++++++++++++++++++++++++++++++++++
Date: Tue Apr 02 18:46:09 EDT 2013
User: group
Dark Spectrum Present: No
Reference Spectrum Present: No
Number of Sampled Component Spectra: 1
Spectrometers: USB2E7196
Integration Time (usec): 580000 (USB2E7196)
Spectra Averaged: 2 (USB2E7196)
Boxcar Smoothing: 10 (USB2E7196)
Correct for Electrical Dark: No (USB2E7196)
Strobe/Lamp Enabled: No (USB2E7196)
Correct for Detector Non-linearity: No (USB2E7196)
Correct for Stray Light: No (USB2E7196)
Number of Pixels in Processed Spectrum: 2048
>>>>>Begin Processed Spectral Data<<<<<
339.09	0.00
339.48	188.00
339.86	191.50
340.24	197.50
340.63	199.00
341.01	229.00
341.39	206.00
341.78	207.00
342.16	209.50
342.54	208.50
342.93	198.12
343.31	207.86
343.69	208.67
344.07	209.24
344.46	210.00
344.84	210.69
345.22	209.64
345.60	210.24
345.99	210.48
346.37	210.50
346.75	210.55
347.13	210.67
347.52	210.64
347.90	211.52
348.28	211.45
348.66	212.05
349.05	211.50
349.43	211.81
349.81	212.19
350.19	212.17
350.57	212.55
350.96	212.98
351.34	213.36
351.72	213.55
352.10	213.88
352.48	213.64
352.87	213.67
353.25	213.93
353.63	213.55
354.01	213.43
354.39	213.50
354.77	213.29
355.15	213.86
355.54	213.81
355.92	213.12
356.30	213.19
356.68	214.43
357.06	214.60
357.44	214.05
357.82	213.74
358.20	214.69
358.58	214.62
358.97	214.62
359.35	215.14
359.73	215.62
360.11	215.64
360.49	215.93
360.87	215.62
361.25	215.67
361.63	216.26
362.01	216.31
362.39	216.21
362.77	216.79
363.15	216.40
363.53	216.33
363.91	216.45
364.29	216.12
364.67	214.12
365.05	213.81
365.43	214.29
365.81	214.79
366.19	214.98
366.57	215.67
366.95	215.50
367.33	214.83
367.71	214.83
368.09	215.02
368.47	215.00
368.85	214.88
369.23	215.45
369.61	214.83
369.99	215.55
370.37	215.86
370.75	216.64
371.13	216.26
371.51	216.02
371.89	216.02
372.27	216.21
372.65	216.21
373.03	216.38
373.41	216.14
373.78	215.81
374.16	214.52
374.54	213.71
374.92	213.74
375.30	213.57
375.68	212.98
376.06	213.19
376.44	212.90
376.82	213.33
377.19	212.93
377.57	212.88
377.95	212.07
378.33	211.69
378.71	210.50
379.09	210.98
379.47	211.26
379.84	211.21
380.22	210.95
380.60	211.02
380.98	210.83
381.36	210.83
381.73	210.50
382.11	210.98
382.49	211.43
382.87	211.10
383.25	211.33
383.62	213.69
384.00	213.00
384.38	213.10
384.76	213.29
385.13	214.26
385.51	214.26
385.89	214.24
386.27	214.62
386.64	214.81
387.02	214.43
387.40	214.24
387.78	214.33
388.15	214.76
388.53	214.57
388.91	214.86
389.29	214.79
389.66	215.10
390.04	214.95
390.42	215.10
390.79	215.19
391.17	215.33
391.55	213.21
391.92	213.50
392.30	213.64
392.68	213.31
393.05	213.07
393.43	212.90
393.81	212.88
394.18	212.57
394.56	212.57
394.94	213.26
395.31	213.17
395.69	213.69
396.06	213.88
396.44	214.19
396.82	213.69
397.19	214.83
397.57	214.93
397.95	215.29
398.32	214.76
398.70	215.00
399.07	215.33
399.45	215.40
399.82	215.29
400.20	215.21
400.58	215.12
400.95	214.38
401.33	215.14
401.70	216.76
402.08	216.79
402.45	216.88
402.83	217.31
403.20	217.40
403.58	217.31
403.95	217.81
404.33	218.29
404.71	218.86
405.08	220.10
405.46	220.33
405.83	220.43
406.21	220.93
406.58	221.50
406.96	222.10
407.33	222.81
407.70	223.64
408.08	225.95
408.45	226.90
408.83	227.95
409.20	228.24
409.58	227.98
409.95	229.21
410.33	230.40
410.70	230.55
411.08	232.26
411.45	233.38
411.82	234.21
412.20	235.69
412.57	237.98
412.95	237.38
413.32	238.90
413.69	240.60
414.07	242.07
414.44	243.67
414.82	245.19
415.19	247.43
415.56	249.81
415.94	250.95
416.31	253.74
416.68	256.29
417.06	259.64
417.43	262.93
417.81	266.36
418.18	270.19
418.55	273.81
418.93	277.50
419.30	281.60
419.67	286.02
420.04	290.33
420.42	294.36
420.79	301.62
421.16	307.29
421.54	314.29
421.91	320.52
422.28	326.83
422.66	333.24
423.03	341.21
423.40	347.55
423.77	354.62
424.15	362.00
424.52	369.64
424.89	378.07
425.26	385.50
425.64	392.93
426.01	400.64
426.38	409.45
426.75	418.86
427.13	427.95
427.50	437.50
427.87	447.45
428.24	457.40
428.61	465.67
428.99	476.69
429.36	486.74
429.73	497.93
430.10	508.71
430.47	520.45
430.85	531.24
431.22	544.26
431.59	558.71
431.96	570.93
432.33	585.24
432.70	598.83
433.08	615.19
433.45	630.74
433.82	645.79
434.19	662.71
434.56	679.50
434.93	695.26
435.30	711.02
435.68	728.69
436.05	746.31
436.42	763.31
436.79	778.64
437.16	795.76
437.53	813.40
437.90	831.55
438.27	849.79
438.64	867.07
439.01	883.95
439.38	897.76
439.75	912.71
440.13	928.60
440.50	943.93
440.87	956.95
441.24	970.07
441.61	984.52
441.98	995.17
442.35	1006.81
442.72	1019.79
443.09	1033.05
443.46	1039.90
443.83	1044.67
444.20	1049.05
444.57	1055.33
444.94	1058.33
445.31	1061.98
445.68	1066.95
446.05	1067.67
446.42	1067.12
446.79	1065.67
447.16	1064.52
447.53	1063.43
447.90	1057.67
448.27	1051.55
448.64	1042.29
449.01	1035.64
449.37	1025.10
449.74	1013.90
450.11	1002.43
450.48	987.45
450.85	971.74
451.22	959.76
451.59	947.98
451.96	936.29
452.33	920.98
452.70	907.26
453.07	890.10
453.43	871.24
453.80	855.02
454.17	838.67
454.54	823.43
454.91	806.90
455.28	790.76
455.65	775.57
456.02	764.45
456.38	752.19
456.75	737.17
457.12	724.00
457.49	711.50
457.86	697.52
458.23	688.05
458.59	676.24
458.96	664.24
459.33	653.43
459.70	643.40
460.07	635.33
460.43	625.86
460.80	617.48
461.17	610.07
461.54	601.76
461.91	594.05
462.27	586.19
462.64	578.95
463.01	571.86
463.38	566.00
463.74	555.31
464.11	548.88
464.48	543.19
464.85	537.02
465.21	532.79
465.58	527.83
465.95	520.95
466.32	516.26
466.68	510.98
467.05	506.40
467.42	501.38
467.78	495.55
468.15	490.55
468.52	486.67
468.88	481.26
469.25	477.02
469.62	473.43
469.98	469.17
470.35	465.57
470.72	462.07
471.08	457.48
471.45	454.29
471.82	451.43
472.18	447.98
472.55	445.43
472.92	441.95
473.28	439.10
473.65	436.55
474.02	434.07
474.38	432.19
474.75	429.88
475.11	427.76
475.48	426.67
475.85	424.76
476.21	422.74
476.58	421.67
476.94	420.17
477.31	418.76
477.67	417.40
478.04	416.36
478.41	415.74
478.77	416.86
479.14	415.88
479.50	415.10
479.87	414.62
480.23	414.02
480.60	413.71
480.96	413.79
481.33	414.31
481.69	414.00
482.06	413.90
482.42	414.74
482.79	415.00
483.15	415.29
483.52	416.38
483.88	416.95
484.25	417.45
484.61	418.24
484.98	418.95
485.34	420.98
485.71	422.79
486.07	423.86
486.44	423.40
486.80	424.86
487.17	426.17
487.53	428.93
487.90	431.43
488.26	434.33
488.62	437.12
488.99	438.98
489.35	441.62
489.72	444.21
490.08	446.31
490.44	449.05
490.81	452.17
491.17	455.17
491.54	458.71
491.90	462.26
492.26	466.19
492.63	470.33
492.99	473.50
493.36	477.24
493.72	481.64
494.08	486.14
494.45	491.31
494.81	497.05
495.17	501.05
495.54	506.40
495.90	510.98
496.26	515.86
496.63	521.43
496.99	526.93
497.35	532.76
497.72	539.10
498.08	545.02
498.44	550.88
498.80	557.26
499.17	563.79
499.53	570.48
499.89	576.64
500.26	583.19
500.62	590.24
500.98	597.21
501.34	604.07
501.71	611.24
502.07	617.93
502.43	624.24
502.79	631.60
503.16	638.07
503.52	644.95
503.88	652.02
504.24	659.48
504.60	667.36
504.97	675.10
505.33	682.55
505.69	690.45
506.05	698.31
506.41	705.67
506.78	712.86
507.14	719.88
507.50	727.93
507.86	735.64
508.22	743.45
508.59	751.10
508.95	759.10
509.31	767.86
509.67	775.36
510.03	783.02
510.39	790.50
510.75	798.79
511.12	806.64
511.48	814.43
511.84	822.21
512.20	829.43
512.56	837.02
512.92	845.05
513.28	853.17
513.64	860.50
514.00	868.17
514.37	875.48
514.73	883.00
515.09	890.55
515.45	897.33
515.81	904.74
516.17	911.62
516.53	918.00
516.89	924.45
517.25	931.62
517.61	938.95
517.97	945.19
518.33	951.14
518.69	957.93
519.05	963.83
519.41	969.60
519.77	976.71
520.13	982.64
520.49	988.29
520.85	993.52
521.21	1000.26
521.57	1006.17
521.93	1012.14
522.29	1018.02
522.65	1022.81
523.01	1028.76
523.37	1033.12
523.73	1038.76
524.09	1043.74
524.45	1047.95
524.81	1052.67
525.17	1057.33
525.53	1062.36
525.89	1066.83
526.25	1072.12
526.61	1076.43
526.97	1081.12
527.33	1085.07
527.68	1091.14
528.04	1094.86
528.40	1098.50
528.76	1102.71
529.12	1107.10
529.48	1111.95
529.84	1115.69
530.20	1120.10
530.56	1124.48
530.91	1129.74
531.27	1133.14
531.63	1138.02
531.99	1141.95
532.35	1145.50
532.71	1149.48
533.07	1154.14
533.42	1160.71
533.78	1164.29
534.14	1169.40
534.50	1172.95
534.86	1177.40
535.21	1179.69
535.57	1183.81
535.93	1188.07
536.29	1192.36
536.65	1196.21
537.00	1198.98
537.36	1202.86
537.72	1206.55
538.08	1210.52
538.44	1212.62
538.79	1216.19
539.15	1218.67
539.51	1221.69
539.87	1225.43
540.22	1228.67
540.58	1231.74
540.94	1232.86
541.29	1235.33
541.65	1237.10
542.01	1240.31
542.37	1242.76
542.72	1244.86
543.08	1246.69
543.44	1250.14
543.79	1250.88
544.15	1253.31
544.51	1256.17
544.87	1259.02
545.22	1261.90
545.58	1263.57
545.94	1266.69
546.29	1269.57
546.65	1271.74
547.01	1275.02
547.36	1277.57
547.72	1279.98
548.07	1282.07
548.43	1283.76
548.79	1286.40
549.14	1289.00
549.50	1291.71
549.86	1293.33
550.21	1296.90
550.57	1300.31
550.92	1302.05
551.28	1305.38
551.64	1308.31
551.99	1311.21
552.35	1313.26
552.70	1314.86
553.06	1318.21
553.41	1321.12
553.77	1324.24
554.13	1327.93
554.48	1331.60
554.84	1336.05
555.19	1339.52
555.55	1344.36
555.90	1348.14
556.26	1351.74
556.61	1355.24
556.97	1358.29
557.32	1362.45
557.68	1366.12
558.03	1370.52
558.39	1374.48
558.74	1378.45
559.10	1381.69
559.45	1386.14
559.81	1390.55
560.16	1394.93
560.52	1398.12
560.87	1403.10
561.23	1407.24
561.58	1412.81
561.94	1416.76
562.29	1420.71
562.64	1425.88
563.00	1429.29
563.35	1433.88
563.71	1438.67
564.06	1444.60
564.42	1449.52
564.77	1455.60
565.12	1460.95
565.48	1467.67
565.83	1474.05
566.19	1480.36
566.54	1485.69
566.89	1490.24
567.25	1496.07
567.60	1503.36
567.96	1511.88
568.31	1518.48
568.66	1525.57
569.02	1529.98
569.37	1534.74
569.72	1540.07
570.08	1544.74
570.43	1550.17
570.78	1555.86
571.14	1561.62
571.49	1566.00
571.84	1572.79
572.20	1576.67
572.55	1582.10
572.90	1585.57
573.26	1589.79
573.61	1593.88
573.96	1599.81
574.31	1603.86
574.67	1608.05
575.02	1611.50
575.37	1613.52
575.72	1615.52
576.08	1618.48
576.43	1622.60
576.78	1626.31
577.13	1629.98
577.49	1633.31
577.84	1637.86
578.19	1641.55
578.54	1645.79
578.90	1650.38
579.25	1652.57
579.60	1656.12
579.95	1658.02
580.30	1661.02
580.66	1664.93
581.01	1668.38
581.36	1670.67
581.71	1675.10
582.06	1680.00
582.42	1683.90
582.77	1687.38
583.12	1691.29
583.47	1694.48
583.82	1698.17
584.17	1701.76
584.53	1706.02
584.88	1709.48
585.23	1712.60
585.58	1715.24
585.93	1717.12
586.28	1719.48
586.63	1723.62
586.98	1726.81
587.34	1730.52
587.69	1734.26
588.04	1737.21
588.39	1739.74
588.74	1741.64
589.09	1744.83
589.44	1745.71
589.79	1748.45
590.14	1750.19
590.49	1751.88
590.84	1753.43
591.19	1755.88
591.54	1757.60
591.89	1757.86
592.25	1762.48
592.60	1763.21
592.95	1766.21
593.30	1768.60
593.65	1770.36
594.00	1769.71
594.35	1775.74
594.70	1776.26
595.05	1777.19
595.40	1777.90
595.75	1778.43
596.10	1781.02
596.45	1781.79
596.80	1783.19
597.15	1783.62
597.50	1784.43
597.85	1786.26
598.19	1787.02
598.54	1786.67
598.89	1786.74
599.24	1788.38
599.59	1786.45
599.94	1785.86
600.29	1785.83
600.64	1785.74
600.99	1785.33
601.34	1786.62
601.69	1781.55
602.04	1781.90
602.39	1781.00
602.74	1781.21
603.08	1780.48
603.43	1780.62
603.78	1779.55
604.13	1779.24
604.48	1778.48
604.83	1779.10
605.18	1778.43
605.53	1778.71
605.87	1778.10
606.22	1777.93
606.57	1776.57
606.92	1775.88
607.27	1775.90
607.62	1774.93
607.96	1774.14
608.31	1773.79
608.66	1773.17
609.01	1772.79
609.36	1772.17
609.70	1771.67
610.05	1769.31
610.40	1769.14
610.75	1766.55
611.10	1765.60
611.44	1762.40
611.79	1760.24
612.14	1757.55
612.49	1754.36
612.83	1751.26
613.18	1749.33
613.53	1746.74
613.88	1743.38
614.22	1738.79
614.57	1735.76
614.92	1731.95
615.27	1729.02
615.61	1725.02
615.96	1720.74
616.31	1716.79
616.65	1713.76
617.00	1710.50
617.35	1707.86
617.70	1703.67
618.04	1700.14
618.39	1696.05
618.74	1693.50
619.08	1689.95
619.43	1686.81
619.78	1684.05
620.12	1681.21
620.47	1677.21
620.82	1673.86
621.16	1670.12
621.51	1668.26
621.85	1664.95
622.20	1661.55
622.55	1657.26
622.89	1654.76
623.24	1652.79
623.59	1649.36
623.93	1644.74
624.28	1640.17
624.62	1637.26
624.97	1634.93
625.32	1630.60
625.66	1626.71
626.01	1622.67
626.35	1618.86
626.70	1614.76
627.04	1610.81
627.39	1606.19
627.73	1602.74
628.08	1599.50
628.43	1595.79
628.77	1591.19
629.12	1586.95
629.46	1583.00
629.81	1579.10
630.15	1574.02
630.50	1567.43
630.84	1563.43
631.19	1558.74
631.53	1554.48
631.88	1547.83
632.22	1540.86
632.57	1536.95
632.91	1532.24
633.26	1528.24
633.60	1522.69
633.95	1517.50
634.29	1512.74
634.64	1508.81
634.98	1504.00
635.32	1499.81
635.67	1496.14
636.01	1492.29
636.36	1487.88
636.70	1484.26
637.05	1479.62
637.39	1475.79
637.73	1472.74
638.08	1469.38
638.42	1464.81
638.77	1460.24
639.11	1456.00
639.45	1452.40
639.80	1446.60
640.14	1441.88
640.49	1435.76
640.83	1431.10
641.17	1426.48
641.52	1421.60
641.86	1416.07
642.20	1411.55
642.55	1405.64
642.89	1399.31
643.23	1394.00
643.58	1389.67
643.92	1382.93
644.26	1377.14
644.61	1371.71
644.95	1366.67
645.29	1358.93
645.64	1354.07
645.98	1348.36
646.32	1343.38
646.66	1337.43
647.01	1331.98
647.35	1326.83
647.69	1321.48
648.04	1315.86
648.38	1310.12
648.72	1304.50
649.06	1298.50
649.41	1291.71
649.75	1285.33
650.09	1279.43
650.43	1272.79
650.78	1266.10
651.12	1259.76
651.46	1253.57
651.80	1247.33
652.14	1240.71
652.49	1235.83
652.83	1229.76
653.17	1222.79
653.51	1215.62
653.85	1210.10
654.20	1204.64
654.54	1197.67
654.88	1191.55
655.22	1186.52
655.56	1180.10
655.90	1173.36
656.25	1167.00
656.59	1161.14
656.93	1155.93
657.27	1150.74
657.61	1144.69
657.95	1138.45
658.29	1132.93
658.64	1126.95
658.98	1120.62
659.32	1114.02
659.66	1107.38
660.00	1101.00
660.34	1095.62
660.68	1090.40
661.02	1084.00
661.36	1077.38
661.70	1072.00
662.05	1066.29
662.39	1060.52
662.73	1055.17
663.07	1049.93
663.41	1044.38
663.75	1038.24
664.09	1031.93
664.43	1026.36
664.77	1020.33
665.11	1014.31
665.45	1008.14
665.79	1002.79
666.13	996.50
666.47	990.62
666.81	985.21
667.15	979.81
667.49	974.74
667.83	969.74
668.17	963.69
668.51	958.43
668.85	952.29
669.19	948.07
669.53	941.24
669.87	935.00
670.21	929.38
670.55	923.52
670.89	919.05
671.23	913.50
671.57	907.57
671.91	902.90
672.25	897.36
672.58	892.83
672.92	886.98
673.26	882.24
673.60	877.62
673.94	871.76
674.28	866.48
674.62	861.79
674.96	855.93
675.30	851.29
675.64	846.64
675.97	842.21
676.31	836.31
676.65	831.38
676.99	828.05
677.33	822.60
677.67	817.95
678.01	812.45
678.34	807.76
678.68	803.07
679.02	797.38
679.36	792.48
679.70	787.36
680.04	782.83
680.37	777.55
680.71	772.76
681.05	768.26
681.39	763.50
681.73	758.57
682.06	753.55
682.40	748.52
682.74	744.02
683.08	739.50
683.42	734.17
683.75	729.74
684.09	723.26
684.43	718.62
684.77	713.95
685.10	708.90
685.44	703.57
685.78	698.57
686.12	694.29
686.45	689.48
686.79	684.48
687.13	680.02
687.46	675.79
687.80	671.62
688.14	667.12
688.48	662.83
688.81	658.21
689.15	654.48
689.49	650.43
689.82	645.36
690.16	640.40
690.50	636.45
690.83	631.71
691.17	627.67
691.51	623.67
691.84	618.88
692.18	614.50
692.52	610.86
692.85	606.95
693.19	603.48
693.52	599.60
693.86	595.43
694.20	590.69
694.53	586.69
694.87	581.83
695.21	577.67
695.54	573.24
695.88	568.48
696.21	563.79
696.55	559.45
696.88	555.50
697.22	551.62
697.56	548.40
697.89	544.55
698.23	541.00
698.56	536.67
698.90	533.40
699.23	529.90
699.57	525.81
699.90	521.71
700.24	517.55
700.58	514.26
700.91	511.14
701.25	509.76
701.58	507.12
701.92	504.31
702.25	500.93
702.59	497.43
702.92	494.14
703.26	490.86
703.59	487.74
703.93	486.40
704.26	483.52
704.60	479.79
704.93	476.95
705.26	473.81
705.60	471.36
705.93	467.98
706.27	465.74
706.60	463.38
706.94	461.02
707.27	457.86
707.61	454.71
707.94	451.83
708.27	447.60
708.61	443.83
708.94	440.64
709.28	438.02
709.61	435.33
709.94	433.21
710.28	430.90
710.61	428.48
710.95	424.05
711.28	422.55
711.61	419.88
711.95	418.05
712.28	415.36
712.61	412.90
712.95	411.74
713.28	409.90
713.61	407.29
713.95	404.81
714.28	402.64
714.61	400.31
714.95	398.02
715.28	395.38
715.61	392.83
715.95	391.00
716.28	388.48
716.61	386.83
716.95	384.26
717.28	382.07
717.61	379.90
717.94	377.55
718.28	374.26
718.61	372.36
718.94	369.81
719.27	367.79
719.61	365.57
719.94	362.90
720.27	359.57
720.60	357.55
720.94	355.55
721.27	353.71
721.60	352.38
721.93	350.33
722.27	349.52
722.60	348.26
722.93	346.40
723.26	344.98
723.59	342.90
723.93	341.60
724.26	340.07
724.59	338.90
724.92	337.86
725.25	336.48
725.59	335.19
725.92	333.86
726.25	332.76
726.58	331.57
726.91	330.29
727.24	329.79
727.57	328.10
727.91	326.48
728.24	325.38
728.57	324.02
728.90	323.10
729.23	320.86
729.56	320.26
729.89	319.14
730.22	318.10
730.55	316.83
730.89	315.88
731.22	314.43
731.55	312.83
731.88	311.69
732.21	310.60
732.54	309.10
732.87	308.14
733.20	307.24
733.53	306.26
733.86	305.24
734.19	303.57
734.52	303.38
734.85	303.93
735.18	302.76
735.51	302.17
735.84	301.43
736.17	301.45
736.50	299.79
736.83	301.02
737.16	300.12
737.49	299.24
737.82	297.95
738.15	297.57
738.48	296.55
738.81	295.40
739.14	294.14
739.47	292.95
739.80	291.81
740.13	290.88
740.46	289.67
740.79	288.40
741.12	287.60
741.45	286.19
741.78	284.38
742.11	284.07
742.44	282.90
742.77	282.17
743.10	280.93
743.43	280.00
743.75	277.05
744.08	278.79
744.41	278.17
744.74	277.31
745.07	276.05
745.40	275.79
745.73	276.00
746.06	275.36
746.39	275.07
746.71	274.14
747.04	272.76
747.37	271.95
747.70	271.67
748.03	271.19
748.36	271.02
748.68	270.07
749.01	268.76
749.34	268.19
749.67	267.62
750.00	267.12
750.33	268.12
750.65	267.69
750.98	264.74
751.31	264.12
751.64	263.79
751.97	264.43
752.29	263.69
752.62	262.26
752.95	261.50
753.28	260.98
753.60	260.29
753.93	260.33
754.26	260.02
754.59	258.71
754.91	257.71
755.24	256.90
755.57	256.57
755.90	255.93
756.22	255.17
756.55	254.21
756.88	253.48
757.20	251.69
757.53	250.38
757.86	249.83
758.19	249.31
758.51	248.71
758.84	247.14
759.17	246.55
759.49	246.17
759.82	246.79
760.15	246.29
760.47	246.00
760.80	245.19
761.13	245.07
761.45	244.90
761.78	244.62
762.11	244.14
762.43	243.52
762.76	243.12
763.08	242.98
763.41	242.81
763.74	242.33
764.06	241.93
764.39	241.76
764.71	241.38
765.04	240.76
765.37	240.43
765.69	240.14
766.02	239.71
766.34	239.10
766.67	237.95
767.00	237.98
767.32	238.93
767.65	239.74
767.97	239.19
768.30	239.07
768.62	239.07
768.95	238.74
769.27	238.29
769.60	238.31
769.92	237.60
770.25	236.98
770.57	236.24
770.90	235.79
771.22	235.52
771.55	235.14
771.87	235.10
772.20	234.50
772.52	235.48
772.85	237.71
773.17	237.81
773.50	237.45
773.82	236.90
774.15	235.57
774.47	234.07
774.80	233.71
775.12	233.43
775.45	232.90
775.77	232.69
776.09	232.83
776.42	232.55
776.74	232.95
777.07	232.64
777.39	232.90
777.72	232.60
778.04	232.83
778.36	232.55
778.69	232.45
779.01	232.55
779.33	231.12
779.66	228.71
779.98	228.31
780.31	228.40
780.63	229.02
780.95	229.12
781.28	229.05
781.60	228.76
781.92	228.60
782.25	228.45
782.57	228.29
782.89	227.79
783.22	227.62
783.54	226.93
783.86	227.12
784.19	226.74
784.51	227.29
784.83	226.81
