SpectraSuite Data File
++++++++++++++++++++++++++++++++++++
Date: Tue Apr 02 18:43:38 EDT 2013
User: group
Dark Spectrum Present: No
Reference Spectrum Present: No
Number of Sampled Component Spectra: 1
Spectrometers: USB2E7196
Integration Time (usec): 580000 (USB2E7196)
Spectra Averaged: 2 (USB2E7196)
Boxcar Smoothing: 10 (USB2E7196)
Correct for Electrical Dark: No (USB2E7196)
Strobe/Lamp Enabled: No (USB2E7196)
Correct for Detector Non-linearity: No (USB2E7196)
Correct for Stray Light: No (USB2E7196)
Number of Pixels in Processed Spectrum: 2048
>>>>>Begin Processed Spectral Data<<<<<
339.09	0.00
339.48	196.00
339.86	195.00
340.24	198.00
340.63	197.00
341.01	233.50
341.39	203.50
341.78	208.00
342.16	214.00
342.54	209.50
342.93	198.93
343.31	208.88
343.69	209.19
344.07	209.64
344.46	210.40
344.84	211.10
345.22	209.83
345.60	210.02
345.99	210.31
346.37	210.10
346.75	210.17
347.13	210.24
347.52	210.45
347.90	211.12
348.28	211.14
348.66	211.62
349.05	211.02
349.43	211.24
349.81	211.33
350.19	211.31
350.57	211.24
350.96	211.45
351.34	211.48
351.72	211.83
352.10	212.10
352.48	211.76
352.87	211.76
353.25	211.90
353.63	211.90
354.01	211.76
354.39	211.98
354.77	211.93
355.15	212.55
355.54	212.40
355.92	211.69
356.30	211.86
356.68	213.14
357.06	213.43
357.44	213.33
357.82	213.26
358.20	214.36
358.58	214.57
358.97	214.62
359.35	215.10
359.73	215.57
360.11	215.33
360.49	215.69
360.87	215.76
361.25	216.14
361.63	217.02
362.01	217.12
362.39	216.98
362.77	217.10
363.15	216.98
363.53	217.14
363.91	217.31
364.29	217.26
364.67	215.33
365.05	215.29
365.43	215.57
365.81	215.83
366.19	216.00
366.57	216.52
366.95	216.62
367.33	215.95
367.71	215.71
368.09	216.26
368.47	216.07
368.85	215.95
369.23	216.17
369.61	215.36
369.99	216.02
370.37	216.26
370.75	217.36
371.13	217.10
371.51	216.45
371.89	216.55
372.27	216.64
372.65	216.83
373.03	216.81
373.41	216.48
373.78	216.24
374.16	215.21
374.54	214.62
374.92	214.40
375.30	214.45
375.68	214.24
376.06	214.38
376.44	214.31
376.82	214.52
377.19	214.64
377.57	214.52
377.95	213.88
378.33	213.79
378.71	212.52
379.09	212.86
379.47	213.21
379.84	213.19
380.22	213.00
380.60	212.57
380.98	212.67
381.36	212.69
381.73	212.50
382.11	212.74
382.49	212.62
382.87	212.33
383.25	212.55
383.62	214.67
384.00	214.40
384.38	214.36
384.76	214.71
385.13	215.14
385.51	215.36
385.89	215.19
386.27	215.38
386.64	215.74
387.02	215.52
387.40	215.64
387.78	215.83
388.15	216.05
388.53	216.29
388.91	216.24
389.29	216.07
389.66	216.45
390.04	216.00
390.42	216.62
390.79	216.76
391.17	216.71
391.55	214.60
391.92	214.45
392.30	214.86
392.68	214.24
393.05	214.14
393.43	214.14
393.81	214.12
394.18	213.90
394.56	214.07
394.94	214.50
395.31	214.05
395.69	214.71
396.06	215.00
396.44	214.90
396.82	214.60
397.19	215.69
397.57	215.48
397.95	215.95
398.32	215.38
398.70	215.55
399.07	216.05
399.45	216.02
399.82	216.05
400.20	215.90
400.58	216.00
400.95	215.24
401.33	215.69
401.70	217.12
402.08	216.98
402.45	216.74
402.83	217.07
403.20	217.40
403.58	217.02
403.95	217.38
404.33	217.93
404.71	218.38
405.08	219.57
405.46	220.14
405.83	220.62
406.21	220.95
406.58	221.57
406.96	221.60
407.33	222.29
407.70	223.07
408.08	225.17
408.45	225.93
408.83	226.88
409.20	227.36
409.58	226.95
409.95	228.38
410.33	229.07
410.70	229.24
411.08	230.45
411.45	231.50
411.82	232.21
412.20	233.64
412.57	235.93
412.95	235.60
413.32	237.12
413.69	238.40
414.07	240.17
414.44	241.93
414.82	244.36
415.19	246.88
415.56	249.02
415.94	250.21
416.31	253.21
416.68	256.12
417.06	259.43
417.43	263.29
417.81	266.29
418.18	270.36
418.55	274.43
418.93	278.60
419.30	282.93
419.67	287.33
420.04	292.02
420.42	296.29
420.79	303.69
421.16	309.14
421.54	315.88
421.91	321.98
422.28	327.98
422.66	334.05
423.03	341.90
423.40	348.86
423.77	355.93
424.15	363.05
424.52	370.55
424.89	379.02
425.26	386.69
425.64	394.57
426.01	402.50
426.38	411.45
426.75	420.64
427.13	429.50
427.50	438.76
427.87	448.67
428.24	458.57
428.61	466.57
428.99	477.81
429.36	488.40
429.73	499.90
430.10	511.62
430.47	523.43
430.85	533.76
431.22	545.98
431.59	560.43
431.96	573.19
432.33	587.62
432.70	600.88
433.08	616.76
433.45	631.71
433.82	647.17
434.19	664.02
434.56	680.60
434.93	696.26
435.30	712.81
435.68	730.07
436.05	747.69
436.42	764.24
436.79	780.38
437.16	797.52
437.53	815.24
437.90	832.40
438.27	850.62
438.64	868.83
439.01	886.10
439.38	900.07
439.75	915.21
440.13	931.74
440.50	948.21
440.87	960.76
441.24	974.07
441.61	988.40
441.98	999.33
442.35	1011.21
442.72	1023.98
443.09	1037.10
443.46	1044.67
443.83	1049.88
444.20	1055.17
444.57	1060.40
444.94	1063.79
445.31	1067.10
445.68	1073.62
446.05	1074.81
446.42	1073.19
446.79	1072.17
447.16	1070.74
447.53	1069.43
447.90	1063.17
448.27	1056.10
448.64	1047.67
449.01	1042.05
449.37	1031.36
449.74	1020.24
450.11	1009.38
450.48	995.48
450.85	979.52
451.22	967.02
451.59	954.93
451.96	943.79
452.33	928.90
452.70	914.76
453.07	897.52
453.43	877.40
453.80	861.12
454.17	845.36
454.54	829.57
454.91	813.29
455.28	796.95
455.65	782.24
456.02	771.10
456.38	758.55
456.75	742.57
457.12	729.21
457.49	716.60
457.86	702.36
458.23	692.45
458.59	681.05
458.96	669.21
459.33	658.31
459.70	647.36
460.07	638.69
460.43	628.86
460.80	620.40
461.17	612.98
461.54	604.71
461.91	597.00
462.27	589.07
462.64	581.71
463.01	574.29
463.38	567.69
463.74	556.60
464.11	550.00
464.48	544.88
464.85	538.60
465.21	534.10
465.58	529.33
465.95	522.45
466.32	517.02
466.68	511.74
467.05	506.57
467.42	501.74
467.78	496.36
468.15	491.67
468.52	488.10
468.88	482.81
469.25	477.74
469.62	474.40
469.98	470.43
470.35	466.90
470.72	463.55
471.08	458.40
471.45	455.64
471.82	452.86
472.18	449.00
472.55	446.19
472.92	442.64
473.28	439.57
473.65	436.67
474.02	434.62
474.38	432.79
474.75	431.29
475.11	429.02
475.48	427.57
475.85	425.74
476.21	423.62
476.58	422.45
476.94	421.60
477.31	420.14
477.67	419.05
478.04	417.98
478.41	417.31
478.77	418.98
479.14	417.57
479.50	416.86
479.87	416.31
480.23	416.24
480.60	415.29
480.96	414.83
481.33	415.93
481.69	415.71
482.06	415.57
482.42	415.76
482.79	415.95
483.15	415.93
483.52	416.69
483.88	417.17
484.25	417.52
484.61	418.36
484.98	419.21
485.34	420.93
485.71	422.21
486.07	423.38
486.44	423.10
486.80	424.86
487.17	426.21
487.53	428.88
487.90	431.40
488.26	434.62
488.62	437.21
488.99	438.83
489.35	441.31
489.72	444.21
490.08	446.52
490.44	449.31
490.81	452.95
491.17	455.76
491.54	459.71
491.90	463.48
492.26	466.88
492.63	470.29
492.99	473.52
493.36	478.12
493.72	482.43
494.08	486.98
494.45	492.33
494.81	497.50
495.17	501.43
495.54	506.33
495.90	511.24
496.26	516.67
496.63	522.10
496.99	527.31
497.35	532.95
497.72	539.21
498.08	544.93
498.44	551.21
498.80	557.95
499.17	563.64
499.53	569.81
499.89	577.02
500.26	583.98
500.62	590.86
500.98	597.45
501.34	604.50
501.71	611.98
502.07	619.10
502.43	625.95
502.79	632.88
503.16	639.69
503.52	646.83
503.88	653.64
504.24	661.12
504.60	668.98
504.97	676.48
505.33	683.98
505.69	692.50
506.05	699.74
506.41	707.33
506.78	714.98
507.14	722.40
507.50	729.88
507.86	737.40
508.22	745.40
508.59	752.52
508.95	760.24
509.31	768.55
509.67	776.00
510.03	783.83
510.39	792.60
510.75	800.48
511.12	807.60
511.48	815.52
511.84	822.64
512.20	830.31
512.56	837.95
512.92	845.81
513.28	853.17
513.64	860.45
514.00	867.40
514.37	875.38
514.73	882.93
515.09	889.83
515.45	896.86
515.81	903.98
516.17	911.14
516.53	917.64
516.89	923.31
517.25	929.90
517.61	936.02
517.97	941.79
518.33	948.02
518.69	955.12
519.05	961.33
519.41	968.21
519.77	975.40
520.13	981.71
520.49	986.95
520.85	992.52
521.21	999.14
521.57	1005.33
521.93	1010.12
522.29	1015.98
522.65	1021.48
523.01	1027.21
523.37	1031.60
523.73	1037.60
524.09	1042.26
524.45	1047.48
524.81	1052.07
525.17	1057.62
525.53	1062.64
525.89	1067.50
526.25	1072.05
526.61	1076.43
526.97	1079.88
527.33	1083.60
527.68	1089.69
528.04	1094.43
528.40	1098.48
528.76	1102.69
529.12	1106.67
529.48	1112.02
529.84	1115.71
530.20	1119.71
530.56	1123.95
530.91	1128.90
531.27	1132.93
531.63	1138.02
531.99	1141.57
532.35	1145.52
532.71	1148.79
533.07	1153.05
533.42	1159.29
533.78	1163.29
534.14	1168.36
534.50	1173.00
534.86	1177.81
535.21	1179.19
535.57	1183.36
535.93	1186.95
536.29	1191.19
536.65	1195.19
537.00	1197.57
537.36	1201.45
537.72	1205.05
538.08	1208.64
538.44	1211.69
538.79	1215.00
539.15	1217.60
539.51	1221.48
539.87	1225.33
540.22	1229.48
540.58	1232.81
540.94	1234.43
541.29	1237.86
541.65	1239.88
542.01	1243.02
542.37	1244.62
542.72	1247.40
543.08	1249.40
543.44	1252.64
543.79	1253.67
544.15	1256.69
544.51	1260.60
544.87	1263.60
545.22	1267.10
545.58	1269.71
545.94	1272.76
546.29	1275.67
546.65	1278.83
547.01	1280.86
547.36	1283.74
547.72	1285.74
548.07	1289.14
548.43	1291.36
548.79	1293.40
549.14	1296.19
549.50	1298.86
549.86	1301.50
550.21	1304.79
550.57	1308.17
550.92	1311.31
551.28	1315.67
551.64	1318.74
551.99	1321.38
552.35	1324.29
552.70	1326.69
553.06	1330.14
553.41	1332.71
553.77	1336.55
554.13	1340.38
554.48	1344.48
554.84	1349.50
555.19	1353.33
555.55	1357.38
555.90	1360.24
556.26	1364.36
556.61	1367.76
556.97	1371.24
557.32	1375.60
557.68	1379.26
558.03	1383.38
558.39	1386.38
558.74	1389.48
559.10	1392.90
559.45	1397.38
559.81	1402.10
560.16	1405.62
560.52	1409.93
560.87	1415.19
561.23	1418.29
561.58	1423.19
561.94	1425.81
562.29	1428.45
562.64	1432.95
563.00	1436.12
563.35	1441.50
563.71	1446.24
564.06	1451.45
564.42	1456.48
564.77	1461.81
565.12	1467.76
565.48	1474.90
565.83	1481.86
566.19	1487.90
566.54	1493.60
566.89	1498.79
567.25	1504.48
567.60	1512.05
567.96	1519.43
568.31	1526.29
568.66	1533.45
569.02	1537.60
569.37	1544.45
569.72	1550.14
570.08	1555.76
570.43	1560.93
570.78	1567.12
571.14	1572.45
571.49	1577.40
571.84	1582.76
572.20	1587.57
572.55	1592.90
572.90	1595.83
573.26	1600.00
573.61	1604.62
573.96	1609.21
574.31	1613.81
574.67	1617.40
575.02	1620.71
575.37	1622.81
575.72	1624.79
576.08	1628.17
576.43	1632.17
576.78	1635.74
577.13	1639.64
577.49	1644.12
577.84	1648.67
578.19	1651.60
578.54	1655.83
578.90	1660.48
579.25	1664.40
579.60	1667.76
579.95	1670.29
580.30	1674.12
580.66	1678.05
581.01	1681.29
581.36	1684.64
581.71	1687.64
582.06	1691.79
582.42	1695.71
582.77	1698.95
583.12	1702.14
583.47	1704.43
583.82	1708.17
584.17	1711.83
584.53	1714.79
584.88	1717.02
585.23	1720.33
585.58	1722.76
585.93	1724.00
586.28	1726.43
586.63	1729.38
586.98	1732.40
587.34	1735.57
587.69	1737.64
588.04	1739.76
588.39	1741.48
588.74	1742.00
589.09	1744.14
589.44	1745.12
589.79	1747.48
590.14	1749.71
590.49	1751.90
590.84	1753.62
591.19	1755.17
591.54	1756.50
591.89	1757.79
592.25	1760.93
592.60	1761.62
592.95	1763.71
593.30	1766.83
593.65	1768.02
594.00	1768.07
594.35	1774.60
594.70	1774.81
595.05	1775.60
595.40	1775.95
595.75	1777.07
596.10	1779.50
596.45	1780.95
596.80	1782.29
597.15	1782.00
597.50	1781.98
597.85	1782.90
598.19	1783.98
598.54	1784.64
598.89	1785.10
599.24	1786.60
599.59	1786.12
599.94	1786.62
600.29	1787.10
600.64	1786.36
600.99	1786.36
601.34	1787.05
601.69	1781.38
602.04	1781.10
602.39	1780.74
602.74	1780.90
603.08	1780.79
603.43	1781.52
603.78	1780.88
604.13	1780.62
604.48	1780.14
604.83	1780.64
605.18	1780.76
605.53	1780.31
605.87	1778.86
606.22	1777.33
606.57	1775.33
606.92	1773.45
607.27	1772.62
607.62	1771.88
607.96	1770.83
608.31	1770.10
608.66	1768.98
609.01	1767.10
609.36	1766.55
609.70	1765.52
610.05	1763.36
610.40	1761.45
610.75	1758.21
611.10	1756.21
611.44	1752.79
611.79	1750.43
612.14	1747.38
612.49	1742.79
612.83	1739.05
613.18	1736.31
613.53	1733.31
613.88	1730.19
614.22	1726.74
614.57	1722.71
614.92	1718.24
615.27	1715.33
615.61	1710.76
615.96	1706.38
616.31	1702.79
616.65	1700.29
617.00	1696.69
617.35	1693.43
617.70	1690.14
618.04	1686.17
618.39	1681.71
618.74	1678.31
619.08	1673.60
619.43	1669.98
619.78	1666.69
620.12	1663.71
620.47	1660.43
620.82	1656.57
621.16	1652.29
621.51	1649.33
621.85	1645.67
622.20	1641.79
622.55	1637.00
622.89	1633.00
623.24	1629.88
623.59	1626.12
623.93	1620.79
624.28	1616.67
624.62	1614.90
624.97	1612.29
625.32	1608.48
625.66	1604.64
626.01	1600.67
626.35	1598.24
626.70	1594.55
627.04	1592.57
627.39	1588.24
627.73	1585.43
628.08	1582.12
628.43	1578.02
628.77	1573.69
629.12	1570.10
629.46	1566.38
629.81	1563.00
630.15	1558.67
630.50	1554.17
630.84	1549.29
631.19	1544.48
631.53	1539.31
631.88	1531.29
632.22	1523.67
632.57	1519.38
632.91	1514.69
633.26	1510.43
633.60	1504.07
633.95	1498.26
634.29	1491.76
634.64	1486.76
634.98	1480.79
635.32	1477.50
635.67	1473.74
636.01	1469.90
636.36	1463.81
636.70	1459.71
637.05	1454.29
637.39	1450.45
637.73	1445.81
638.08	1441.74
638.42	1436.98
638.77	1433.05
639.11	1428.76
639.45	1424.90
639.80	1419.86
640.14	1415.12
640.49	1409.62
640.83	1404.74
641.17	1400.50
641.52	1394.98
641.86	1390.07
642.20	1385.60
642.55	1378.60
642.89	1373.00
643.23	1366.38
643.58	1361.88
643.92	1355.36
644.26	1349.21
644.61	1343.24
644.95	1337.21
645.29	1330.64
645.64	1326.05
645.98	1319.69
646.32	1314.71
646.66	1308.48
647.01	1301.74
647.35	1296.07
647.69	1289.76
648.04	1284.19
648.38	1278.10
648.72	1272.81
649.06	1266.81
649.41	1259.83
649.75	1253.93
650.09	1247.50
650.43	1240.62
650.78	1233.93
651.12	1227.74
651.46	1221.67
651.80	1215.40
652.14	1209.43
652.49	1204.00
652.83	1196.93
653.17	1189.86
653.51	1182.71
653.85	1176.69
654.20	1170.29
654.54	1162.88
654.88	1156.88
655.22	1150.55
655.56	1143.81
655.90	1136.69
656.25	1130.31
656.59	1124.24
656.93	1117.71
657.27	1112.17
657.61	1105.90
657.95	1100.17
658.29	1093.24
658.64	1087.29
658.98	1080.64
659.32	1073.79
659.66	1066.79
660.00	1060.60
660.34	1054.74
660.68	1049.17
661.02	1042.10
661.36	1036.29
661.70	1030.43
662.05	1023.88
662.39	1017.95
662.73	1012.24
663.07	1007.31
663.41	1001.07
663.75	994.71
664.09	988.95
664.43	982.21
664.77	976.29
665.11	970.02
665.45	964.45
665.79	958.90
666.13	953.00
666.47	947.45
666.81	942.10
667.15	935.81
667.49	930.79
667.83	925.05
668.17	920.10
668.51	914.76
668.85	909.60
669.19	905.31
669.53	899.29
669.87	893.02
670.21	886.64
670.55	880.69
670.89	875.88
671.23	870.36
671.57	864.86
671.91	859.71
672.25	853.71
672.58	849.55
672.92	843.38
673.26	838.10
673.60	832.43
673.94	826.76
674.28	821.40
674.62	816.48
674.96	810.98
675.30	806.02
675.64	801.05
675.97	795.64
676.31	789.98
676.65	784.69
676.99	780.62
677.33	775.52
677.67	771.10
678.01	765.69
678.34	760.64
678.68	756.62
679.02	751.17
679.36	746.55
679.70	740.93
680.04	736.40
680.37	731.33
680.71	726.43
681.05	722.26
681.39	717.79
681.73	712.33
682.06	706.98
682.40	702.64
682.74	698.45
683.08	694.50
683.42	690.07
683.75	685.88
684.09	680.98
684.43	676.55
684.77	671.81
685.10	666.86
685.44	662.60
685.78	657.45
686.12	653.19
686.45	648.48
686.79	643.45
687.13	639.57
687.46	635.38
687.80	632.12
688.14	627.43
688.48	623.40
688.81	618.83
689.15	615.62
689.49	611.00
689.82	606.02
690.16	601.21
690.50	596.52
690.83	592.21
691.17	587.38
691.51	582.95
691.84	579.19
692.18	575.33
692.52	571.29
692.85	567.48
693.19	564.74
693.52	561.05
693.86	557.07
694.20	552.83
694.53	549.07
694.87	544.43
695.21	540.55
695.54	536.76
695.88	533.45
696.21	528.90
696.55	525.12
696.88	521.95
697.22	518.02
697.56	514.93
697.89	511.26
698.23	508.36
698.56	504.93
698.90	501.26
699.23	497.29
699.57	493.76
699.90	489.88
700.24	485.88
700.58	483.02
700.91	480.10
701.25	478.43
701.58	476.17
701.92	473.83
702.25	470.90
702.59	467.31
702.92	464.33
703.26	461.93
703.59	458.79
703.93	457.10
704.26	454.81
704.60	451.60
704.93	448.57
705.26	445.60
705.60	443.29
705.93	440.31
706.27	438.50
706.60	435.90
706.94	434.33
707.27	431.26
707.61	428.43
707.94	425.64
708.27	421.21
708.61	417.50
708.94	414.69
709.28	412.40
709.61	410.05
709.94	407.64
710.28	404.98
710.61	402.64
710.95	398.67
711.28	397.62
711.61	395.45
711.95	393.67
712.28	391.00
712.61	388.29
712.95	387.19
713.28	385.57
713.61	383.29
713.95	380.48
714.28	378.74
714.61	376.81
714.95	374.90
715.28	373.21
715.61	371.57
715.95	369.29
716.28	366.98
716.61	365.48
716.95	363.24
717.28	361.14
717.61	359.48
717.94	357.55
718.28	354.07
718.61	352.21
718.94	350.31
719.27	348.67
719.61	347.36
719.94	345.19
720.27	342.62
720.60	340.81
720.94	339.19
721.27	337.76
721.60	336.33
721.93	334.60
722.27	333.33
722.60	332.07
722.93	330.40
723.26	329.12
723.59	327.29
723.93	326.24
724.26	325.36
724.59	323.95
724.92	322.83
725.25	322.10
725.59	320.88
725.92	319.64
726.25	318.40
726.58	317.31
726.91	315.79
727.24	314.67
727.57	313.60
727.91	312.00
728.24	310.93
728.57	309.36
728.90	308.57
729.23	306.90
729.56	306.36
729.89	305.52
730.22	304.19
730.55	303.19
730.89	302.21
731.22	300.86
731.55	299.74
731.88	298.98
732.21	297.76
732.54	296.67
732.87	295.83
733.20	294.98
733.53	293.86
733.86	293.31
734.19	292.07
734.52	291.67
734.85	292.17
735.18	291.14
735.51	290.93
735.84	290.33
736.17	290.29
736.50	288.48
736.83	289.98
737.16	289.19
737.49	288.38
737.82	287.31
738.15	286.90
738.48	286.10
738.81	284.95
739.14	283.83
739.47	282.93
739.80	282.00
740.13	281.40
740.46	280.48
740.79	279.21
741.12	278.67
741.45	277.40
741.78	275.76
742.11	275.43
742.44	274.26
742.77	273.81
743.10	272.90
743.43	272.17
743.75	269.40
744.08	271.48
744.41	270.57
744.74	270.00
745.07	268.62
745.40	268.29
745.73	268.52
746.06	268.10
746.39	267.86
746.71	267.12
747.04	266.07
747.37	265.45
747.70	265.43
748.03	264.95
748.36	264.69
748.68	264.21
749.01	263.07
749.34	262.36
749.67	261.57
750.00	261.12
750.33	261.86
750.65	261.38
750.98	258.26
751.31	257.86
751.64	257.38
751.97	258.40
752.29	257.79
752.62	256.57
752.95	255.83
753.28	254.93
753.60	254.40
753.93	254.69
754.26	254.31
754.59	253.12
754.91	252.29
755.24	251.40
755.57	250.64
755.90	250.14
756.22	249.43
756.55	248.74
756.88	247.74
757.20	246.26
757.53	245.33
757.86	245.00
758.19	244.98
758.51	244.48
758.84	242.79
759.17	242.31
759.49	241.74
759.82	242.21
760.15	242.31
760.47	241.95
760.80	240.98
761.13	241.00
761.45	240.62
761.78	240.19
762.11	240.05
762.43	239.64
762.76	239.31
763.08	239.55
763.41	239.33
763.74	239.21
764.06	238.95
764.39	238.64
764.71	238.29
765.04	237.43
765.37	236.93
765.69	236.64
766.02	236.12
766.34	235.93
766.67	234.93
767.00	234.79
767.32	235.69
767.65	236.71
767.97	236.19
768.30	236.02
768.62	236.05
768.95	235.69
769.27	235.45
769.60	235.50
769.92	234.83
770.25	234.12
770.57	233.36
770.90	232.95
771.22	232.60
771.55	232.17
771.87	232.36
772.20	232.07
772.52	233.52
772.85	236.05
773.17	235.81
773.50	235.69
773.82	234.98
774.15	233.79
774.47	232.07
774.80	231.69
775.12	231.55
775.45	231.14
775.77	230.98
776.09	230.81
776.42	230.43
776.74	230.69
777.07	230.45
777.39	230.55
777.72	230.24
778.04	230.38
778.36	230.31
778.69	229.74
779.01	229.76
779.33	227.76
779.66	225.29
779.98	224.86
780.31	224.67
780.63	225.45
780.95	225.50
781.28	225.48
781.60	225.07
781.92	224.95
782.25	224.88
782.57	224.86
782.89	224.74
783.22	224.40
783.54	224.12
783.86	224.26
784.19	224.05
784.51	224.31
784.83	223.69
785.16	223.45
