SpectraSuite Data File
++++++++++++++++++++++++++++++++++++
Date: Tue Apr 02 18:37:58 EDT 2013
User: group
Dark Spectrum Present: No
Reference Spectrum Present: No
Number of Sampled Component Spectra: 1
Spectrometers: USB2E7196
Integration Time (usec): 580000 (USB2E7196)
Spectra Averaged: 2 (USB2E7196)
Boxcar Smoothing: 10 (USB2E7196)
Correct for Electrical Dark: No (USB2E7196)
Strobe/Lamp Enabled: No (USB2E7196)
Correct for Detector Non-linearity: No (USB2E7196)
Correct for Stray Light: No (USB2E7196)
Number of Pixels in Processed Spectrum: 2048
>>>>>Begin Processed Spectral Data<<<<<
339.09	0.00
339.48	193.50
339.86	194.50
340.24	195.50
340.63	197.50
341.01	231.00
341.39	203.00
341.78	208.00
342.16	208.50
342.54	204.00
342.93	197.29
343.31	206.90
343.69	207.36
344.07	207.93
344.46	208.60
344.84	209.31
345.22	208.05
345.60	208.33
345.99	208.57
346.37	208.55
346.75	208.69
347.13	208.74
347.52	208.76
347.90	209.33
348.28	209.45
348.66	210.05
349.05	209.55
349.43	209.88
349.81	210.26
350.19	210.07
350.57	209.86
350.96	210.07
351.34	210.69
351.72	211.07
352.10	211.21
352.48	211.00
352.87	210.67
353.25	211.02
353.63	211.05
354.01	210.86
354.39	211.14
354.77	211.29
355.15	211.81
355.54	211.71
355.92	211.21
356.30	211.19
356.68	212.38
357.06	212.60
357.44	212.36
357.82	212.33
358.20	213.52
358.58	213.64
358.97	213.83
359.35	214.36
359.73	214.79
360.11	214.64
360.49	215.05
360.87	215.36
361.25	215.55
361.63	216.17
362.01	216.52
362.39	216.55
362.77	216.69
363.15	216.74
363.53	216.90
363.91	217.19
364.29	217.33
364.67	215.36
365.05	215.29
365.43	215.76
365.81	216.07
366.19	216.33
366.57	217.45
366.95	217.40
367.33	216.86
367.71	216.64
368.09	217.14
368.47	217.12
368.85	217.00
369.23	217.38
369.61	216.69
369.99	217.17
370.37	217.43
370.75	218.48
371.13	218.33
371.51	218.02
371.89	218.02
372.27	218.17
372.65	218.57
373.03	218.83
373.41	218.62
373.78	218.74
374.16	217.50
374.54	216.64
374.92	216.43
375.30	216.48
375.68	216.12
376.06	216.29
376.44	216.26
376.82	216.48
377.19	216.38
377.57	216.48
377.95	215.76
378.33	215.45
378.71	214.02
379.09	214.21
379.47	214.50
379.84	214.62
380.22	214.43
380.60	214.14
380.98	214.00
381.36	213.74
381.73	213.12
382.11	213.71
382.49	213.88
382.87	213.69
383.25	213.52
383.62	216.12
384.00	215.57
384.38	215.60
384.76	216.14
385.13	216.79
385.51	216.74
385.89	216.57
386.27	216.45
386.64	217.12
387.02	216.86
387.40	216.52
387.78	216.45
388.15	216.55
388.53	216.38
388.91	216.36
389.29	216.24
389.66	216.71
390.04	216.36
390.42	216.48
390.79	216.74
391.17	216.81
391.55	214.40
391.92	214.57
392.30	214.74
392.68	214.10
393.05	214.05
393.43	214.21
393.81	214.38
394.18	214.31
394.56	214.24
394.94	214.52
395.31	214.64
395.69	215.02
396.06	215.29
396.44	215.33
396.82	215.26
397.19	216.45
397.57	216.19
397.95	216.60
398.32	216.00
398.70	215.81
399.07	216.19
399.45	216.31
399.82	216.14
400.20	215.98
400.58	215.95
400.95	215.19
401.33	215.64
401.70	217.19
402.08	217.45
402.45	217.33
402.83	217.86
403.20	218.14
403.58	218.33
403.95	218.81
404.33	219.43
404.71	219.76
405.08	220.79
405.46	221.17
405.83	221.40
406.21	221.88
406.58	222.76
406.96	223.21
407.33	223.90
407.70	224.79
408.08	227.02
408.45	227.95
408.83	229.02
409.20	229.43
409.58	229.07
409.95	230.19
410.33	231.24
410.70	231.71
411.08	233.31
411.45	234.40
411.82	235.26
412.20	236.86
412.57	239.33
412.95	239.31
413.32	241.57
413.69	243.43
414.07	245.48
414.44	247.33
414.82	249.55
415.19	252.26
415.56	255.00
415.94	256.74
416.31	260.12
416.68	263.40
417.06	267.12
417.43	270.95
417.81	274.81
418.18	279.38
418.55	283.83
418.93	288.55
419.30	293.36
419.67	298.76
420.04	304.05
420.42	309.60
420.79	317.95
421.16	324.40
421.54	332.02
421.91	339.33
422.28	346.83
422.66	354.40
423.03	363.14
423.40	370.98
423.77	379.76
424.15	388.31
424.52	397.26
424.89	407.07
425.26	416.64
425.64	425.57
426.01	435.17
426.38	445.62
426.75	456.48
427.13	467.81
427.50	479.10
427.87	490.60
428.24	501.93
428.61	511.93
428.99	525.21
429.36	538.26
429.73	551.55
430.10	564.76
430.47	578.95
430.85	591.62
431.22	606.71
431.59	623.52
431.96	638.24
432.33	654.88
432.70	671.19
433.08	690.24
433.45	708.64
433.82	726.67
434.19	747.00
434.56	766.60
434.93	785.38
435.30	803.33
435.68	825.10
436.05	845.88
436.42	866.38
436.79	885.62
437.16	905.98
437.53	927.93
437.90	949.81
438.27	971.36
438.64	993.71
439.01	1014.95
439.38	1032.50
439.75	1050.55
440.13	1070.98
440.50	1090.52
440.87	1106.05
441.24	1122.57
441.61	1140.90
441.98	1154.05
442.35	1168.69
442.72	1184.33
443.09	1201.64
443.46	1211.00
443.83	1217.86
444.20	1224.02
444.57	1230.71
444.94	1234.95
445.31	1239.48
445.68	1245.88
446.05	1247.31
446.42	1246.33
446.79	1244.33
447.16	1241.98
447.53	1241.55
447.90	1234.31
448.27	1226.29
448.64	1216.00
449.01	1208.79
449.37	1195.31
449.74	1182.05
450.11	1168.55
450.48	1151.00
450.85	1132.88
451.22	1118.07
451.59	1103.55
451.96	1089.83
452.33	1071.48
452.70	1054.38
453.07	1033.88
453.43	1010.95
453.80	991.38
454.17	971.79
454.54	953.86
454.91	934.45
455.28	914.64
455.65	897.00
456.02	882.60
456.38	867.50
456.75	848.71
457.12	833.00
457.49	817.95
457.86	801.74
458.23	790.33
458.59	775.90
458.96	761.40
459.33	748.81
459.70	736.43
460.07	726.79
460.43	715.21
460.80	704.95
461.17	696.02
461.54	685.76
461.91	676.64
462.27	666.52
462.64	657.74
463.01	649.62
463.38	641.14
463.74	629.07
464.11	621.24
464.48	614.36
464.85	607.05
465.21	601.50
465.58	595.74
465.95	587.05
466.32	581.07
466.68	574.93
467.05	568.76
467.42	562.33
467.78	555.69
468.15	549.74
468.52	544.93
468.88	538.57
469.25	533.40
469.62	529.52
469.98	524.90
470.35	521.26
470.72	516.69
471.08	511.67
471.45	509.17
471.82	505.45
472.18	501.50
472.55	498.31
472.92	494.17
473.28	490.26
473.65	487.12
474.02	484.17
474.38	481.71
474.75	479.57
475.11	477.02
475.48	475.21
475.85	473.21
476.21	471.00
476.58	469.60
476.94	468.12
477.31	466.50
477.67	465.05
478.04	463.69
478.41	462.81
478.77	464.21
479.14	462.74
479.50	462.86
479.87	462.45
480.23	462.24
480.60	462.00
480.96	462.02
481.33	463.45
481.69	463.17
482.06	463.45
482.42	463.90
482.79	464.14
483.15	464.88
483.52	466.45
483.88	467.31
484.25	468.24
484.61	470.05
484.98	470.79
485.34	473.64
485.71	475.71
486.07	477.67
486.44	477.76
486.80	480.10
487.17	481.81
487.53	485.14
487.90	488.05
488.26	491.79
488.62	495.50
488.99	497.90
489.35	501.64
489.72	504.76
490.08	508.40
490.44	512.83
490.81	517.33
491.17	521.19
491.54	525.83
491.90	531.12
492.26	535.60
492.63	540.81
492.99	545.00
493.36	550.50
493.72	555.98
494.08	561.83
494.45	567.83
494.81	574.48
495.17	580.21
495.54	586.76
495.90	593.29
496.26	599.62
496.63	606.71
496.99	614.02
497.35	621.52
497.72	629.12
498.08	637.02
498.44	644.81
498.80	653.05
499.17	661.17
499.53	668.90
499.89	678.64
500.26	687.24
500.62	695.74
500.98	704.40
501.34	713.10
501.71	722.79
502.07	731.60
502.43	740.26
502.79	749.69
503.16	759.38
503.52	768.67
503.88	777.79
504.24	787.74
504.60	797.74
504.97	808.02
505.33	817.86
505.69	828.38
506.05	838.69
506.41	849.48
506.78	859.48
507.14	869.43
507.50	878.88
507.86	889.05
508.22	900.17
508.59	909.93
508.95	921.12
509.31	932.17
509.67	942.83
510.03	953.33
510.39	963.19
510.75	973.33
511.12	983.76
511.48	994.52
511.84	1004.55
512.20	1014.10
512.56	1024.12
512.92	1034.38
513.28	1043.57
513.64	1053.17
514.00	1062.40
514.37	1072.31
514.73	1082.05
515.09	1091.76
515.45	1100.86
515.81	1109.40
516.17	1118.86
516.53	1126.74
516.89	1134.24
517.25	1143.67
517.61	1152.88
517.97	1161.29
518.33	1169.62
518.69	1177.36
519.05	1185.64
519.41	1193.50
519.77	1202.45
520.13	1209.86
520.49	1216.88
520.85	1224.64
521.21	1232.50
521.57	1239.55
521.93	1245.40
522.29	1252.26
522.65	1258.12
523.01	1266.07
523.37	1272.48
523.73	1278.60
524.09	1285.31
524.45	1290.98
524.81	1296.07
525.17	1301.40
525.53	1306.81
525.89	1311.52
526.25	1318.05
526.61	1322.07
526.97	1326.86
527.33	1330.62
527.68	1337.14
528.04	1341.55
528.40	1344.90
528.76	1348.29
529.12	1352.36
529.48	1357.95
529.84	1361.74
530.20	1365.98
530.56	1368.55
530.91	1372.33
531.27	1376.14
531.63	1379.69
531.99	1383.07
532.35	1385.55
532.71	1388.29
533.07	1392.40
533.42	1399.19
533.78	1401.33
534.14	1405.24
534.50	1407.55
534.86	1411.83
535.21	1412.71
535.57	1416.40
535.93	1419.45
536.29	1423.67
536.65	1426.83
537.00	1428.71
537.36	1431.24
537.72	1433.71
538.08	1436.48
538.44	1438.24
538.79	1440.14
539.15	1441.19
539.51	1443.33
539.87	1446.17
540.22	1448.29
540.58	1449.29
540.94	1448.19
541.29	1449.17
541.65	1450.00
542.01	1451.88
542.37	1451.29
542.72	1451.50
543.08	1451.71
543.44	1452.76
543.79	1450.62
544.15	1449.81
544.51	1449.69
544.87	1449.48
545.22	1449.17
545.58	1448.62
545.94	1448.19
546.29	1447.45
546.65	1446.93
547.01	1445.86
547.36	1444.29
547.72	1443.48
548.07	1443.12
548.43	1441.48
548.79	1440.10
549.14	1439.24
549.50	1437.93
549.86	1436.33
550.21	1435.26
550.57	1434.40
550.92	1432.76
551.28	1432.55
551.64	1432.19
551.99	1431.38
552.35	1430.50
552.70	1428.55
553.06	1428.00
553.41	1427.14
553.77	1427.67
554.13	1427.12
554.48	1427.69
554.84	1427.05
555.19	1426.50
555.55	1426.21
555.90	1424.98
556.26	1424.52
556.61	1422.45
556.97	1420.62
557.32	1420.10
557.68	1418.45
558.03	1416.81
558.39	1415.26
558.74	1414.19
559.10	1412.50
559.45	1410.79
559.81	1409.07
560.16	1407.55
560.52	1404.62
560.87	1402.95
561.23	1399.36
561.58	1399.40
561.94	1396.55
562.29	1395.43
562.64	1393.19
563.00	1390.19
563.35	1388.02
563.71	1386.48
564.06	1385.79
564.42	1384.24
564.77	1382.29
565.12	1382.57
565.48	1382.95
565.83	1381.33
566.19	1379.48
566.54	1378.26
566.89	1377.07
567.25	1376.21
567.60	1377.10
567.96	1377.95
568.31	1377.38
568.66	1377.52
569.02	1373.62
569.37	1371.21
569.72	1368.88
570.08	1366.60
570.43	1364.55
570.78	1362.88
571.14	1360.55
571.49	1358.45
571.84	1357.48
572.20	1355.12
572.55	1351.83
572.90	1346.93
573.26	1344.69
573.61	1341.81
573.96	1339.40
574.31	1336.21
574.67	1333.10
575.02	1328.71
575.37	1323.71
575.72	1319.64
576.08	1315.57
576.43	1312.83
576.78	1309.36
577.13	1305.88
577.49	1302.67
577.84	1299.40
578.19	1296.29
578.54	1293.21
578.90	1289.17
579.25	1284.10
579.60	1280.90
579.95	1276.74
580.30	1273.81
580.66	1270.19
581.01	1266.12
581.36	1261.55
581.71	1257.40
582.06	1253.71
582.42	1249.98
582.77	1245.76
583.12	1241.50
583.47	1237.52
583.82	1233.52
584.17	1230.12
584.53	1227.05
584.88	1223.38
585.23	1220.36
585.58	1216.07
585.93	1211.12
586.28	1207.74
586.63	1204.64
586.98	1200.57
587.34	1197.26
587.69	1192.43
588.04	1187.57
588.39	1183.31
588.74	1178.40
589.09	1174.50
589.44	1169.10
589.79	1164.57
590.14	1160.86
590.49	1156.55
590.84	1151.36
591.19	1147.38
591.54	1143.57
591.89	1138.52
592.25	1135.64
592.60	1130.29
592.95	1126.33
593.30	1122.43
593.65	1117.10
594.00	1111.55
594.35	1112.81
594.70	1106.69
595.05	1102.24
595.40	1097.93
595.75	1093.81
596.10	1089.45
596.45	1085.33
596.80	1081.43
597.15	1077.00
597.50	1072.24
597.85	1069.02
598.19	1064.88
598.54	1060.45
598.89	1054.93
599.24	1050.24
599.59	1044.40
599.94	1039.74
600.29	1035.12
600.64	1031.07
600.99	1027.31
601.34	1024.50
601.69	1014.33
602.04	1011.24
602.39	1006.40
602.74	1002.76
603.08	997.93
603.43	994.36
603.78	989.62
604.13	985.45
604.48	980.71
604.83	977.38
605.18	972.38
605.53	968.29
605.87	963.52
606.22	959.57
606.57	955.48
606.92	950.24
607.27	946.00
607.62	941.67
607.96	936.83
608.31	932.24
608.66	927.48
609.01	922.98
609.36	918.64
609.70	914.57
610.05	909.81
610.40	906.36
610.75	901.88
611.10	897.50
611.44	893.14
611.79	888.38
612.14	883.57
612.49	878.88
612.83	874.05
613.18	869.05
613.53	865.12
613.88	860.45
614.22	856.33
614.57	851.38
614.92	846.21
615.27	841.74
615.61	836.64
615.96	831.90
616.31	827.43
616.65	823.86
617.00	820.12
617.35	815.48
617.70	810.57
618.04	805.64
618.39	801.33
618.74	796.69
619.08	792.74
619.43	788.19
619.78	783.74
620.12	780.33
620.47	777.21
620.82	772.40
621.16	767.79
621.51	764.76
621.85	760.71
622.20	757.12
622.55	752.76
622.89	749.43
623.24	745.95
623.59	741.90
623.93	738.14
624.28	734.17
624.62	732.83
624.97	731.10
625.32	727.95
625.66	724.29
626.01	720.71
626.35	717.43
626.70	713.79
627.04	710.64
627.39	707.31
627.73	704.24
628.08	701.31
628.43	698.40
628.77	693.83
629.12	691.00
629.46	687.93
629.81	685.26
630.15	681.67
630.50	677.86
630.84	674.52
631.19	670.12
631.53	666.29
631.88	660.74
632.22	655.81
632.57	652.57
632.91	649.12
633.26	646.48
633.60	642.17
633.95	638.60
634.29	634.71
634.64	630.98
634.98	626.36
635.32	623.29
635.67	620.40
636.01	617.43
636.36	613.86
636.70	611.14
637.05	607.74
637.39	604.64
637.73	601.93
638.08	599.40
638.42	596.05
638.77	593.71
639.11	590.62
639.45	587.45
639.80	584.40
640.14	581.26
640.49	577.62
640.83	574.69
641.17	572.10
641.52	569.17
641.86	566.19
642.20	564.50
642.55	561.24
642.89	557.60
643.23	554.76
643.58	552.43
643.92	548.36
644.26	545.74
644.61	542.88
644.95	539.45
645.29	535.86
645.64	533.33
645.98	530.17
646.32	527.90
646.66	524.79
647.01	521.31
647.35	519.24
647.69	516.64
648.04	514.52
648.38	511.93
648.72	509.50
649.06	506.64
649.41	503.55
649.75	500.79
650.09	498.88
650.43	496.07
650.78	492.67
651.12	490.29
651.46	486.93
651.80	484.02
652.14	480.93
652.49	479.10
652.83	476.21
653.17	473.64
653.51	470.17
653.85	467.98
654.20	466.00
654.54	463.00
654.88	460.14
655.22	458.67
655.56	456.02
655.90	453.67
656.25	451.26
656.59	448.71
656.93	446.45
657.27	444.43
657.61	442.29
657.95	440.76
658.29	438.67
658.64	437.02
658.98	434.81
659.32	433.21
659.66	430.86
660.00	429.50
660.34	427.62
660.68	425.86
661.02	423.98
661.36	421.98
661.70	420.33
662.05	418.71
662.39	416.69
662.73	415.69
663.07	415.00
663.41	413.50
663.75	411.36
664.09	409.86
664.43	407.26
664.77	405.33
665.11	403.12
665.45	401.36
665.79	399.86
666.13	398.38
666.47	396.50
666.81	394.90
667.15	392.83
667.49	391.43
667.83	390.69
668.17	388.86
668.51	387.17
668.85	386.00
669.19	385.26
669.53	382.71
669.87	380.38
670.21	377.86
670.55	376.36
670.89	376.24
671.23	374.02
671.57	372.79
671.91	371.55
672.25	370.40
672.58	369.93
672.92	368.21
673.26	366.88
673.60	365.81
673.94	364.14
674.28	363.00
674.62	361.55
674.96	359.83
675.30	358.74
675.64	357.57
675.97	355.76
676.31	353.64
676.65	352.57
676.99	352.07
677.33	350.43
677.67	349.07
678.01	346.67
678.34	346.12
678.68	345.07
679.02	343.98
679.36	342.52
679.70	340.60
680.04	339.52
680.37	338.52
680.71	337.05
681.05	336.19
681.39	334.95
681.73	333.50
682.06	332.00
682.40	330.88
682.74	329.95
683.08	329.64
683.42	328.60
683.75	327.90
684.09	326.02
684.43	325.07
684.77	323.90
685.10	323.07
685.44	321.93
685.78	321.05
686.12	319.62
686.45	318.64
686.79	317.29
687.13	316.45
687.46	315.33
687.80	314.90
688.14	313.90
688.48	312.98
688.81	312.40
689.15	311.93
689.49	310.43
689.82	309.45
690.16	307.57
690.50	306.62
690.83	305.40
691.17	304.36
691.51	303.69
691.84	302.90
692.18	301.74
692.52	300.83
692.85	299.93
693.19	300.02
693.52	299.14
693.86	298.31
694.20	297.38
694.53	296.50
694.87	295.29
695.21	294.02
695.54	293.17
695.88	291.83
696.21	290.45
696.55	289.64
696.88	288.67
697.22	287.83
697.56	287.21
697.89	286.21
698.23	285.88
698.56	285.14
698.90	284.60
699.23	284.00
699.57	283.38
699.90	282.31
700.24	280.74
700.58	280.17
700.91	279.88
701.25	280.64
701.58	280.57
701.92	280.45
702.25	280.02
702.59	279.14
702.92	278.79
703.26	278.33
703.59	278.33
703.93	279.36
704.26	279.10
704.60	278.60
704.93	277.86
705.26	276.95
705.60	276.36
705.93	275.48
706.27	275.26
706.60	274.93
706.94	275.26
707.27	274.55
707.61	274.02
707.94	273.07
708.27	271.05
708.61	269.83
708.94	268.98
709.28	268.43
709.61	267.90
709.94	267.62
710.28	267.02
710.61	266.43
710.95	263.95
711.28	264.76
711.61	263.90
711.95	264.02
712.28	263.33
712.61	263.00
712.95	263.55
713.28	263.83
713.61	263.02
713.95	262.10
714.28	261.79
714.61	261.38
714.95	261.14
715.28	260.76
715.61	260.10
715.95	259.79
716.28	259.07
716.61	259.21
716.95	258.24
717.28	257.90
717.61	257.10
717.94	256.79
718.28	254.95
718.61	254.60
718.94	253.52
719.27	253.00
719.61	252.43
719.94	251.43
720.27	250.17
720.60	249.60
720.94	248.93
721.27	248.52
721.60	248.31
721.93	247.69
722.27	247.86
722.60	247.95
722.93	247.19
723.26	247.26
723.59	246.02
723.93	246.12
724.26	245.93
724.59	245.79
724.92	245.50
725.25	245.62
725.59	245.33
725.92	245.64
726.25	245.55
726.58	245.48
726.91	244.93
727.24	244.76
727.57	244.38
727.91	243.62
728.24	243.57
728.57	242.98
728.90	243.21
729.23	242.12
729.56	242.52
729.89	242.45
730.22	242.02
730.55	242.02
730.89	241.62
731.22	241.17
731.55	240.64
731.88	240.67
732.21	240.24
732.54	239.81
732.87	239.31
733.20	239.17
733.53	238.79
733.86	238.55
734.19	237.76
734.52	238.05
734.85	239.48
735.18	239.05
735.51	239.31
735.84	239.14
736.17	239.57
736.50	238.55
736.83	240.79
737.16	240.40
737.49	240.40
737.82	240.05
738.15	240.00
738.48	239.67
738.81	239.26
739.14	238.67
739.47	238.45
739.80	238.40
740.13	238.36
740.46	237.86
740.79	237.62
741.12	237.79
741.45	237.10
741.78	235.79
742.11	236.26
742.44	235.76
742.77	235.81
743.10	235.14
743.43	234.93
743.75	232.38
744.08	235.05
744.41	234.57
744.74	234.29
745.07	233.71
745.40	234.10
745.73	234.69
746.06	234.60
746.39	234.57
746.71	234.02
747.04	233.57
747.37	233.33
747.70	233.36
748.03	233.00
748.36	233.19
748.68	232.86
749.01	231.90
749.34	231.60
749.67	231.48
750.00	231.76
750.33	232.83
750.65	232.88
750.98	230.19
751.31	230.17
751.64	230.24
751.97	231.50
752.29	231.17
752.62	230.17
752.95	230.21
753.28	229.98
753.60	229.98
753.93	230.33
754.26	230.40
754.59	229.81
754.91	229.57
755.24	229.17
755.57	229.10
755.90	228.93
756.22	228.71
756.55	228.19
756.88	227.50
757.20	226.38
757.53	225.57
757.86	225.45
758.19	225.55
758.51	225.40
758.84	224.19
759.17	223.86
759.49	223.86
759.82	224.48
760.15	224.52
760.47	224.19
760.80	223.60
761.13	223.88
761.45	223.83
761.78	223.88
762.11	223.74
762.43	223.55
762.76	223.48
763.08	223.74
763.41	223.74
763.74	223.88
764.06	223.50
764.39	223.60
764.71	223.40
765.04	222.98
765.37	222.60
765.69	222.40
766.02	222.29
766.34	222.26
766.67	221.55
767.00	221.98
767.32	223.02
767.65	224.19
767.97	223.79
768.30	223.88
768.62	223.67
768.95	223.50
769.27	223.48
769.60	223.76
769.92	223.38
770.25	222.88
770.57	222.45
770.90	222.38
771.22	222.07
771.55	221.98
771.87	222.12
772.20	221.98
772.52	223.45
772.85	225.95
773.17	225.76
773.50	225.43
773.82	224.48
774.15	223.40
774.47	222.02
774.80	221.88
775.12	221.26
775.45	221.43
775.77	221.55
776.09	221.55
776.42	221.40
776.74	221.69
777.07	221.67
777.39	221.98
777.72	221.90
778.04	222.38
778.36	222.21
778.69	222.12
779.01	222.38
779.33	220.71
779.66	218.17
779.98	218.19
780.31	218.12
780.63	219.19
780.95	219.62
781.28	219.50
781.60	219.40
781.92	219.71
782.25	219.50
782.57	219.33
782.89	219.00
783.22	218.81
783.54	218.50
783.86	218.38
784.19	218.07
784.51	218.57
784.83	218.02
785.16	217.88
785.48	217.60
785.80	217.57
786.12	217.86
786.45	217.88
786.77	217.81
787.09	217.64
787.42	216.79
787.74	216.74
788.06	216.74
