SpectraSuite Data File
++++++++++++++++++++++++++++++++++++
Date: Tue Apr 02 18:38:30 EDT 2013
User: group
Dark Spectrum Present: No
Reference Spectrum Present: No
Number of Sampled Component Spectra: 1
Spectrometers: USB2E7196
Integration Time (usec): 580000 (USB2E7196)
Spectra Averaged: 2 (USB2E7196)
Boxcar Smoothing: 10 (USB2E7196)
Correct for Electrical Dark: No (USB2E7196)
Strobe/Lamp Enabled: No (USB2E7196)
Correct for Detector Non-linearity: No (USB2E7196)
Correct for Stray Light: No (USB2E7196)
Number of Pixels in Processed Spectrum: 2048
>>>>>Begin Processed Spectral Data<<<<<
339.09	0.00
339.48	193.50
339.86	193.50
340.24	194.00
340.63	196.00
341.01	232.00
341.39	202.00
341.78	207.50
342.16	209.50
342.54	206.00
342.93	197.36
343.31	207.21
343.69	207.81
344.07	208.40
344.46	209.19
344.84	209.93
345.22	208.81
345.60	209.21
345.99	209.21
346.37	209.33
346.75	209.50
347.13	209.52
347.52	209.79
347.90	210.40
348.28	210.38
348.66	211.00
349.05	210.60
349.43	211.02
349.81	211.43
350.19	211.48
350.57	211.79
350.96	212.07
351.34	212.31
351.72	212.60
352.10	212.88
352.48	212.79
352.87	212.62
353.25	212.64
353.63	212.60
354.01	212.88
354.39	212.90
354.77	212.90
355.15	213.40
355.54	213.17
355.92	212.52
356.30	212.69
356.68	213.95
357.06	214.24
357.44	213.95
357.82	213.74
358.20	214.81
358.58	214.55
358.97	214.67
359.35	215.17
359.73	215.57
360.11	215.26
360.49	215.36
360.87	215.38
361.25	215.74
361.63	216.76
362.01	216.64
362.39	216.62
362.77	216.81
363.15	216.71
363.53	216.74
363.91	217.12
364.29	217.17
364.67	215.21
365.05	215.21
365.43	215.40
365.81	215.71
366.19	215.57
366.57	216.67
366.95	216.48
367.33	215.90
367.71	215.71
368.09	216.26
368.47	216.43
368.85	216.60
369.23	216.52
369.61	215.52
369.99	216.45
370.37	216.69
370.75	217.69
371.13	217.00
371.51	216.81
371.89	216.95
372.27	217.05
372.65	217.19
373.03	216.93
373.41	216.62
373.78	216.48
374.16	215.38
374.54	214.48
374.92	214.45
375.30	214.57
375.68	214.33
376.06	214.48
376.44	214.17
376.82	214.19
377.19	214.31
377.57	214.26
377.95	213.38
378.33	213.05
378.71	211.93
379.09	212.57
379.47	212.93
379.84	212.79
380.22	212.57
380.60	212.31
380.98	212.38
381.36	212.24
381.73	211.60
382.11	212.31
382.49	212.36
382.87	212.00
383.25	211.88
383.62	214.14
384.00	213.69
384.38	213.95
384.76	214.21
385.13	215.19
385.51	215.31
385.89	215.02
386.27	215.17
386.64	215.33
387.02	215.19
387.40	215.05
387.78	214.88
388.15	215.12
388.53	215.00
388.91	214.88
389.29	214.98
389.66	215.55
390.04	215.00
390.42	215.67
390.79	216.17
391.17	216.19
391.55	214.14
391.92	214.14
392.30	214.19
392.68	213.79
393.05	213.57
393.43	213.74
393.81	213.86
394.18	213.69
394.56	213.69
394.94	214.21
395.31	214.02
395.69	214.79
396.06	215.07
396.44	215.33
396.82	215.24
397.19	216.40
397.57	216.26
397.95	216.86
398.32	216.17
398.70	216.05
399.07	216.48
399.45	216.12
399.82	216.14
400.20	216.07
400.58	216.19
400.95	215.40
401.33	215.64
401.70	217.36
402.08	217.40
402.45	217.67
402.83	218.02
403.20	218.29
403.58	218.12
403.95	218.62
404.33	218.93
404.71	219.38
405.08	220.52
405.46	221.02
405.83	221.36
406.21	221.83
406.58	222.60
406.96	222.79
407.33	223.81
407.70	224.83
408.08	227.38
408.45	228.50
408.83	229.52
409.20	230.21
409.58	229.83
409.95	231.33
410.33	232.50
410.70	232.93
411.08	234.38
411.45	235.76
411.82	236.81
412.20	238.98
412.57	241.64
412.95	241.57
413.32	243.52
413.69	245.19
414.07	247.10
414.44	249.00
414.82	251.67
415.19	254.19
415.56	256.71
415.94	258.10
416.31	261.31
416.68	264.60
417.06	268.55
417.43	272.33
417.81	276.29
418.18	280.45
418.55	285.07
418.93	289.71
419.30	294.76
419.67	299.95
420.04	304.55
420.42	309.93
420.79	318.21
421.16	324.95
421.54	332.86
421.91	340.24
422.28	347.60
422.66	355.17
423.03	364.33
423.40	372.60
423.77	381.45
424.15	389.93
424.52	398.81
424.89	408.86
425.26	418.38
425.64	427.24
426.01	436.74
426.38	446.88
426.75	457.98
427.13	468.67
427.50	479.98
427.87	492.40
428.24	503.88
428.61	513.90
428.99	527.10
429.36	540.21
429.73	553.69
430.10	567.48
430.47	581.52
430.85	594.55
431.22	609.43
431.59	626.38
431.96	641.52
432.33	658.33
432.70	674.38
433.08	693.31
433.45	711.69
433.82	729.83
434.19	750.48
434.56	770.71
434.93	789.10
435.30	808.10
435.68	829.00
436.05	849.86
436.42	869.90
436.79	888.74
437.16	908.60
437.53	930.02
437.90	950.90
438.27	971.74
438.64	993.26
439.01	1013.69
439.38	1030.02
439.75	1047.95
440.13	1068.45
440.50	1087.05
440.87	1102.64
441.24	1118.48
441.61	1136.60
441.98	1148.50
442.35	1163.05
442.72	1179.26
443.09	1195.52
443.46	1203.88
443.83	1210.10
444.20	1215.86
444.57	1223.14
444.94	1226.95
445.31	1231.29
445.68	1238.05
446.05	1240.31
446.42	1238.67
446.79	1237.74
447.16	1235.98
447.53	1234.64
447.90	1226.81
448.27	1220.00
448.64	1209.38
449.01	1201.81
449.37	1188.71
449.74	1176.69
450.11	1161.88
450.48	1144.36
450.85	1125.57
451.22	1110.71
451.59	1096.43
451.96	1083.21
452.33	1064.93
452.70	1048.40
453.07	1027.24
453.43	1004.10
453.80	984.57
454.17	965.76
454.54	946.90
454.91	927.24
455.28	908.14
455.65	890.69
456.02	875.52
456.38	861.10
456.75	842.83
457.12	826.31
457.49	811.14
457.86	794.90
458.23	782.79
458.59	768.33
458.96	754.31
459.33	741.86
459.70	728.90
460.07	718.52
460.43	707.02
460.80	697.07
461.17	688.40
461.54	677.60
461.91	667.71
462.27	657.36
462.64	649.60
463.01	640.64
463.38	632.33
463.74	620.29
464.11	612.02
464.48	605.40
464.85	597.88
465.21	592.02
465.58	586.33
465.95	578.71
466.32	573.12
466.68	567.19
467.05	560.74
467.42	554.62
467.78	548.43
468.15	542.55
468.52	538.36
468.88	531.76
469.25	526.83
469.62	523.60
469.98	519.69
470.35	515.40
470.72	511.14
471.08	506.10
471.45	503.40
471.82	500.00
472.18	495.52
472.55	493.02
472.92	489.33
473.28	485.79
473.65	482.55
474.02	479.21
474.38	476.93
474.75	474.62
475.11	472.33
475.48	470.76
475.85	468.88
476.21	466.64
476.58	465.36
476.94	464.07
477.31	461.88
477.67	460.29
478.04	459.00
478.41	458.14
478.77	459.52
479.14	457.60
479.50	456.86
479.87	456.90
480.23	456.57
480.60	456.21
480.96	455.93
481.33	456.45
481.69	456.57
482.06	456.74
482.42	457.76
482.79	458.36
483.15	458.38
483.52	459.45
483.88	459.71
484.25	460.07
484.61	461.05
484.98	462.40
485.34	464.36
485.71	466.48
486.07	468.33
486.44	467.90
486.80	470.43
487.17	472.24
487.53	475.45
487.90	478.40
488.26	481.81
488.62	485.17
488.99	487.50
489.35	491.17
489.72	494.31
490.08	497.36
490.44	500.76
490.81	504.90
491.17	508.83
491.54	513.45
491.90	518.90
492.26	523.50
492.63	528.10
492.99	532.24
493.36	537.21
493.72	542.31
494.08	548.02
494.45	553.81
494.81	560.45
495.17	566.17
495.54	572.00
495.90	577.60
496.26	584.33
496.63	591.62
496.99	598.33
497.35	606.33
497.72	613.55
498.08	621.29
498.44	628.86
498.80	636.50
499.17	644.98
499.53	652.33
499.89	661.31
500.26	670.12
500.62	679.12
500.98	688.36
501.34	698.05
501.71	708.31
502.07	717.60
502.43	726.48
502.79	735.02
503.16	744.69
503.52	754.74
503.88	764.48
504.24	774.64
504.60	784.79
504.97	794.93
505.33	805.45
505.69	816.60
506.05	827.07
506.41	837.83
506.78	847.71
507.14	857.90
507.50	868.24
507.86	879.83
508.22	891.02
508.59	901.50
508.95	911.88
509.31	922.79
509.67	933.67
510.03	944.62
510.39	955.55
510.75	966.60
511.12	977.64
511.48	988.38
511.84	998.57
512.20	1009.52
512.56	1020.00
512.92	1031.43
513.28	1041.60
513.64	1052.74
514.00	1063.69
514.37	1075.48
514.73	1087.07
515.09	1097.71
515.45	1107.12
515.81	1117.26
516.17	1127.45
516.53	1137.55
516.89	1147.02
517.25	1157.48
517.61	1168.67
517.97	1178.83
518.33	1188.45
518.69	1198.57
519.05	1208.62
519.41	1218.64
519.77	1229.29
520.13	1238.45
520.49	1247.57
520.85	1257.00
521.21	1266.33
521.57	1275.38
521.93	1283.14
522.29	1292.33
522.65	1301.69
523.01	1311.64
523.37	1319.71
523.73	1328.52
524.09	1337.02
524.45	1345.45
524.81	1353.07
525.17	1360.55
525.53	1368.60
525.89	1376.90
526.25	1384.60
526.61	1391.81
526.97	1399.74
527.33	1406.40
527.68	1415.36
528.04	1422.88
528.40	1429.52
528.76	1436.07
529.12	1443.21
529.48	1451.52
529.84	1457.90
530.20	1464.88
530.56	1471.36
530.91	1479.50
531.27	1486.48
531.63	1494.36
531.99	1500.67
532.35	1507.48
532.71	1513.76
533.07	1521.24
533.42	1529.79
533.78	1535.71
534.14	1543.26
534.50	1549.76
534.86	1556.98
535.21	1561.67
535.57	1567.55
535.93	1573.45
536.29	1581.19
536.65	1587.74
537.00	1592.55
537.36	1598.12
537.72	1603.21
538.08	1608.55
538.44	1612.69
538.79	1617.98
539.15	1621.57
539.51	1627.21
539.87	1632.40
540.22	1637.26
540.58	1641.40
540.94	1643.90
541.29	1648.88
541.65	1650.90
542.01	1654.40
542.37	1657.24
542.72	1659.98
543.08	1662.74
543.44	1666.60
543.79	1667.81
544.15	1670.93
544.51	1674.76
544.87	1677.93
545.22	1680.90
545.58	1682.90
545.94	1685.81
546.29	1687.79
546.65	1690.95
547.01	1692.74
547.36	1694.76
547.72	1697.00
548.07	1699.71
548.43	1702.14
548.79	1703.57
549.14	1706.36
549.50	1709.26
549.86	1710.12
550.21	1713.02
550.57	1715.81
550.92	1716.83
551.28	1719.05
551.64	1719.93
551.99	1721.05
552.35	1722.31
552.70	1722.90
553.06	1725.17
553.41	1726.69
553.77	1728.86
554.13	1729.67
554.48	1731.71
554.84	1734.10
555.19	1735.98
555.55	1738.26
555.90	1739.10
556.26	1740.12
556.61	1740.69
556.97	1740.05
557.32	1741.98
557.68	1743.12
558.03	1743.62
558.39	1744.48
558.74	1745.29
559.10	1746.02
559.45	1747.00
559.81	1747.93
560.16	1749.48
560.52	1749.38
560.87	1751.17
561.23	1750.98
561.58	1753.12
561.94	1753.07
562.29	1752.86
562.64	1752.48
563.00	1751.36
563.35	1750.48
563.71	1750.50
564.06	1752.02
564.42	1753.05
564.77	1753.74
565.12	1754.86
565.48	1756.38
565.83	1757.81
566.19	1758.21
566.54	1757.98
566.89	1757.33
567.25	1759.00
567.60	1760.43
567.96	1761.88
568.31	1761.93
568.66	1762.24
569.02	1760.67
569.37	1759.38
569.72	1758.38
570.08	1757.33
570.43	1756.12
570.78	1756.71
571.14	1756.62
571.49	1755.52
571.84	1754.64
572.20	1752.57
572.55	1751.43
572.90	1748.69
573.26	1747.21
573.61	1745.93
573.96	1744.64
574.31	1743.62
574.67	1740.17
575.02	1737.02
575.37	1733.50
575.72	1729.83
576.08	1727.00
576.43	1724.12
576.78	1721.55
577.13	1718.05
577.49	1715.76
577.84	1713.02
578.19	1710.45
578.54	1707.60
578.90	1704.07
579.25	1700.67
579.60	1697.33
579.95	1692.26
580.30	1688.76
580.66	1684.45
581.01	1680.48
581.36	1676.14
581.71	1671.71
582.06	1668.86
582.42	1664.79
582.77	1660.64
583.12	1657.38
583.47	1653.57
583.82	1650.31
584.17	1646.36
584.53	1643.86
584.88	1638.95
585.23	1635.88
585.58	1630.55
585.93	1625.60
586.28	1621.50
586.63	1616.71
586.98	1612.64
587.34	1609.07
587.69	1604.24
588.04	1599.05
588.39	1594.17
588.74	1588.14
589.09	1583.93
589.44	1577.10
589.79	1572.45
590.14	1567.74
590.49	1561.71
590.84	1556.07
591.19	1550.83
591.54	1545.67
591.89	1539.86
592.25	1537.07
592.60	1530.36
592.95	1525.88
593.30	1520.14
593.65	1513.17
594.00	1507.14
594.35	1507.74
594.70	1501.40
595.05	1496.33
595.40	1491.62
595.75	1485.81
596.10	1481.90
596.45	1475.88
596.80	1470.71
597.15	1464.52
597.50	1458.36
597.85	1452.88
598.19	1446.67
598.54	1440.12
598.89	1434.00
599.24	1428.50
599.59	1420.26
599.94	1414.52
600.29	1408.57
600.64	1403.29
600.99	1398.52
601.34	1393.93
601.69	1381.74
602.04	1375.55
602.39	1369.40
602.74	1364.31
603.08	1359.00
603.43	1353.88
603.78	1348.79
604.13	1342.71
604.48	1336.33
604.83	1331.21
605.18	1325.67
605.53	1320.36
605.87	1315.05
606.22	1309.81
606.57	1303.86
606.92	1298.40
607.27	1293.05
607.62	1287.02
607.96	1281.19
608.31	1275.93
608.66	1269.76
609.01	1263.60
609.36	1258.74
609.70	1253.14
610.05	1245.81
610.40	1239.48
610.75	1232.05
611.10	1225.64
611.44	1220.21
611.79	1214.36
612.14	1209.02
612.49	1202.86
612.83	1197.12
613.18	1190.24
613.53	1184.40
613.88	1177.17
614.22	1170.57
614.57	1164.17
614.92	1157.98
615.27	1151.74
615.61	1144.88
615.96	1138.55
616.31	1133.36
616.65	1127.83
617.00	1121.50
617.35	1116.21
617.70	1110.19
618.04	1105.55
618.39	1099.52
618.74	1093.81
619.08	1088.05
619.43	1080.90
619.78	1074.95
620.12	1068.98
620.47	1063.93
620.82	1058.00
621.16	1052.50
621.51	1048.79
621.85	1042.71
622.20	1036.64
622.55	1030.88
622.89	1025.93
623.24	1020.52
623.59	1014.24
623.93	1007.88
624.28	1002.90
624.62	999.60
624.97	995.60
625.32	989.88
625.66	984.71
626.01	978.98
626.35	974.02
626.70	969.36
627.04	964.81
627.39	959.71
627.73	954.93
628.08	949.90
628.43	944.81
628.77	937.55
629.12	932.24
629.46	927.74
629.81	922.55
630.15	917.12
630.50	911.71
630.84	906.45
631.19	900.83
631.53	894.88
631.88	886.81
632.22	879.76
632.57	874.81
632.91	868.83
633.26	863.60
633.60	857.69
633.95	851.76
634.29	845.40
634.64	839.86
634.98	833.57
635.32	829.02
635.67	824.43
636.01	819.83
636.36	814.62
636.70	809.62
637.05	804.64
637.39	799.17
637.73	794.48
638.08	789.90
638.42	785.60
638.77	781.62
639.11	776.88
639.45	772.40
639.80	766.95
640.14	762.45
640.49	757.62
640.83	752.67
641.17	748.60
641.52	744.36
641.86	739.93
642.20	736.67
642.55	730.74
642.89	725.40
643.23	720.79
643.58	717.00
643.92	711.79
644.26	707.38
644.61	702.98
644.95	697.67
645.29	692.50
645.64	687.79
645.98	682.90
646.32	679.36
646.66	674.88
647.01	670.24
647.35	666.12
647.69	662.38
648.04	659.17
648.38	654.48
648.72	650.07
649.06	645.48
649.41	640.31
649.75	636.07
650.09	632.31
650.43	627.86
650.78	622.79
651.12	618.07
651.46	613.45
651.80	609.19
652.14	605.48
652.49	602.67
652.83	598.43
653.17	594.29
653.51	589.33
653.85	585.38
654.20	581.50
654.54	577.29
654.88	572.55
655.22	568.90
655.56	564.95
655.90	561.00
656.25	557.26
656.59	553.76
656.93	550.36
657.27	547.50
657.61	544.12
657.95	541.57
658.29	538.26
658.64	535.52
658.98	531.67
659.32	528.24
659.66	524.29
660.00	521.33
660.34	518.26
660.68	515.26
661.02	512.17
661.36	508.88
661.70	505.95
662.05	503.00
662.39	499.64
662.73	497.43
663.07	495.81
663.41	493.02
663.75	489.40
664.09	486.24
664.43	482.31
664.77	479.71
665.11	476.24
665.45	473.50
665.79	470.95
666.13	468.67
666.47	466.00
666.81	463.31
667.15	460.24
667.49	457.79
667.83	456.21
668.17	453.40
668.51	450.95
668.85	448.24
669.19	447.02
669.53	443.67
669.87	440.88
670.21	437.10
670.55	434.62
670.89	433.64
671.23	431.88
671.57	429.95
671.91	427.81
672.25	425.93
672.58	424.74
672.92	421.74
673.26	420.05
673.60	417.74
673.94	415.86
674.28	414.17
674.62	411.95
674.96	409.07
675.30	407.33
675.64	405.57
675.97	403.69
676.31	401.05
676.65	399.29
676.99	397.95
677.33	396.00
677.67	394.48
678.01	391.69
678.34	389.98
678.68	388.43
679.02	386.31
679.36	384.48
679.70	381.95
680.04	380.21
680.37	378.29
680.71	376.60
681.05	374.71
681.39	372.95
681.73	370.81
682.06	369.00
682.40	367.31
682.74	365.88
683.08	365.10
683.42	363.02
683.75	361.74
684.09	359.36
684.43	357.93
684.77	356.00
685.10	354.50
685.44	352.90
685.78	351.33
686.12	349.64
686.45	348.00
686.79	346.40
687.13	345.21
687.46	343.43
687.80	342.71
688.14	341.48
688.48	340.21
688.81	339.36
689.15	338.45
689.49	336.93
689.82	335.48
690.16	333.17
690.50	331.93
690.83	330.40
691.17	329.12
691.51	328.00
691.84	327.02
692.18	325.60
692.52	324.26
692.85	323.24
693.19	322.95
693.52	321.57
693.86	320.26
694.20	319.17
694.53	317.93
694.87	316.17
695.21	314.60
695.54	313.36
695.88	311.62
696.21	309.86
696.55	308.67
696.88	307.19
697.22	306.24
697.56	305.57
697.89	304.29
698.23	303.45
698.56	301.93
698.90	301.02
699.23	299.98
699.57	298.86
699.90	297.67
700.24	296.07
700.58	295.52
700.91	295.12
701.25	295.76
701.58	295.81
701.92	295.69
702.25	295.05
702.59	294.00
702.92	293.26
703.26	292.62
703.59	291.98
703.93	293.12
704.26	292.45
704.60	291.57
704.93	290.81
705.26	289.64
705.60	289.50
705.93	288.00
706.27	288.10
706.60	287.90
706.94	287.74
707.27	286.52
707.61	285.74
707.94	284.79
708.27	282.50
708.61	281.21
708.94	279.95
709.28	279.26
709.61	278.14
709.94	277.52
710.28	276.76
710.61	276.29
710.95	273.76
711.28	274.36
711.61	273.55
711.95	273.60
712.28	272.76
712.61	271.95
712.95	272.62
713.28	272.60
713.61	271.45
713.95	270.21
714.28	270.14
714.61	269.43
714.95	268.55
715.28	267.67
715.61	266.98
715.95	266.40
716.28	265.62
716.61	265.57
716.95	264.79
717.28	264.48
717.61	263.55
717.94	262.95
718.28	260.86
718.61	260.36
718.94	259.19
719.27	258.64
719.61	258.17
719.94	257.05
720.27	255.33
720.60	254.71
720.94	254.17
721.27	253.67
721.60	253.29
721.93	253.00
722.27	253.21
722.60	252.95
722.93	252.14
723.26	252.02
723.59	251.26
723.93	251.55
724.26	251.00
724.59	250.45
724.92	250.29
725.25	250.71
725.59	250.17
725.92	250.29
726.25	250.45
726.58	250.26
726.91	249.69
727.24	249.71
727.57	249.24
727.91	248.40
728.24	248.14
728.57	247.60
728.90	247.43
729.23	246.40
729.56	246.86
729.89	246.83
730.22	245.98
730.55	245.83
730.89	245.29
731.22	245.10
731.55	244.90
731.88	244.45
732.21	243.48
732.54	243.10
732.87	242.60
733.20	241.93
733.53	241.48
733.86	241.57
734.19	240.81
734.52	240.88
734.85	242.33
735.18	241.79
735.51	242.26
735.84	242.07
736.17	242.40
736.50	241.14
736.83	243.10
737.16	243.24
737.49	243.02
737.82	242.40
738.15	242.19
738.48	241.95
738.81	241.86
739.14	241.62
739.47	241.31
739.80	241.17
740.13	241.26
740.46	240.60
740.79	239.83
741.12	239.67
741.45	239.33
741.78	237.83
742.11	238.10
742.44	237.26
742.77	237.12
743.10	236.74
743.43	236.48
743.75	234.43
744.08	236.90
744.41	236.40
744.74	235.98
745.07	235.40
745.40	235.40
745.73	236.05
746.06	235.71
746.39	235.88
746.71	235.21
747.04	234.55
747.37	234.64
747.70	234.88
748.03	234.71
748.36	234.74
748.68	234.60
749.01	234.00
749.34	233.76
749.67	233.52
750.00	233.55
750.33	234.86
750.65	234.71
750.98	231.76
751.31	231.79
751.64	231.98
751.97	233.36
752.29	233.19
752.62	232.14
752.95	232.10
753.28	231.60
753.60	231.62
753.93	232.26
754.26	232.14
754.59	231.50
754.91	231.50
755.24	231.31
755.57	231.07
755.90	230.88
756.22	230.76
756.55	230.45
756.88	229.69
757.20	228.29
757.53	227.69
757.86	227.50
758.19	227.40
758.51	227.21
758.84	225.98
759.17	225.48
759.49	225.57
759.82	226.62
760.15	226.45
760.47	226.29
760.80	225.31
761.13	225.38
761.45	225.29
761.78	225.10
762.11	224.69
762.43	224.52
762.76	224.40
763.08	224.69
763.41	224.60
763.74	224.79
764.06	224.67
764.39	224.45
764.71	224.21
765.04	224.05
765.37	223.79
765.69	223.43
766.02	223.40
766.34	223.05
766.67	221.81
767.00	222.26
767.32	223.45
767.65	224.60
767.97	224.38
768.30	224.36
768.62	224.19
768.95	224.12
769.27	223.88
769.60	224.24
769.92	223.52
770.25	223.31
770.57	222.86
770.90	222.71
771.22	222.67
771.55	222.69
771.87	222.71
772.20	222.45
772.52	224.14
772.85	226.48
773.17	226.55
773.50	226.67
773.82	226.14
774.15	224.86
774.47	223.60
774.80	223.31
775.12	223.40
775.45	223.40
775.77	223.40
776.09	223.67
776.42	223.43
776.74	224.10
777.07	224.07
777.39	224.29
777.72	224.12
778.04	224.48
778.36	224.38
778.69	224.38
779.01	224.64
779.33	222.64
779.66	220.43
779.98	220.24
780.31	219.79
780.63	220.67
780.95	221.19
781.28	221.24
781.60	220.98
781.92	220.76
782.25	220.43
782.57	220.36
782.89	219.86
783.22	219.62
783.54	219.02
783.86	218.88
784.19	218.60
784.51	219.12
784.83	218.67
785.16	218.43
785.48	218.33
785.80	218.31
786.12	218.83
786.45	218.67
