SpectraSuite Data File
++++++++++++++++++++++++++++++++++++
Date: Tue Apr 02 18:46:54 EDT 2013
User: group
Dark Spectrum Present: No
Reference Spectrum Present: No
Number of Sampled Component Spectra: 1
Spectrometers: USB2E7196
Integration Time (usec): 580000 (USB2E7196)
Spectra Averaged: 2 (USB2E7196)
Boxcar Smoothing: 10 (USB2E7196)
Correct for Electrical Dark: No (USB2E7196)
Strobe/Lamp Enabled: No (USB2E7196)
Correct for Detector Non-linearity: No (USB2E7196)
Correct for Stray Light: No (USB2E7196)
Number of Pixels in Processed Spectrum: 2048
>>>>>Begin Processed Spectral Data<<<<<
339.09	0.00
339.48	192.00
339.86	192.00
340.24	194.00
340.63	200.50
341.01	228.00
341.39	200.50
341.78	208.50
342.16	208.00
342.54	206.00
342.93	196.62
343.31	206.36
343.69	207.00
344.07	207.57
344.46	208.43
344.84	208.90
345.22	207.79
345.60	208.29
345.99	208.48
346.37	208.50
346.75	208.74
347.13	208.74
347.52	208.93
347.90	209.79
348.28	210.05
348.66	210.45
349.05	209.67
349.43	209.86
349.81	210.21
350.19	210.24
350.57	210.50
350.96	210.81
351.34	211.26
351.72	211.33
352.10	211.62
352.48	211.26
352.87	211.14
353.25	211.40
353.63	211.21
354.01	211.10
354.39	211.26
354.77	211.19
355.15	211.93
355.54	211.83
355.92	211.26
356.30	211.19
356.68	212.45
357.06	212.67
357.44	212.29
357.82	211.98
358.20	213.12
358.58	213.12
358.97	213.26
359.35	213.57
359.73	214.24
360.11	214.21
360.49	214.43
360.87	214.43
361.25	214.62
361.63	215.38
362.01	215.48
362.39	215.45
362.77	215.71
363.15	215.43
363.53	215.38
363.91	215.40
364.29	215.40
364.67	213.48
365.05	213.52
365.43	213.98
365.81	214.36
366.19	214.38
366.57	215.17
366.95	215.17
367.33	214.64
367.71	214.50
368.09	214.86
368.47	215.00
368.85	215.05
369.23	215.45
369.61	214.64
369.99	215.60
370.37	215.79
370.75	216.81
371.13	216.48
371.51	216.36
371.89	216.74
372.27	216.76
372.65	217.05
373.03	216.98
373.41	216.79
373.78	216.67
374.16	215.48
374.54	214.88
374.92	214.74
375.30	214.95
375.68	214.57
376.06	214.62
376.44	214.55
376.82	214.62
377.19	214.50
377.57	214.83
377.95	214.07
378.33	214.12
378.71	212.76
379.09	213.07
379.47	213.48
379.84	213.26
380.22	213.17
380.60	213.10
380.98	213.21
381.36	213.07
381.73	212.81
382.11	213.21
382.49	213.17
382.87	212.93
383.25	212.76
383.62	214.98
384.00	214.43
384.38	214.45
384.76	215.12
385.13	216.00
385.51	215.71
385.89	215.29
386.27	215.26
386.64	215.64
387.02	215.43
387.40	215.02
387.78	215.05
388.15	215.21
388.53	215.17
388.91	215.26
389.29	215.33
389.66	215.76
390.04	215.43
390.42	215.67
390.79	215.93
391.17	216.02
391.55	213.83
391.92	214.07
392.30	214.17
392.68	213.64
393.05	213.40
393.43	213.62
393.81	213.90
394.18	213.50
394.56	213.62
394.94	213.98
395.31	213.76
395.69	214.38
396.06	214.67
396.44	214.69
396.82	214.55
397.19	215.55
397.57	215.21
397.95	215.60
398.32	215.19
398.70	215.43
399.07	215.88
399.45	216.05
399.82	216.21
400.20	216.07
400.58	215.90
400.95	215.10
401.33	215.45
401.70	217.00
402.08	217.14
402.45	217.00
402.83	217.67
403.20	217.93
403.58	217.90
403.95	218.40
404.33	218.90
404.71	219.31
405.08	220.48
405.46	221.00
405.83	221.55
406.21	221.90
406.58	222.17
406.96	222.21
407.33	222.81
407.70	223.31
408.08	225.50
408.45	226.52
408.83	227.62
409.20	228.05
409.58	227.38
409.95	228.76
410.33	229.95
410.70	230.31
411.08	231.93
411.45	232.90
411.82	233.64
412.20	235.10
412.57	237.52
412.95	237.07
413.32	238.69
413.69	240.14
414.07	241.93
414.44	243.83
414.82	245.74
415.19	247.93
415.56	250.10
415.94	251.38
416.31	254.10
416.68	256.88
417.06	260.05
417.43	263.71
417.81	266.93
418.18	270.43
418.55	273.95
418.93	277.71
419.30	281.60
419.67	286.29
420.04	290.62
420.42	294.48
420.79	301.48
421.16	306.62
421.54	313.19
421.91	319.33
422.28	325.45
422.66	332.02
423.03	340.02
423.40	347.10
423.77	354.12
424.15	361.26
424.52	368.67
424.89	377.43
425.26	384.98
425.64	392.62
426.01	400.86
426.38	409.62
426.75	419.21
427.13	428.79
427.50	438.05
427.87	448.02
428.24	457.71
428.61	466.29
428.99	477.95
429.36	488.31
429.73	499.52
430.10	510.67
430.47	522.24
430.85	532.40
431.22	544.86
431.59	559.86
431.96	572.64
432.33	586.79
432.70	599.95
433.08	615.57
433.45	631.07
433.82	646.36
434.19	663.71
434.56	680.00
434.93	695.29
435.30	711.14
435.68	729.00
436.05	746.43
436.42	762.88
436.79	779.33
437.16	796.45
437.53	814.57
437.90	832.67
438.27	850.98
438.64	869.52
439.01	886.81
439.38	900.02
439.75	914.29
440.13	931.05
440.50	946.62
440.87	959.60
441.24	971.86
441.61	986.29
441.98	996.60
442.35	1008.29
442.72	1021.81
443.09	1035.12
443.46	1042.29
443.83	1047.40
444.20	1052.33
444.57	1057.52
444.94	1060.60
445.31	1063.88
445.68	1068.93
446.05	1069.86
446.42	1067.69
446.79	1066.40
447.16	1064.74
447.53	1064.10
447.90	1057.71
448.27	1051.55
448.64	1043.43
449.01	1038.17
449.37	1027.00
449.74	1016.29
450.11	1005.36
450.48	990.29
450.85	973.95
451.22	961.05
451.59	949.40
451.96	938.19
452.33	922.64
452.70	908.69
453.07	891.60
453.43	872.17
453.80	855.71
454.17	840.69
454.54	824.69
454.91	808.48
455.28	792.38
455.65	777.62
456.02	766.57
456.38	753.60
456.75	738.19
457.12	724.98
457.49	712.10
457.86	698.31
458.23	688.12
458.59	676.93
458.96	665.76
459.33	654.95
459.70	644.14
460.07	636.07
460.43	626.69
460.80	618.33
461.17	611.74
461.54	603.64
461.91	595.79
462.27	587.86
462.64	581.12
463.01	573.67
463.38	567.17
463.74	556.38
464.11	550.19
464.48	544.10
464.85	538.10
465.21	533.71
465.58	528.45
465.95	521.93
466.32	516.86
466.68	511.38
467.05	506.43
467.42	501.86
467.78	496.33
468.15	491.24
468.52	487.29
468.88	481.71
469.25	477.05
469.62	473.64
469.98	469.95
470.35	466.50
470.72	463.17
471.08	458.45
471.45	455.64
471.82	452.64
472.18	449.12
472.55	446.64
472.92	442.74
473.28	439.55
473.65	437.10
474.02	435.17
474.38	433.10
474.75	431.24
475.11	428.83
475.48	427.00
475.85	425.48
476.21	423.31
476.58	421.98
476.94	420.98
477.31	419.38
477.67	418.24
478.04	416.90
478.41	416.05
478.77	417.40
479.14	415.95
479.50	415.31
479.87	415.38
480.23	414.95
480.60	414.79
480.96	414.88
481.33	415.67
481.69	415.21
482.06	415.38
482.42	415.67
482.79	416.12
483.15	416.74
483.52	417.60
483.88	418.26
484.25	418.74
484.61	419.33
484.98	419.86
485.34	421.36
485.71	423.14
486.07	424.36
486.44	423.64
486.80	425.57
487.17	426.90
487.53	428.62
487.90	430.74
488.26	433.88
488.62	436.62
488.99	438.29
489.35	441.05
489.72	443.48
490.08	446.24
490.44	448.83
490.81	452.24
491.17	455.19
491.54	459.19
491.90	462.79
492.26	466.19
492.63	470.31
492.99	473.76
493.36	477.62
493.72	482.05
494.08	486.76
494.45	491.45
494.81	496.76
495.17	501.69
495.54	507.12
495.90	511.52
496.26	516.69
496.63	522.02
496.99	527.60
497.35	533.55
497.72	539.55
498.08	545.52
498.44	551.62
498.80	558.19
499.17	563.76
499.53	570.33
499.89	577.40
500.26	583.83
500.62	590.86
500.98	598.29
501.34	605.43
501.71	613.00
502.07	620.02
502.43	626.76
502.79	633.62
503.16	640.17
503.52	647.43
503.88	653.95
504.24	661.86
504.60	669.10
504.97	677.02
505.33	683.95
505.69	692.83
506.05	699.98
506.41	707.52
506.78	715.64
507.14	723.05
507.50	730.71
507.86	739.02
508.22	747.14
508.59	753.60
508.95	761.31
509.31	769.71
509.67	777.74
510.03	785.40
510.39	793.88
510.75	802.21
511.12	810.60
511.48	818.74
511.84	826.64
512.20	834.38
512.56	841.88
512.92	849.79
513.28	856.81
513.64	864.21
514.00	871.81
514.37	879.71
514.73	886.88
515.09	894.29
515.45	900.45
515.81	906.31
516.17	913.93
516.53	920.50
516.89	926.36
517.25	932.81
517.61	939.98
517.97	945.29
518.33	951.17
518.69	957.33
519.05	964.12
519.41	969.83
519.77	977.21
520.13	983.05
520.49	989.07
520.85	994.64
521.21	1001.45
521.57	1007.36
521.93	1012.07
522.29	1018.07
522.65	1023.26
523.01	1029.48
523.37	1035.76
523.73	1040.62
524.09	1045.81
524.45	1050.86
524.81	1054.90
525.17	1060.12
525.53	1065.48
525.89	1070.40
526.25	1075.10
526.61	1078.95
526.97	1082.90
527.33	1086.67
527.68	1092.64
528.04	1096.48
528.40	1100.62
528.76	1104.24
529.12	1108.36
529.48	1113.48
529.84	1116.62
530.20	1120.60
530.56	1125.21
530.91	1129.10
531.27	1133.36
531.63	1137.45
531.99	1140.50
532.35	1144.71
532.71	1147.83
533.07	1152.45
533.42	1158.81
533.78	1162.67
534.14	1167.33
534.50	1171.69
534.86	1175.74
535.21	1178.02
535.57	1183.24
535.93	1186.93
536.29	1191.64
536.65	1195.00
537.00	1197.31
537.36	1201.98
537.72	1205.98
538.08	1208.81
538.44	1211.45
538.79	1215.67
539.15	1218.67
539.51	1223.05
539.87	1227.29
540.22	1230.12
540.58	1233.24
540.94	1233.79
541.29	1236.67
541.65	1238.76
542.01	1242.43
542.37	1244.79
542.72	1247.05
543.08	1248.17
543.44	1250.81
543.79	1251.90
544.15	1254.71
544.51	1258.45
544.87	1260.86
545.22	1263.24
545.58	1265.45
545.94	1268.45
546.29	1270.38
546.65	1273.50
547.01	1276.43
547.36	1278.67
547.72	1281.76
548.07	1284.14
548.43	1286.74
548.79	1288.83
549.14	1291.29
549.50	1293.67
549.86	1295.57
550.21	1298.36
550.57	1302.00
550.92	1304.50
551.28	1307.95
551.64	1310.45
551.99	1313.64
552.35	1315.83
552.70	1317.64
553.06	1321.43
553.41	1324.79
553.77	1329.02
554.13	1332.31
554.48	1335.43
554.84	1340.29
555.19	1343.69
555.55	1348.60
555.90	1352.24
556.26	1355.45
556.61	1359.40
556.97	1361.64
557.32	1366.48
557.68	1369.62
558.03	1372.83
558.39	1376.64
558.74	1381.00
559.10	1385.48
559.45	1388.64
559.81	1393.12
560.16	1398.43
560.52	1402.12
560.87	1406.31
561.23	1409.17
561.58	1415.12
561.94	1418.76
562.29	1420.88
562.64	1426.24
563.00	1429.43
563.35	1433.71
563.71	1439.45
564.06	1444.31
564.42	1450.10
564.77	1454.83
565.12	1461.93
565.48	1469.05
565.83	1475.52
566.19	1479.93
566.54	1485.29
566.89	1491.02
567.25	1496.76
567.60	1503.64
567.96	1511.29
568.31	1518.33
568.66	1524.60
569.02	1527.98
569.37	1533.76
569.72	1540.36
570.08	1544.93
570.43	1550.14
570.78	1555.76
571.14	1561.38
571.49	1566.24
571.84	1571.57
572.20	1576.31
572.55	1580.69
572.90	1583.81
573.26	1588.36
573.61	1593.48
573.96	1598.02
574.31	1602.29
574.67	1606.48
575.02	1610.19
575.37	1612.17
575.72	1614.90
576.08	1618.88
576.43	1622.24
576.78	1625.45
577.13	1628.74
577.49	1632.48
577.84	1636.12
578.19	1640.12
578.54	1643.43
578.90	1647.86
579.25	1651.71
579.60	1655.33
579.95	1658.26
580.30	1662.05
580.66	1665.52
581.01	1669.00
581.36	1672.24
581.71	1675.33
582.06	1680.64
582.42	1683.90
582.77	1687.45
583.12	1690.26
583.47	1694.43
583.82	1697.74
584.17	1701.74
584.53	1705.48
584.88	1709.10
585.23	1712.88
585.58	1715.02
585.93	1718.02
586.28	1721.10
586.63	1724.00
586.98	1727.07
587.34	1731.55
587.69	1734.67
588.04	1737.02
588.39	1739.67
588.74	1741.67
589.09	1744.60
589.44	1745.05
589.79	1747.00
590.14	1749.14
590.49	1751.81
590.84	1752.05
591.19	1755.50
591.54	1757.26
591.89	1758.74
592.25	1762.81
592.60	1764.48
592.95	1767.05
593.30	1769.24
593.65	1770.76
594.00	1771.67
594.35	1778.48
594.70	1777.24
595.05	1778.67
595.40	1779.93
595.75	1780.81
596.10	1783.10
596.45	1784.83
596.80	1786.62
597.15	1788.14
597.50	1789.26
597.85	1791.21
598.19	1792.69
598.54	1792.29
598.89	1793.17
599.24	1794.95
599.59	1793.57
599.94	1793.14
600.29	1793.81
600.64	1793.62
600.99	1793.93
601.34	1794.67
601.69	1789.12
602.04	1790.64
602.39	1790.29
602.74	1790.69
603.08	1791.24
603.43	1791.14
603.78	1789.69
604.13	1788.71
604.48	1787.52
604.83	1787.76
605.18	1787.19
605.53	1786.33
605.87	1786.76
606.22	1785.74
606.57	1783.38
606.92	1781.26
607.27	1780.69
607.62	1780.52
607.96	1780.55
608.31	1780.24
608.66	1779.07
609.01	1777.55
609.36	1776.40
609.70	1775.05
610.05	1772.21
610.40	1769.81
610.75	1767.21
611.10	1766.71
611.44	1763.60
611.79	1761.55
612.14	1758.10
612.49	1754.26
612.83	1752.43
613.18	1749.33
613.53	1747.10
613.88	1744.17
614.22	1741.95
614.57	1738.43
614.92	1734.48
615.27	1730.33
615.61	1725.48
615.96	1722.12
616.31	1718.95
616.65	1716.14
617.00	1712.98
617.35	1710.24
617.70	1708.24
618.04	1705.02
618.39	1700.24
618.74	1697.81
619.08	1693.76
619.43	1690.90
619.78	1688.31
620.12	1684.45
620.47	1681.05
620.82	1676.19
621.16	1672.95
621.51	1669.90
621.85	1666.38
622.20	1662.50
622.55	1658.24
622.89	1656.02
623.24	1652.98
623.59	1649.26
623.93	1643.76
624.28	1640.26
624.62	1638.07
624.97	1634.67
625.32	1629.64
625.66	1625.88
626.01	1623.02
626.35	1619.95
626.70	1616.45
627.04	1612.76
627.39	1608.48
627.73	1604.83
628.08	1602.62
628.43	1598.38
628.77	1593.98
629.12	1590.45
629.46	1586.33
629.81	1582.69
630.15	1577.26
630.50	1572.48
630.84	1567.76
631.19	1563.52
631.53	1557.64
631.88	1551.02
632.22	1544.69
632.57	1541.50
632.91	1537.21
633.26	1531.90
633.60	1526.36
633.95	1521.43
634.29	1515.88
634.64	1511.64
634.98	1506.95
635.32	1501.81
635.67	1498.24
636.01	1493.38
636.36	1488.29
636.70	1484.69
637.05	1479.88
637.39	1475.12
637.73	1470.83
638.08	1467.60
638.42	1463.12
638.77	1459.57
639.11	1455.79
639.45	1451.36
639.80	1446.17
640.14	1441.12
640.49	1436.69
640.83	1431.38
641.17	1426.76
641.52	1421.86
641.86	1416.88
642.20	1412.05
642.55	1406.88
642.89	1402.48
643.23	1396.76
643.58	1393.45
643.92	1386.55
644.26	1381.67
644.61	1377.45
644.95	1371.38
645.29	1364.95
645.64	1361.10
645.98	1354.86
646.32	1349.55
646.66	1343.60
647.01	1337.67
647.35	1332.83
647.69	1326.57
648.04	1322.38
648.38	1316.57
648.72	1310.50
649.06	1304.55
649.41	1298.29
649.75	1292.21
650.09	1284.81
650.43	1278.81
650.78	1271.31
651.12	1265.36
651.46	1259.17
651.80	1252.81
652.14	1246.90
652.49	1241.31
652.83	1233.90
653.17	1228.00
653.51	1220.69
653.85	1214.64
654.20	1209.31
654.54	1202.50
654.88	1196.64
655.22	1190.79
655.56	1184.38
655.90	1178.95
656.25	1172.90
656.59	1166.86
656.93	1161.05
657.27	1156.19
657.61	1150.95
657.95	1145.83
658.29	1139.71
658.64	1134.17
658.98	1127.52
659.32	1120.76
659.66	1113.83
660.00	1107.88
660.34	1101.62
660.68	1097.17
661.02	1091.52
661.36	1085.21
661.70	1079.29
662.05	1072.86
662.39	1066.71
662.73	1061.48
663.07	1056.12
663.41	1050.67
663.75	1044.76
664.09	1039.26
664.43	1032.79
664.77	1027.07
665.11	1019.50
665.45	1014.48
665.79	1008.26
666.13	1002.81
666.47	997.95
666.81	993.19
667.15	987.40
667.49	983.05
667.83	977.00
668.17	971.55
668.51	966.29
668.85	961.07
669.19	957.02
669.53	951.50
669.87	945.50
670.21	939.07
670.55	933.40
670.89	928.81
671.23	923.21
671.57	917.76
671.91	911.88
672.25	907.93
672.58	903.29
672.92	897.29
673.26	891.83
673.60	886.48
673.94	881.36
674.28	876.48
674.62	871.45
674.96	866.62
675.30	861.50
675.64	856.31
675.97	851.31
676.31	845.52
676.65	839.88
676.99	836.24
677.33	831.71
677.67	827.12
678.01	822.02
678.34	817.19
678.68	812.86
679.02	808.00
679.36	802.62
679.70	796.81
680.04	792.50
680.37	787.55
680.71	782.57
681.05	777.81
681.39	773.14
681.73	768.14
682.06	762.36
682.40	758.10
682.74	753.57
683.08	749.43
683.42	743.50
683.75	739.38
684.09	733.12
684.43	728.45
684.77	723.38
685.10	718.19
685.44	713.07
685.78	708.14
686.12	703.48
686.45	699.00
686.79	694.50
687.13	690.48
687.46	686.14
687.80	682.55
688.14	677.95
688.48	674.00
688.81	669.60
689.15	666.07
689.49	660.93
689.82	656.21
690.16	650.83
690.50	647.10
690.83	642.07
691.17	637.36
691.51	633.10
691.84	628.88
692.18	624.67
692.52	620.57
692.85	616.26
693.19	613.10
693.52	608.95
693.86	604.12
694.20	599.48
694.53	595.33
694.87	590.45
695.21	585.71
695.54	581.36
695.88	576.79
696.21	571.64
696.55	567.31
696.88	563.24
697.22	559.33
697.56	555.86
697.89	551.86
698.23	548.95
698.56	544.90
698.90	541.29
699.23	537.24
699.57	533.24
699.90	529.26
700.24	524.90
700.58	520.90
700.91	518.55
701.25	516.90
701.58	513.93
701.92	511.02
702.25	508.36
702.59	504.62
702.92	501.36
703.26	498.43
703.59	495.69
703.93	494.26
704.26	491.33
704.60	487.71
704.93	485.07
705.26	481.33
705.60	478.83
705.93	475.36
706.27	472.93
706.60	470.86
706.94	468.95
707.27	465.98
707.61	463.38
707.94	460.17
708.27	455.57
708.61	452.62
708.94	449.62
709.28	446.71
709.61	444.05
709.94	441.67
710.28	439.12
710.61	436.48
710.95	431.90
711.28	430.88
711.61	428.48
711.95	426.29
712.28	423.95
712.61	420.81
712.95	419.55
713.28	417.81
713.61	415.00
713.95	411.88
714.28	409.50
714.61	407.07
714.95	404.98
715.28	402.52
715.61	400.00
715.95	397.76
716.28	395.57
716.61	393.38
716.95	390.69
717.28	388.55
717.61	386.10
717.94	384.21
718.28	380.38
718.61	378.31
718.94	375.93
719.27	373.67
719.61	371.95
719.94	369.14
720.27	366.29
720.60	363.62
720.94	361.55
721.27	359.67
721.60	358.21
721.93	355.90
722.27	355.02
722.60	353.24
722.93	351.14
723.26	349.29
723.59	347.26
723.93	346.00
724.26	344.57
724.59	343.02
724.92	341.62
725.25	340.79
725.59	339.60
725.92	338.31
726.25	337.31
726.58	335.95
726.91	334.71
727.24	333.55
727.57	332.50
727.91	330.90
728.24	329.67
728.57	327.83
728.90	327.10
729.23	325.00
729.56	324.81
729.89	323.71
730.22	322.40
730.55	321.12
730.89	319.62
731.22	318.21
731.55	317.12
731.88	315.71
732.21	314.29
732.54	312.83
732.87	311.81
733.20	310.64
733.53	309.74
733.86	308.83
734.19	307.26
734.52	306.64
734.85	307.07
735.18	305.90
735.51	305.71
735.84	304.81
736.17	304.24
736.50	302.00
736.83	303.00
737.16	302.14
737.49	301.45
737.82	300.40
738.15	299.60
738.48	298.50
738.81	297.79
739.14	296.57
739.47	295.55
739.80	294.26
740.13	293.40
740.46	291.98
740.79	290.69
741.12	289.81
741.45	288.60
741.78	286.60
742.11	286.43
742.44	285.19
742.77	284.38
743.10	283.55
743.43	282.38
743.75	279.48
744.08	281.36
744.41	280.36
744.74	279.60
745.07	278.67
745.40	278.12
745.73	278.12
746.06	277.31
746.39	277.07
746.71	276.24
747.04	275.26
747.37	274.48
747.70	273.95
748.03	273.31
748.36	272.88
748.68	272.31
749.01	270.76
749.34	269.95
749.67	269.31
750.00	268.74
750.33	269.95
750.65	269.55
750.98	266.55
751.31	266.10
751.64	265.57
751.97	266.12
752.29	265.45
752.62	263.57
752.95	262.83
753.28	261.83
753.60	261.00
753.93	260.64
754.26	260.24
754.59	259.40
754.91	258.81
755.24	258.12
755.57	257.40
755.90	256.98
756.22	256.36
756.55	255.33
756.88	254.26
757.20	252.43
757.53	251.33
757.86	250.60
758.19	250.38
758.51	249.81
758.84	247.98
759.17	247.48
759.49	247.43
759.82	248.14
760.15	248.02
760.47	247.55
760.80	246.71
761.13	246.48
761.45	245.88
761.78	245.31
762.11	245.00
762.43	244.62
762.76	244.05
763.08	243.95
763.41	243.93
763.74	243.83
764.06	243.48
764.39	243.17
764.71	242.79
765.04	241.90
765.37	241.31
765.69	241.02
766.02	240.71
766.34	240.07
766.67	238.62
767.00	238.50
767.32	239.38
767.65	240.19
767.97	239.62
768.30	239.40
768.62	239.19
768.95	238.62
769.27	238.21
769.60	238.52
769.92	237.81
770.25	236.98
770.57	236.21
770.90	235.79
771.22	235.40
771.55	235.12
771.87	235.17
772.20	234.88
772.52	236.43
772.85	238.52
773.17	238.64
773.50	238.74
773.82	238.05
774.15	237.17
774.47	235.64
774.80	235.45
775.12	235.19
775.45	234.86
775.77	234.64
776.09	234.64
776.42	233.93
776.74	234.29
777.07	233.95
777.39	233.95
777.72	233.62
778.04	233.71
778.36	233.38
778.69	232.98
779.01	233.02
779.33	231.12
779.66	228.55
779.98	228.14
780.31	227.81
780.63	228.21
780.95	228.26
781.28	228.29
781.60	227.71
781.92	227.67
782.25	227.62
782.57	227.55
782.89	227.07
783.22	226.95
783.54	226.45
783.86	226.79
784.19	226.64
784.51	227.14
784.83	226.74
