SpectraSuite Data File
++++++++++++++++++++++++++++++++++++
Date: Tue Apr 02 18:43:49 EDT 2013
User: group
Dark Spectrum Present: No
Reference Spectrum Present: No
Number of Sampled Component Spectra: 1
Spectrometers: USB2E7196
Integration Time (usec): 580000 (USB2E7196)
Spectra Averaged: 2 (USB2E7196)
Boxcar Smoothing: 10 (USB2E7196)
Correct for Electrical Dark: No (USB2E7196)
Strobe/Lamp Enabled: No (USB2E7196)
Correct for Detector Non-linearity: No (USB2E7196)
Correct for Stray Light: No (USB2E7196)
Number of Pixels in Processed Spectrum: 2048
>>>>>Begin Processed Spectral Data<<<<<
339.09	0.00
339.48	191.50
339.86	195.00
340.24	198.50
340.63	195.50
341.01	233.00
341.39	200.50
341.78	212.50
342.16	210.00
342.54	207.50
342.93	197.64
343.31	207.48
343.69	208.24
344.07	208.88
344.46	209.48
344.84	210.10
345.22	209.14
345.60	209.48
345.99	209.57
346.37	209.43
346.75	209.74
347.13	209.71
347.52	209.95
347.90	210.62
348.28	210.90
348.66	211.64
349.05	211.19
349.43	211.12
349.81	211.43
350.19	211.24
350.57	211.43
350.96	211.71
351.34	212.00
351.72	212.07
352.10	212.19
352.48	212.02
352.87	211.90
353.25	211.83
353.63	212.02
354.01	211.71
354.39	212.02
354.77	211.93
355.15	212.67
355.54	212.19
355.92	211.43
356.30	211.38
356.68	212.40
357.06	212.55
357.44	212.40
357.82	212.21
358.20	213.07
358.58	212.95
358.97	212.93
359.35	213.36
359.73	213.83
360.11	213.67
360.49	213.79
360.87	213.90
361.25	214.10
361.63	214.76
362.01	215.14
362.39	215.00
362.77	215.12
363.15	214.95
363.53	215.45
363.91	215.90
364.29	215.76
364.67	213.90
365.05	214.05
365.43	214.62
365.81	214.81
366.19	215.14
366.57	215.86
366.95	215.71
367.33	215.12
367.71	215.07
368.09	215.62
368.47	215.60
368.85	215.52
369.23	215.83
369.61	214.88
369.99	215.40
370.37	215.52
370.75	216.55
371.13	216.02
371.51	215.67
371.89	215.57
372.27	215.81
372.65	216.17
373.03	216.14
373.41	215.57
373.78	215.62
374.16	214.40
374.54	213.67
374.92	213.57
375.30	213.79
375.68	213.33
376.06	213.24
376.44	213.14
376.82	213.26
377.19	213.12
377.57	213.29
377.95	212.40
378.33	212.29
378.71	211.10
379.09	211.50
379.47	211.67
379.84	211.50
380.22	211.24
380.60	210.76
380.98	210.74
381.36	210.76
381.73	210.64
382.11	211.31
382.49	211.48
382.87	211.29
383.25	211.07
383.62	213.12
384.00	212.67
384.38	212.90
384.76	213.38
385.13	214.12
385.51	214.26
385.89	214.10
386.27	214.26
386.64	214.50
387.02	214.19
387.40	214.00
387.78	214.24
388.15	214.43
388.53	214.48
388.91	214.45
389.29	214.36
389.66	214.50
390.04	214.00
390.42	214.43
390.79	214.55
391.17	214.55
391.55	212.76
391.92	212.88
392.30	212.93
392.68	212.52
393.05	212.33
393.43	212.36
393.81	212.50
394.18	212.14
394.56	211.95
394.94	212.74
395.31	212.57
395.69	213.19
396.06	213.55
396.44	213.79
396.82	213.69
397.19	214.57
397.57	214.38
397.95	214.76
398.32	214.31
398.70	214.67
399.07	215.33
399.45	215.12
399.82	215.14
400.20	214.93
400.58	215.10
400.95	214.36
401.33	214.74
401.70	216.31
402.08	216.60
402.45	216.62
402.83	216.86
403.20	217.14
403.58	216.88
403.95	217.33
404.33	217.69
404.71	217.88
405.08	219.33
405.46	219.62
405.83	220.02
406.21	220.29
406.58	220.69
406.96	220.83
407.33	221.62
407.70	222.36
408.08	224.62
408.45	225.45
408.83	226.71
409.20	227.12
409.58	226.81
409.95	227.79
410.33	228.95
410.70	229.31
411.08	230.69
411.45	231.81
411.82	232.52
412.20	234.00
412.57	236.71
412.95	236.55
413.32	238.45
413.69	239.76
414.07	241.69
414.44	243.60
414.82	245.71
415.19	248.02
415.56	250.10
415.94	251.33
416.31	254.21
416.68	256.90
417.06	260.31
417.43	263.60
417.81	267.07
418.18	270.60
418.55	274.74
418.93	278.45
419.30	282.50
419.67	286.86
420.04	291.36
420.42	295.17
420.79	302.10
421.16	307.62
421.54	314.52
421.91	320.55
422.28	326.38
422.66	332.95
423.03	340.79
423.40	348.00
423.77	355.21
424.15	362.17
424.52	369.43
424.89	378.14
425.26	385.93
425.64	393.69
426.01	401.95
426.38	410.26
426.75	419.98
427.13	429.05
427.50	438.67
427.87	448.76
428.24	458.57
428.61	466.79
428.99	478.24
429.36	488.83
429.73	499.76
430.10	511.29
430.47	522.69
430.85	533.55
431.22	546.17
431.59	561.26
431.96	574.31
432.33	588.45
432.70	601.57
433.08	617.81
433.45	632.83
433.82	648.05
434.19	664.76
434.56	681.19
434.93	697.14
435.30	713.00
435.68	730.43
436.05	748.17
436.42	765.29
436.79	780.43
437.16	797.36
437.53	815.38
437.90	832.83
438.27	850.93
438.64	868.52
439.01	885.64
439.38	898.50
439.75	913.64
440.13	930.81
440.50	946.55
440.87	959.33
441.24	972.98
441.61	987.48
441.98	998.79
442.35	1010.55
442.72	1023.31
443.09	1037.02
443.46	1044.38
443.83	1049.88
444.20	1054.79
444.57	1061.02
444.94	1064.24
445.31	1068.12
445.68	1074.17
446.05	1075.60
446.42	1074.74
446.79	1073.26
447.16	1072.00
447.53	1070.83
447.90	1064.07
448.27	1057.29
448.64	1048.90
449.01	1042.43
449.37	1032.29
449.74	1021.26
450.11	1010.55
450.48	996.17
450.85	980.45
451.22	967.55
451.59	955.57
451.96	944.00
452.33	928.69
452.70	914.86
453.07	897.76
453.43	878.19
453.80	861.26
454.17	844.64
454.54	828.83
454.91	812.74
455.28	796.38
455.65	781.79
456.02	770.83
456.38	757.79
456.75	742.24
457.12	727.57
457.49	714.64
457.86	699.95
458.23	690.38
458.59	678.26
458.96	666.79
459.33	655.81
459.70	645.07
460.07	636.71
460.43	626.74
460.80	617.81
461.17	610.31
461.54	602.55
461.91	595.38
462.27	587.52
462.64	580.17
463.01	572.67
463.38	566.12
463.74	555.36
464.11	548.74
464.48	543.50
464.85	538.40
465.21	534.07
465.58	529.26
465.95	522.36
466.32	517.29
466.68	512.00
467.05	507.48
467.42	502.45
467.78	497.17
468.15	492.67
468.52	489.26
468.88	484.02
469.25	479.12
469.62	475.86
469.98	471.81
470.35	468.33
470.72	464.74
471.08	459.98
471.45	457.64
471.82	455.19
472.18	451.52
472.55	448.88
472.92	445.50
473.28	442.55
473.65	439.55
474.02	437.02
474.38	435.21
474.75	432.52
475.11	430.57
475.48	429.00
475.85	427.19
476.21	425.02
476.58	423.57
476.94	422.67
477.31	421.10
477.67	420.26
478.04	419.17
478.41	418.43
478.77	419.64
479.14	418.12
479.50	417.29
479.87	416.88
480.23	416.24
480.60	415.79
480.96	415.74
481.33	416.55
481.69	416.45
482.06	416.74
482.42	417.76
482.79	418.05
483.15	418.17
483.52	418.55
483.88	419.10
484.25	419.60
484.61	420.40
484.98	420.95
485.34	422.55
485.71	424.17
486.07	425.43
486.44	425.12
486.80	426.86
487.17	428.07
487.53	430.48
487.90	432.43
488.26	435.29
488.62	437.83
488.99	439.43
489.35	442.45
489.72	445.02
490.08	447.36
490.44	450.21
490.81	453.33
491.17	456.74
491.54	459.90
491.90	463.64
492.26	467.14
492.63	471.14
492.99	474.24
493.36	478.00
493.72	482.60
494.08	487.12
494.45	492.00
494.81	497.93
495.17	502.36
495.54	507.50
495.90	512.17
496.26	517.86
496.63	524.00
496.99	528.93
497.35	534.57
497.72	540.40
498.08	546.00
498.44	552.19
498.80	558.52
499.17	565.14
499.53	571.62
499.89	578.40
500.26	585.24
500.62	592.36
500.98	599.98
501.34	606.74
501.71	614.40
502.07	621.12
502.43	627.10
502.79	633.93
503.16	640.95
503.52	647.60
503.88	653.93
504.24	660.79
504.60	669.14
504.97	676.95
505.33	684.10
505.69	693.21
506.05	700.62
506.41	708.86
506.78	716.21
507.14	723.74
507.50	731.24
507.86	738.52
508.22	746.19
508.59	753.17
508.95	760.57
509.31	768.17
509.67	775.76
510.03	783.48
510.39	791.79
510.75	799.71
511.12	807.86
511.48	816.12
511.84	823.64
512.20	831.07
512.56	838.62
512.92	846.40
513.28	853.21
513.64	860.83
514.00	867.52
514.37	875.21
514.73	882.21
515.09	889.64
515.45	896.76
515.81	903.95
516.17	911.19
516.53	917.95
516.89	923.98
517.25	930.98
517.61	938.02
517.97	943.83
518.33	950.48
518.69	956.76
519.05	963.02
519.41	969.43
519.77	976.38
520.13	981.52
520.49	987.50
520.85	993.02
521.21	999.76
521.57	1005.50
521.93	1011.21
522.29	1016.81
522.65	1022.19
523.01	1028.12
523.37	1032.88
523.73	1037.76
524.09	1042.48
524.45	1047.50
524.81	1051.69
525.17	1056.93
525.53	1062.12
525.89	1066.48
526.25	1070.95
526.61	1075.02
526.97	1078.69
527.33	1082.55
527.68	1089.00
528.04	1093.57
528.40	1097.07
528.76	1099.95
529.12	1104.05
529.48	1108.86
529.84	1113.38
530.20	1117.33
530.56	1121.50
530.91	1126.33
531.27	1130.26
531.63	1135.10
531.99	1139.48
532.35	1143.93
532.71	1147.71
533.07	1152.24
533.42	1158.90
533.78	1163.52
534.14	1168.38
534.50	1172.64
534.86	1176.74
535.21	1179.14
535.57	1184.00
535.93	1188.71
536.29	1194.21
536.65	1198.19
537.00	1200.71
537.36	1204.69
537.72	1208.10
538.08	1211.86
538.44	1215.07
538.79	1219.10
539.15	1222.26
539.51	1225.62
539.87	1228.88
540.22	1232.24
540.58	1235.40
540.94	1236.98
541.29	1239.60
541.65	1241.48
542.01	1245.62
542.37	1247.60
542.72	1250.60
543.08	1251.67
543.44	1254.38
543.79	1254.55
544.15	1256.93
544.51	1260.60
544.87	1263.29
545.22	1265.90
545.58	1267.90
545.94	1270.60
546.29	1273.21
546.65	1276.21
547.01	1279.21
547.36	1281.86
547.72	1284.00
548.07	1286.71
548.43	1288.26
548.79	1290.31
549.14	1292.55
549.50	1295.33
549.86	1297.62
550.21	1300.38
550.57	1303.50
550.92	1306.12
551.28	1310.43
551.64	1313.45
551.99	1316.00
552.35	1318.62
552.70	1321.12
553.06	1324.14
553.41	1326.52
553.77	1331.43
554.13	1335.12
554.48	1339.26
554.84	1343.83
555.19	1347.48
555.55	1352.19
555.90	1355.17
556.26	1359.48
556.61	1364.00
556.97	1366.69
557.32	1371.19
557.68	1374.86
558.03	1378.14
558.39	1381.81
558.74	1385.76
559.10	1390.40
559.45	1394.76
559.81	1398.57
560.16	1402.69
560.52	1407.33
560.87	1412.21
561.23	1414.55
561.58	1419.40
561.94	1422.38
562.29	1425.88
562.64	1430.45
563.00	1433.31
563.35	1438.55
563.71	1443.90
564.06	1448.71
564.42	1454.19
564.77	1459.69
565.12	1465.12
565.48	1472.48
565.83	1478.57
566.19	1483.74
566.54	1488.36
566.89	1493.48
567.25	1500.21
567.60	1508.43
567.96	1516.17
568.31	1522.71
568.66	1529.88
569.02	1534.40
569.37	1540.10
569.72	1546.07
570.08	1551.86
570.43	1557.90
570.78	1564.05
571.14	1569.60
571.49	1575.02
571.84	1580.74
572.20	1586.17
572.55	1591.26
572.90	1594.69
573.26	1599.00
573.61	1603.86
573.96	1609.48
574.31	1613.76
574.67	1617.95
575.02	1620.21
575.37	1621.76
575.72	1624.98
576.08	1628.14
576.43	1631.93
576.78	1635.52
577.13	1638.98
577.49	1642.74
577.84	1646.50
578.19	1649.86
578.54	1653.24
578.90	1657.60
579.25	1660.14
579.60	1662.07
579.95	1664.88
580.30	1669.17
580.66	1673.29
581.01	1676.95
581.36	1680.12
581.71	1683.81
582.06	1687.52
582.42	1691.71
582.77	1694.71
583.12	1697.62
583.47	1701.19
583.82	1705.40
584.17	1708.43
584.53	1711.71
584.88	1714.88
585.23	1718.19
585.58	1720.76
585.93	1723.21
586.28	1726.26
586.63	1729.50
586.98	1732.76
587.34	1736.45
587.69	1738.50
588.04	1740.76
588.39	1742.33
588.74	1743.29
589.09	1745.74
589.44	1746.21
589.79	1747.62
590.14	1750.29
590.49	1751.83
590.84	1753.10
591.19	1754.00
591.54	1755.55
591.89	1756.33
592.25	1758.83
592.60	1759.67
592.95	1762.00
593.30	1763.69
593.65	1764.31
594.00	1764.55
594.35	1771.31
594.70	1771.45
595.05	1772.83
595.40	1772.64
595.75	1773.83
596.10	1775.12
596.45	1776.29
596.80	1777.69
597.15	1778.43
597.50	1778.26
597.85	1780.29
598.19	1779.79
598.54	1779.64
598.89	1780.67
599.24	1782.71
599.59	1781.79
599.94	1780.98
600.29	1780.45
600.64	1780.29
600.99	1779.57
601.34	1780.88
601.69	1775.43
602.04	1774.95
602.39	1774.17
602.74	1774.76
603.08	1773.69
603.43	1774.36
603.78	1773.38
604.13	1773.26
604.48	1772.79
604.83	1773.62
605.18	1772.93
605.53	1772.21
605.87	1771.45
606.22	1770.26
606.57	1768.07
606.92	1767.24
607.27	1767.00
607.62	1765.52
607.96	1765.40
608.31	1765.50
608.66	1764.14
609.01	1762.90
609.36	1762.40
609.70	1760.64
610.05	1758.40
610.40	1757.26
610.75	1754.07
611.10	1752.38
611.44	1749.74
611.79	1746.81
612.14	1743.40
612.49	1739.38
612.83	1737.52
613.18	1734.52
613.53	1731.76
613.88	1728.74
614.22	1725.14
614.57	1721.36
614.92	1717.64
615.27	1713.26
615.61	1707.79
615.96	1704.00
616.31	1700.05
616.65	1697.19
617.00	1694.00
617.35	1692.12
617.70	1688.95
618.04	1685.24
618.39	1680.48
618.74	1676.83
619.08	1673.86
619.43	1671.24
619.78	1668.45
620.12	1664.67
620.47	1661.43
620.82	1657.29
621.16	1652.88
621.51	1649.83
621.85	1645.52
622.20	1642.45
622.55	1638.29
622.89	1635.05
623.24	1631.00
623.59	1627.60
623.93	1622.57
624.28	1618.33
624.62	1615.33
624.97	1612.29
625.32	1609.21
625.66	1605.57
626.01	1601.76
626.35	1598.00
626.70	1593.40
627.04	1589.60
627.39	1585.48
627.73	1582.81
628.08	1579.62
628.43	1576.29
628.77	1571.64
629.12	1569.81
629.46	1566.00
629.81	1561.69
630.15	1557.26
630.50	1552.74
630.84	1547.29
631.19	1542.71
631.53	1537.38
631.88	1529.69
632.22	1522.98
632.57	1519.14
632.91	1514.95
633.26	1510.69
633.60	1504.95
633.95	1499.64
634.29	1494.64
634.64	1490.45
634.98	1484.71
635.32	1480.50
635.67	1476.24
636.01	1471.86
636.36	1465.81
636.70	1461.50
637.05	1457.29
637.39	1452.88
637.73	1448.55
638.08	1445.05
638.42	1440.90
638.77	1437.71
639.11	1433.60
639.45	1429.81
639.80	1424.10
640.14	1418.76
640.49	1413.55
640.83	1408.69
641.17	1404.90
641.52	1399.79
641.86	1394.40
642.20	1389.93
642.55	1383.88
642.89	1377.88
643.23	1372.17
643.58	1367.52
643.92	1361.50
644.26	1355.71
644.61	1350.48
644.95	1345.00
645.29	1338.38
645.64	1332.98
645.98	1327.05
646.32	1322.57
646.66	1316.00
647.01	1309.43
647.35	1303.98
647.69	1297.79
648.04	1293.38
648.38	1286.05
648.72	1280.26
649.06	1274.19
649.41	1267.48
649.75	1261.38
650.09	1254.98
650.43	1248.69
650.78	1242.31
651.12	1235.60
651.46	1228.62
651.80	1222.52
652.14	1216.26
652.49	1210.67
652.83	1203.45
653.17	1196.33
653.51	1188.60
653.85	1183.07
654.20	1177.00
654.54	1169.60
654.88	1162.95
655.22	1156.02
655.56	1149.93
655.90	1142.36
656.25	1135.71
656.59	1129.36
656.93	1122.79
657.27	1117.95
657.61	1110.79
657.95	1104.21
658.29	1097.86
658.64	1092.38
658.98	1085.71
659.32	1078.45
659.66	1071.67
660.00	1065.79
660.34	1059.52
660.68	1053.43
661.02	1046.90
661.36	1040.74
661.70	1034.98
662.05	1028.64
662.39	1022.24
662.73	1016.83
663.07	1012.62
663.41	1006.62
663.75	1000.17
664.09	993.50
664.43	986.57
664.77	981.19
665.11	975.14
665.45	969.10
665.79	963.02
666.13	957.02
666.47	951.48
666.81	945.74
667.15	939.40
667.49	934.14
667.83	929.17
668.17	923.29
668.51	917.64
668.85	912.17
669.19	907.83
669.53	901.45
669.87	894.50
670.21	887.88
670.55	881.52
670.89	877.05
671.23	872.26
671.57	866.52
671.91	861.02
672.25	854.93
672.58	850.38
672.92	844.88
673.26	839.79
673.60	834.24
673.94	829.21
674.28	823.81
674.62	818.86
674.96	813.05
675.30	808.40
675.64	803.40
675.97	798.14
676.31	792.24
676.65	787.69
676.99	784.40
677.33	779.55
677.67	775.43
678.01	769.74
678.34	765.00
678.68	761.05
679.02	756.00
679.36	751.45
679.70	746.33
680.04	741.43
680.37	736.62
680.71	731.95
681.05	727.19
681.39	723.07
681.73	718.17
682.06	713.29
682.40	708.36
682.74	703.67
683.08	699.67
683.42	694.26
683.75	689.83
684.09	684.60
684.43	679.64
684.77	674.40
685.10	669.71
685.44	664.52
685.78	659.38
686.12	654.98
686.45	650.29
686.79	645.33
687.13	641.52
687.46	636.88
687.80	633.55
688.14	629.62
688.48	624.95
688.81	620.26
689.15	616.71
689.49	611.98
689.82	607.95
690.16	602.67
690.50	599.00
690.83	594.45
691.17	589.55
691.51	585.64
691.84	582.29
692.18	578.29
692.52	574.79
692.85	570.95
693.19	567.76
693.52	564.17
693.86	560.36
694.20	555.67
694.53	552.00
694.87	547.26
695.21	542.76
695.54	539.19
695.88	535.24
696.21	530.67
696.55	527.17
696.88	523.36
697.22	520.21
697.56	516.93
697.89	513.40
698.23	510.60
698.56	506.86
698.90	503.26
699.23	499.57
699.57	496.29
699.90	492.67
700.24	488.83
700.58	485.31
700.91	482.07
701.25	481.05
701.58	478.14
701.92	475.69
702.25	472.88
702.59	469.60
702.92	467.10
703.26	464.52
703.59	461.98
703.93	460.83
704.26	458.36
704.60	455.40
704.93	452.31
705.26	448.88
705.60	446.24
705.93	443.14
706.27	440.67
706.60	437.86
706.94	435.81
707.27	432.67
707.61	430.12
707.94	427.57
708.27	423.17
708.61	420.02
708.94	416.93
709.28	414.10
709.61	411.48
709.94	409.00
710.28	406.50
710.61	403.90
710.95	399.40
711.28	398.00
711.61	395.90
711.95	394.10
712.28	391.98
712.61	389.76
712.95	388.71
713.28	387.62
713.61	385.36
713.95	382.62
714.28	381.02
714.61	378.69
714.95	376.62
715.28	374.62
715.61	372.71
715.95	370.64
716.28	368.79
716.61	367.45
716.95	364.95
717.28	362.81
717.61	360.74
717.94	359.05
718.28	355.86
718.61	353.71
718.94	351.62
719.27	349.79
719.61	348.19
719.94	345.71
720.27	342.93
720.60	341.24
720.94	339.69
721.27	338.19
721.60	337.24
721.93	335.76
722.27	334.95
722.60	333.74
722.93	332.38
723.26	331.02
723.59	329.07
723.93	328.12
724.26	326.64
724.59	325.29
724.92	324.02
725.25	323.26
725.59	322.05
725.92	321.29
726.25	320.19
726.58	319.00
726.91	317.62
727.24	316.64
727.57	315.33
727.91	314.10
728.24	312.83
728.57	311.21
728.90	310.36
729.23	308.55
729.56	308.14
729.89	307.17
730.22	305.81
730.55	304.45
730.89	303.17
731.22	301.93
731.55	300.83
731.88	300.14
732.21	298.86
732.54	297.79
732.87	296.45
733.20	295.48
733.53	294.83
733.86	294.19
734.19	292.95
734.52	292.60
734.85	292.93
735.18	291.52
735.51	291.45
735.84	290.38
736.17	289.95
736.50	288.21
736.83	289.62
737.16	288.95
737.49	288.64
737.82	287.93
738.15	287.88
738.48	287.31
738.81	286.19
739.14	285.24
739.47	284.21
739.80	283.57
740.13	282.71
740.46	281.24
740.79	280.07
741.12	279.17
741.45	278.17
741.78	276.31
742.11	276.76
742.44	275.48
742.77	274.90
743.10	273.83
743.43	272.79
743.75	269.76
744.08	271.38
744.41	270.50
744.74	269.50
745.07	268.07
745.40	267.74
745.73	268.02
746.06	267.38
746.39	266.95
746.71	265.83
747.04	264.90
747.37	264.29
747.70	264.19
748.03	263.57
748.36	263.24
748.68	262.52
749.01	261.21
749.34	260.67
749.67	260.05
750.00	259.86
750.33	261.02
750.65	260.71
750.98	257.95
751.31	257.36
751.64	256.90
751.97	258.05
752.29	257.17
752.62	255.55
752.95	255.12
753.28	254.50
753.60	254.12
753.93	254.40
754.26	254.07
754.59	253.12
754.91	252.67
755.24	251.86
755.57	251.48
755.90	250.98
756.22	250.19
756.55	249.81
756.88	248.90
757.20	247.10
757.53	246.24
757.86	245.62
758.19	245.43
758.51	245.26
758.84	243.33
759.17	242.74
759.49	242.67
759.82	243.07
760.15	242.71
760.47	242.31
760.80	241.52
761.13	241.50
761.45	240.98
761.78	240.67
762.11	240.45
762.43	240.14
762.76	239.76
763.08	239.81
763.41	239.50
763.74	239.21
764.06	238.81
764.39	238.40
764.71	238.26
765.04	237.60
765.37	237.29
765.69	236.88
766.02	236.60
766.34	235.98
766.67	234.88
767.00	235.12
767.32	235.95
767.65	236.81
767.97	236.45
768.30	236.31
768.62	235.98
768.95	235.38
769.27	234.98
769.60	235.14
769.92	234.40
770.25	233.74
770.57	233.24
770.90	233.19
771.22	232.67
771.55	232.57
771.87	232.60
772.20	232.21
772.52	233.81
772.85	236.19
773.17	236.02
773.50	235.74
773.82	235.12
774.15	233.95
774.47	232.50
774.80	232.33
775.12	232.07
775.45	232.05
775.77	231.93
776.09	231.93
776.42	231.33
776.74	232.02
777.07	231.69
777.39	231.83
777.72	231.36
778.04	231.55
778.36	230.95
778.69	230.71
779.01	230.74
779.33	229.14
779.66	226.45
779.98	226.17
780.31	225.95
780.63	226.64
780.95	227.07
781.28	226.83
781.60	226.31
781.92	226.24
782.25	226.05
782.57	226.00
782.89	225.64
783.22	225.67
783.54	225.02
783.86	225.24
784.19	224.90
784.51	225.48
784.83	225.02
785.16	224.90
