SpectraSuite Data File
++++++++++++++++++++++++++++++++++++
Date: Tue Apr 02 18:46:34 EDT 2013
User: group
Dark Spectrum Present: No
Reference Spectrum Present: No
Number of Sampled Component Spectra: 1
Spectrometers: USB2E7196
Integration Time (usec): 580000 (USB2E7196)
Spectra Averaged: 2 (USB2E7196)
Boxcar Smoothing: 10 (USB2E7196)
Correct for Electrical Dark: No (USB2E7196)
Strobe/Lamp Enabled: No (USB2E7196)
Correct for Detector Non-linearity: No (USB2E7196)
Correct for Stray Light: No (USB2E7196)
Number of Pixels in Processed Spectrum: 2048
>>>>>Begin Processed Spectral Data<<<<<
339.09	0.00
339.48	191.00
339.86	193.00
340.24	195.00
340.63	198.00
341.01	231.50
341.39	201.50
341.78	202.50
342.16	218.00
342.54	205.00
342.93	197.71
343.31	207.74
343.69	208.21
344.07	208.95
344.46	209.86
344.84	210.52
345.22	209.29
345.60	209.71
345.99	210.29
346.37	209.79
346.75	210.00
347.13	210.02
347.52	210.07
347.90	210.76
348.28	211.12
348.66	211.71
349.05	211.33
349.43	211.76
349.81	212.14
350.19	212.02
350.57	212.24
350.96	212.31
351.34	212.60
351.72	213.07
352.10	213.36
352.48	213.12
352.87	213.17
353.25	213.62
353.63	213.67
354.01	213.40
354.39	213.67
354.77	213.81
355.15	214.40
355.54	214.45
355.92	213.79
356.30	213.81
356.68	214.98
357.06	215.17
357.44	214.83
357.82	214.45
358.20	215.71
358.58	215.86
358.97	215.93
359.35	216.29
359.73	216.64
360.11	216.52
360.49	216.50
360.87	216.50
361.25	216.67
361.63	217.40
362.01	217.62
362.39	217.67
362.77	217.79
363.15	217.48
363.53	217.45
363.91	217.69
364.29	217.60
364.67	215.74
365.05	215.71
365.43	215.81
365.81	216.12
366.19	216.05
366.57	216.76
366.95	216.71
367.33	216.24
367.71	216.21
368.09	216.43
368.47	216.71
368.85	216.67
369.23	217.12
369.61	216.19
369.99	216.60
370.37	216.67
370.75	217.48
371.13	217.26
371.51	217.21
371.89	217.36
372.27	217.50
372.65	217.60
373.03	217.52
373.41	217.48
373.78	217.21
374.16	216.12
374.54	215.33
374.92	215.19
375.30	215.10
375.68	214.50
376.06	214.64
376.44	214.40
376.82	214.40
377.19	213.93
377.57	213.88
377.95	213.14
378.33	212.93
378.71	212.02
379.09	212.29
379.47	212.36
379.84	212.17
380.22	211.74
380.60	211.48
380.98	211.33
381.36	211.55
381.73	211.40
382.11	211.86
382.49	211.95
382.87	211.62
383.25	211.64
383.62	214.07
384.00	213.57
384.38	213.48
384.76	214.05
385.13	214.69
385.51	214.71
385.89	214.86
386.27	214.95
386.64	215.00
387.02	214.81
387.40	214.60
387.78	214.55
388.15	214.95
388.53	214.86
388.91	215.07
389.29	214.74
389.66	215.29
390.04	215.05
390.42	215.52
390.79	215.74
391.17	215.57
391.55	213.31
391.92	213.50
392.30	213.76
392.68	213.31
393.05	213.12
393.43	213.48
393.81	213.45
394.18	213.12
394.56	213.26
394.94	213.74
395.31	213.48
395.69	214.21
396.06	214.31
396.44	214.45
396.82	214.26
397.19	215.48
397.57	215.21
397.95	215.38
398.32	214.79
398.70	215.17
399.07	215.55
399.45	215.55
399.82	215.31
400.20	215.07
400.58	214.81
400.95	214.36
401.33	214.50
401.70	216.05
402.08	216.26
402.45	215.98
402.83	216.52
403.20	216.93
403.58	216.67
403.95	217.05
404.33	217.48
404.71	217.60
405.08	218.50
405.46	218.71
405.83	219.26
406.21	219.45
406.58	219.71
406.96	220.07
407.33	220.67
407.70	221.57
408.08	223.79
408.45	225.05
408.83	226.10
409.20	226.48
409.58	226.07
409.95	227.36
410.33	228.64
410.70	228.81
411.08	230.00
411.45	231.14
411.82	232.10
412.20	233.69
412.57	236.45
412.95	236.45
413.32	238.36
413.69	239.31
414.07	240.93
414.44	242.64
414.82	244.81
415.19	247.40
415.56	249.76
415.94	251.14
416.31	253.71
416.68	256.50
417.06	259.74
417.43	263.12
417.81	266.19
418.18	269.74
418.55	273.81
418.93	278.05
419.30	282.36
419.67	286.74
420.04	290.93
420.42	294.98
420.79	301.83
421.16	307.00
421.54	314.12
421.91	320.14
422.28	326.17
422.66	332.60
423.03	340.14
423.40	346.83
423.77	353.57
424.15	360.29
424.52	367.55
424.89	375.62
425.26	383.55
425.64	391.07
426.01	399.52
426.38	408.14
426.75	417.38
427.13	426.48
427.50	436.26
427.87	446.29
428.24	455.88
428.61	464.14
428.99	475.52
429.36	485.52
429.73	496.93
430.10	508.00
430.47	519.50
430.85	530.00
431.22	542.43
431.59	557.45
431.96	570.76
432.33	585.17
432.70	599.02
433.08	614.98
433.45	630.67
433.82	645.69
434.19	662.31
434.56	678.81
434.93	694.57
435.30	710.19
435.68	727.60
436.05	744.62
436.42	761.31
436.79	777.38
437.16	794.36
437.53	812.57
437.90	830.24
438.27	848.02
438.64	866.36
439.01	883.57
439.38	897.50
439.75	912.21
440.13	928.60
440.50	943.95
440.87	956.38
441.24	969.62
441.61	983.71
441.98	994.57
442.35	1006.33
442.72	1019.50
443.09	1032.50
443.46	1039.86
443.83	1045.21
444.20	1050.12
444.57	1055.76
444.94	1059.24
445.31	1062.21
445.68	1068.52
446.05	1069.10
446.42	1067.60
446.79	1066.57
447.16	1064.95
447.53	1063.98
447.90	1057.38
448.27	1051.52
448.64	1043.17
449.01	1036.88
449.37	1025.98
449.74	1014.90
450.11	1003.83
450.48	989.21
450.85	973.64
451.22	961.52
451.59	949.45
451.96	938.05
452.33	922.64
452.70	908.79
453.07	891.86
453.43	871.90
453.80	856.64
454.17	840.98
454.54	825.26
454.91	808.76
455.28	792.38
455.65	778.31
456.02	766.69
456.38	753.62
456.75	738.40
457.12	725.24
457.49	712.69
457.86	698.48
458.23	688.33
458.59	676.48
458.96	664.36
459.33	653.90
459.70	643.64
460.07	635.52
460.43	626.17
460.80	617.81
461.17	611.00
461.54	602.45
461.91	594.55
462.27	586.33
462.64	579.19
463.01	572.17
463.38	565.33
463.74	554.83
464.11	548.52
464.48	542.71
464.85	536.76
465.21	532.52
465.58	528.14
465.95	521.62
466.32	517.14
466.68	512.12
467.05	508.26
467.42	503.07
467.78	497.71
468.15	492.74
468.52	489.29
468.88	483.62
469.25	478.95
469.62	475.69
469.98	471.69
470.35	468.55
470.72	464.83
471.08	460.24
471.45	457.45
471.82	454.86
472.18	451.19
472.55	448.76
472.92	445.21
473.28	441.62
473.65	438.36
474.02	435.43
474.38	433.57
474.75	430.76
475.11	428.69
475.48	426.81
475.85	424.90
476.21	422.86
476.58	421.81
476.94	420.76
477.31	419.62
477.67	418.45
478.04	417.07
478.41	416.17
478.77	417.57
479.14	416.57
479.50	415.71
479.87	415.38
480.23	415.00
480.60	414.48
480.96	414.38
481.33	415.45
481.69	415.43
482.06	415.79
482.42	416.10
482.79	416.79
483.15	417.05
483.52	418.19
483.88	418.38
484.25	418.98
484.61	419.83
484.98	420.19
485.34	422.07
485.71	423.83
486.07	425.10
486.44	424.74
486.80	426.24
487.17	427.83
487.53	430.38
487.90	432.48
488.26	435.55
488.62	438.19
488.99	439.76
489.35	442.50
489.72	444.74
490.08	447.38
490.44	449.40
490.81	453.02
491.17	455.93
491.54	459.69
491.90	463.50
492.26	467.33
492.63	471.14
492.99	474.38
493.36	478.38
493.72	482.95
494.08	487.36
494.45	491.93
494.81	496.71
495.17	500.86
495.54	506.05
495.90	510.86
496.26	515.90
496.63	521.48
496.99	526.93
497.35	532.48
497.72	538.79
498.08	544.79
498.44	550.90
498.80	557.12
499.17	562.81
499.53	568.86
499.89	575.50
500.26	582.40
500.62	589.19
500.98	596.57
501.34	603.26
501.71	611.10
502.07	618.55
502.43	625.64
502.79	632.83
503.16	640.19
503.52	647.55
503.88	654.88
504.24	662.62
504.60	670.40
504.97	678.21
505.33	685.38
505.69	694.76
506.05	702.19
506.41	710.19
506.78	718.19
507.14	725.55
507.50	733.29
507.86	740.74
508.22	748.93
508.59	755.50
508.95	763.83
509.31	772.26
509.67	780.05
510.03	787.69
510.39	795.95
510.75	803.43
511.12	810.50
511.48	818.26
511.84	825.33
512.20	833.45
512.56	840.79
512.92	849.00
513.28	855.57
513.64	862.81
514.00	870.02
514.37	877.90
514.73	885.43
515.09	893.02
515.45	900.40
515.81	907.43
516.17	914.52
516.53	920.93
516.89	925.71
517.25	931.74
517.61	939.21
517.97	945.00
518.33	951.24
518.69	957.71
519.05	964.71
519.41	971.38
519.77	978.74
520.13	985.14
520.49	989.88
520.85	995.21
521.21	1001.88
521.57	1008.07
521.93	1012.83
522.29	1018.83
522.65	1023.88
523.01	1029.48
523.37	1034.45
523.73	1039.81
524.09	1045.48
524.45	1050.88
524.81	1055.95
525.17	1060.74
525.53	1065.21
525.89	1069.74
526.25	1074.45
526.61	1078.36
526.97	1082.26
527.33	1085.38
527.68	1091.31
528.04	1096.02
528.40	1100.67
528.76	1103.88
529.12	1108.00
529.48	1113.31
529.84	1117.05
530.20	1121.12
530.56	1125.24
530.91	1130.10
531.27	1134.24
531.63	1137.81
531.99	1141.69
532.35	1145.55
532.71	1148.79
533.07	1153.48
533.42	1160.00
533.78	1163.52
534.14	1167.71
534.50	1172.05
534.86	1175.98
535.21	1178.14
535.57	1182.21
535.93	1185.98
536.29	1191.00
536.65	1194.31
537.00	1196.45
537.36	1199.26
537.72	1202.64
538.08	1206.14
538.44	1208.48
538.79	1211.45
539.15	1214.17
539.51	1217.38
539.87	1221.02
540.22	1224.95
540.58	1228.29
540.94	1229.00
541.29	1232.74
541.65	1234.64
542.01	1237.90
542.37	1240.50
542.72	1242.69
543.08	1244.45
543.44	1247.48
543.79	1248.71
544.15	1251.74
544.51	1255.50
544.87	1258.76
545.22	1261.29
545.58	1263.29
545.94	1265.95
546.29	1268.67
546.65	1272.05
547.01	1274.79
547.36	1277.60
547.72	1278.95
548.07	1281.71
548.43	1284.24
548.79	1285.98
549.14	1289.31
549.50	1291.62
549.86	1293.36
550.21	1296.00
550.57	1299.74
550.92	1300.93
551.28	1304.36
551.64	1306.71
551.99	1308.83
552.35	1311.69
552.70	1314.07
553.06	1317.62
553.41	1320.26
553.77	1325.10
554.13	1327.60
554.48	1331.81
554.84	1335.48
555.19	1339.14
555.55	1343.81
555.90	1347.14
556.26	1351.19
556.61	1353.86
556.97	1357.45
557.32	1361.50
557.68	1365.14
558.03	1368.79
558.39	1373.12
558.74	1376.79
559.10	1380.64
559.45	1384.60
559.81	1388.71
560.16	1393.24
560.52	1397.38
560.87	1401.24
561.23	1403.98
561.58	1410.33
561.94	1413.40
562.29	1416.88
562.64	1421.79
563.00	1425.02
563.35	1430.52
563.71	1435.19
564.06	1440.83
564.42	1446.10
564.77	1451.88
565.12	1458.31
565.48	1465.02
565.83	1471.33
566.19	1477.26
566.54	1482.67
566.89	1488.24
567.25	1494.43
567.60	1501.43
567.96	1508.93
568.31	1517.45
568.66	1524.14
569.02	1527.76
569.37	1533.81
569.72	1539.64
570.08	1544.81
570.43	1549.60
570.78	1554.81
571.14	1560.88
571.49	1565.79
571.84	1570.55
572.20	1575.36
572.55	1579.69
572.90	1583.26
573.26	1588.02
573.61	1591.64
573.96	1596.74
574.31	1601.05
574.67	1605.50
575.02	1608.57
575.37	1609.74
575.72	1612.10
576.08	1615.33
576.43	1619.57
576.78	1623.17
577.13	1627.69
577.49	1631.98
577.84	1636.93
578.19	1640.55
578.54	1644.29
578.90	1648.62
579.25	1652.57
579.60	1655.48
579.95	1659.10
580.30	1662.57
580.66	1666.45
581.01	1670.67
581.36	1673.19
581.71	1677.29
582.06	1681.10
582.42	1685.17
582.77	1689.07
583.12	1691.76
583.47	1695.69
583.82	1699.48
584.17	1703.19
584.53	1706.69
584.88	1709.83
585.23	1714.05
585.58	1716.36
585.93	1719.02
586.28	1722.45
586.63	1725.67
586.98	1729.93
587.34	1734.00
587.69	1736.33
588.04	1739.12
588.39	1742.02
588.74	1744.74
589.09	1747.79
589.44	1747.98
589.79	1749.69
590.14	1751.93
590.49	1753.95
590.84	1755.12
591.19	1757.10
591.54	1758.17
591.89	1759.29
592.25	1762.60
592.60	1763.07
592.95	1765.71
593.30	1767.60
593.65	1768.86
594.00	1769.19
594.35	1775.67
594.70	1776.24
595.05	1778.50
595.40	1778.38
595.75	1778.95
596.10	1780.93
596.45	1781.83
596.80	1784.57
597.15	1785.93
597.50	1786.52
597.85	1789.24
598.19	1790.67
598.54	1790.00
598.89	1791.33
599.24	1792.24
599.59	1791.93
599.94	1792.26
600.29	1792.26
600.64	1792.12
600.99	1792.19
601.34	1793.31
601.69	1787.29
602.04	1786.40
602.39	1785.31
602.74	1786.19
603.08	1785.40
603.43	1785.62
603.78	1784.00
604.13	1783.31
604.48	1782.79
604.83	1783.69
605.18	1782.17
605.53	1781.60
605.87	1781.19
606.22	1780.55
606.57	1779.24
606.92	1777.71
607.27	1776.43
607.62	1776.31
607.96	1775.48
608.31	1774.43
608.66	1773.52
609.01	1772.71
609.36	1771.71
609.70	1770.76
610.05	1769.10
610.40	1768.50
610.75	1766.29
611.10	1766.29
611.44	1763.69
611.79	1762.05
612.14	1758.93
612.49	1755.79
612.83	1752.81
613.18	1750.67
613.53	1748.10
613.88	1744.57
614.22	1740.88
614.57	1738.21
614.92	1733.62
615.27	1730.69
615.61	1726.86
615.96	1723.45
616.31	1719.57
616.65	1717.83
617.00	1714.93
617.35	1711.50
617.70	1707.55
618.04	1703.19
618.39	1698.52
618.74	1695.98
619.08	1691.45
619.43	1688.31
619.78	1685.45
620.12	1682.86
620.47	1680.19
620.82	1675.76
621.16	1672.21
621.51	1670.64
621.85	1666.88
622.20	1663.14
622.55	1658.71
622.89	1655.93
623.24	1652.38
623.59	1648.88
623.93	1643.98
624.28	1639.98
624.62	1638.71
624.97	1636.48
625.32	1633.05
625.66	1629.40
626.01	1624.52
626.35	1621.26
626.70	1617.71
627.04	1614.74
627.39	1610.19
627.73	1606.19
628.08	1603.45
628.43	1600.60
628.77	1595.79
629.12	1591.76
629.46	1589.07
629.81	1584.95
630.15	1579.74
630.50	1574.71
630.84	1570.24
631.19	1564.64
631.53	1559.19
631.88	1551.33
632.22	1544.79
632.57	1540.64
632.91	1535.48
633.26	1531.62
633.60	1526.02
633.95	1521.05
634.29	1515.38
634.64	1511.17
634.98	1505.74
635.32	1501.38
635.67	1497.45
636.01	1493.05
636.36	1488.05
636.70	1483.86
637.05	1479.81
637.39	1476.48
637.73	1472.45
638.08	1469.19
638.42	1466.02
638.77	1462.67
639.11	1457.76
639.45	1453.31
639.80	1448.07
640.14	1443.57
640.49	1438.81
640.83	1434.10
641.17	1428.98
641.52	1424.17
641.86	1418.67
642.20	1414.69
642.55	1409.17
642.89	1403.62
643.23	1397.60
643.58	1393.19
643.92	1387.29
644.26	1381.24
644.61	1376.00
644.95	1370.12
645.29	1363.31
645.64	1357.98
645.98	1352.26
646.32	1348.31
646.66	1342.43
647.01	1335.95
647.35	1329.95
647.69	1324.14
648.04	1318.10
648.38	1313.24
648.72	1307.31
649.06	1301.57
649.41	1294.60
649.75	1288.00
650.09	1281.74
650.43	1275.38
650.78	1268.86
651.12	1262.52
651.46	1256.93
651.80	1249.62
652.14	1244.02
652.49	1238.57
652.83	1231.74
653.17	1225.26
653.51	1218.64
653.85	1213.26
654.20	1207.74
654.54	1202.19
654.88	1196.00
655.22	1192.55
655.56	1185.52
655.90	1179.36
656.25	1172.83
656.59	1167.21
656.93	1161.24
657.27	1156.02
657.61	1149.86
657.95	1143.86
658.29	1137.76
658.64	1132.55
658.98	1125.79
659.32	1118.64
659.66	1111.57
660.00	1105.38
660.34	1099.26
660.68	1093.05
661.02	1086.90
661.36	1081.64
661.70	1076.10
662.05	1069.79
662.39	1062.81
662.73	1057.71
663.07	1052.10
663.41	1046.45
663.75	1040.62
664.09	1034.90
664.43	1028.26
664.77	1023.14
665.11	1017.02
665.45	1010.64
665.79	1004.83
666.13	999.57
666.47	994.55
666.81	989.64
667.15	983.88
667.49	978.95
667.83	973.69
668.17	967.64
668.51	961.69
668.85	955.62
669.19	951.50
669.53	944.69
669.87	938.24
670.21	932.60
670.55	926.86
670.89	921.93
671.23	916.69
671.57	911.24
671.91	906.10
672.25	900.98
672.58	896.55
672.92	890.24
673.26	885.33
673.60	880.19
673.94	874.71
674.28	869.79
674.62	865.55
674.96	859.64
675.30	855.93
675.64	850.86
675.97	845.86
676.31	839.64
676.65	835.57
676.99	832.07
677.33	827.24
677.67	822.71
678.01	817.71
678.34	813.17
678.68	808.69
679.02	803.14
679.36	797.93
679.70	792.31
680.04	787.79
680.37	782.95
680.71	777.43
681.05	773.24
681.39	768.69
681.73	762.48
682.06	758.17
682.40	753.00
682.74	748.64
683.08	744.67
683.42	739.48
683.75	734.26
684.09	728.24
684.43	723.64
684.77	718.81
685.10	713.52
685.44	708.55
685.78	703.26
686.12	698.86
686.45	694.17
686.79	690.19
687.13	685.90
687.46	681.31
687.80	677.90
688.14	672.95
688.48	668.55
688.81	664.02
689.15	660.07
689.49	655.12
689.82	650.64
690.16	645.45
690.50	641.31
690.83	636.83
691.17	632.29
691.51	627.81
691.84	623.55
692.18	619.74
692.52	615.50
692.85	611.93
693.19	608.88
693.52	605.21
693.86	600.57
694.20	596.38
694.53	592.36
694.87	587.62
695.21	583.31
695.54	579.36
695.88	574.88
696.21	570.24
696.55	566.12
696.88	562.14
697.22	558.38
697.56	555.05
697.89	551.24
698.23	548.02
698.56	544.10
698.90	540.40
699.23	536.48
699.57	532.86
699.90	528.71
700.24	524.10
700.58	520.38
700.91	517.40
701.25	515.29
701.58	512.67
701.92	509.88
702.25	506.74
702.59	503.07
702.92	500.52
703.26	497.33
703.59	494.83
703.93	493.38
704.26	490.24
704.60	487.29
704.93	484.07
705.26	480.83
705.60	478.26
705.93	474.74
706.27	472.26
706.60	469.60
706.94	467.55
707.27	464.14
707.61	460.86
707.94	457.79
708.27	453.55
708.61	450.21
708.94	447.05
709.28	444.60
709.61	441.40
709.94	438.55
710.28	435.76
710.61	432.64
710.95	428.07
711.28	427.14
711.61	424.45
711.95	422.31
712.28	419.48
712.61	416.86
712.95	415.64
713.28	413.90
713.61	410.95
713.95	407.74
714.28	406.02
714.61	403.98
714.95	401.79
715.28	399.12
715.61	396.33
715.95	394.38
716.28	391.12
716.61	389.67
716.95	387.19
717.28	384.93
717.61	382.83
717.94	380.98
718.28	377.12
718.61	374.62
718.94	372.24
719.27	370.07
719.61	367.83
719.94	365.48
720.27	362.21
720.60	360.19
720.94	358.36
721.27	356.29
721.60	354.62
721.93	352.43
722.27	351.71
722.60	350.81
722.93	348.90
723.26	348.21
723.59	346.38
723.93	345.10
724.26	343.95
724.59	342.05
724.92	340.45
725.25	339.57
725.59	338.21
725.92	337.24
726.25	336.14
726.58	335.29
726.91	333.62
727.24	332.64
727.57	331.64
727.91	330.29
728.24	329.38
728.57	327.86
728.90	327.19
729.23	325.12
729.56	324.48
729.89	323.00
730.22	321.45
730.55	319.83
730.89	318.76
731.22	317.40
731.55	316.48
731.88	315.43
732.21	313.95
732.54	313.02
732.87	311.62
733.20	310.60
733.53	309.48
733.86	308.52
734.19	307.26
734.52	306.21
734.85	306.33
735.18	304.95
735.51	304.64
735.84	303.71
736.17	303.45
736.50	301.12
736.83	302.79
737.16	301.83
737.49	301.00
737.82	299.71
738.15	298.76
738.48	297.79
738.81	296.50
739.14	295.33
739.47	294.24
739.80	293.21
740.13	292.40
740.46	290.95
740.79	289.90
741.12	288.95
741.45	287.81
741.78	285.86
742.11	285.67
742.44	284.31
742.77	283.57
743.10	282.14
743.43	281.90
743.75	278.62
744.08	280.67
744.41	280.17
744.74	279.60
745.07	278.50
745.40	278.02
745.73	278.02
746.06	277.21
746.39	276.45
746.71	275.67
747.04	274.67
747.37	273.93
747.70	273.57
748.03	272.83
748.36	272.33
748.68	271.64
749.01	270.14
749.34	269.52
749.67	268.60
750.00	268.26
750.33	268.90
750.65	268.55
750.98	265.36
751.31	264.52
751.64	263.71
751.97	264.45
752.29	263.90
752.62	262.64
752.95	262.14
753.28	261.45
753.60	260.74
753.93	260.71
754.26	260.24
754.59	259.10
754.91	258.21
755.24	257.67
755.57	257.19
755.90	256.71
756.22	255.98
756.55	255.33
756.88	254.36
757.20	252.26
757.53	251.26
757.86	250.67
758.19	250.40
758.51	250.12
758.84	248.67
759.17	247.95
759.49	247.64
759.82	248.19
760.15	248.12
760.47	247.88
760.80	246.79
761.13	246.64
761.45	246.19
761.78	245.98
762.11	245.52
762.43	245.14
762.76	244.88
763.08	244.81
763.41	244.48
763.74	244.19
764.06	243.64
764.39	243.60
764.71	243.24
765.04	242.40
765.37	241.71
765.69	240.95
766.02	240.26
766.34	239.69
766.67	238.48
767.00	238.45
767.32	239.05
767.65	240.00
767.97	239.60
768.30	239.29
768.62	238.88
768.95	238.36
769.27	237.95
769.60	237.86
769.92	237.12
770.25	236.50
770.57	235.98
770.90	235.74
771.22	235.10
771.55	234.64
771.87	234.71
772.20	234.38
772.52	236.29
772.85	238.50
773.17	238.02
773.50	237.93
773.82	237.17
774.15	235.93
774.47	234.71
774.80	234.19
775.12	234.12
775.45	233.79
775.77	233.67
776.09	233.48
776.42	233.21
776.74	233.90
777.07	233.52
777.39	233.62
777.72	233.52
778.04	233.45
778.36	233.17
778.69	233.17
779.01	233.40
779.33	231.29
779.66	228.98
779.98	228.95
780.31	228.43
780.63	229.24
780.95	229.48
781.28	229.12
781.60	228.83
781.92	228.48
782.25	228.31
782.57	228.19
782.89	227.83
783.22	227.60
783.54	226.69
783.86	226.93
784.19	226.50
784.51	226.76
784.83	226.38
