SpectraSuite Data File
++++++++++++++++++++++++++++++++++++
Date: Tue Apr 02 18:46:04 EDT 2013
User: group
Dark Spectrum Present: No
Reference Spectrum Present: No
Number of Sampled Component Spectra: 1
Spectrometers: USB2E7196
Integration Time (usec): 580000 (USB2E7196)
Spectra Averaged: 2 (USB2E7196)
Boxcar Smoothing: 10 (USB2E7196)
Correct for Electrical Dark: No (USB2E7196)
Strobe/Lamp Enabled: No (USB2E7196)
Correct for Detector Non-linearity: No (USB2E7196)
Correct for Stray Light: No (USB2E7196)
Number of Pixels in Processed Spectrum: 2048
>>>>>Begin Processed Spectral Data<<<<<
339.09	0.00
339.48	198.50
339.86	193.00
340.24	198.00
340.63	193.50
341.01	229.50
341.39	202.50
341.78	209.00
342.16	213.50
342.54	203.50
342.93	198.07
343.31	208.05
343.69	208.36
344.07	209.05
344.46	209.90
344.84	210.71
345.22	209.74
345.60	210.19
345.99	210.36
346.37	210.14
346.75	210.36
347.13	210.29
347.52	210.40
347.90	211.10
348.28	211.36
348.66	211.67
349.05	211.26
349.43	211.74
349.81	212.17
350.19	212.12
350.57	212.57
350.96	212.81
351.34	213.00
351.72	213.31
352.10	213.38
352.48	213.00
352.87	213.00
353.25	213.02
353.63	212.81
354.01	213.07
354.39	213.24
354.77	213.50
355.15	214.40
355.54	214.24
355.92	213.45
356.30	213.31
356.68	214.57
357.06	214.71
357.44	214.07
357.82	213.93
358.20	214.95
358.58	214.69
358.97	214.88
359.35	215.36
359.73	215.76
360.11	215.71
360.49	216.05
360.87	216.07
361.25	216.57
361.63	217.48
362.01	217.45
362.39	217.43
362.77	217.57
363.15	217.24
363.53	217.36
363.91	217.76
364.29	217.71
364.67	215.81
365.05	215.45
365.43	215.93
365.81	216.29
366.19	216.67
366.57	217.33
366.95	217.14
367.33	216.40
367.71	216.36
368.09	216.93
368.47	216.81
368.85	216.67
369.23	217.00
369.61	216.12
369.99	216.48
370.37	216.62
370.75	217.40
371.13	216.93
371.51	216.83
371.89	216.86
372.27	217.17
372.65	217.26
373.03	217.33
373.41	217.14
373.78	216.90
374.16	215.52
374.54	215.17
374.92	214.95
375.30	215.00
375.68	214.36
376.06	214.38
376.44	214.12
376.82	214.17
377.19	213.57
377.57	213.40
377.95	212.74
378.33	212.67
378.71	211.50
379.09	211.90
379.47	212.00
379.84	211.93
380.22	211.71
380.60	211.36
380.98	211.43
381.36	211.36
381.73	211.05
382.11	211.45
382.49	211.55
382.87	211.38
383.25	211.45
383.62	214.17
384.00	213.64
384.38	213.88
384.76	214.33
385.13	215.33
385.51	215.48
385.89	215.31
386.27	215.29
386.64	215.48
387.02	215.12
387.40	215.00
387.78	215.12
388.15	215.19
388.53	215.29
388.91	215.29
389.29	215.05
389.66	215.57
390.04	215.38
390.42	215.55
390.79	215.69
391.17	215.60
391.55	213.33
391.92	213.21
392.30	213.40
392.68	212.90
393.05	212.79
393.43	212.76
393.81	213.00
394.18	212.79
394.56	212.95
394.94	213.69
395.31	213.43
395.69	214.02
396.06	214.21
396.44	214.14
396.82	214.12
397.19	215.55
397.57	215.21
397.95	215.36
398.32	214.64
398.70	214.69
399.07	215.24
399.45	214.98
399.82	215.26
400.20	215.07
400.58	215.21
400.95	214.29
401.33	214.98
401.70	216.43
402.08	216.57
402.45	216.74
402.83	217.19
403.20	217.55
403.58	217.31
403.95	217.93
404.33	218.60
404.71	219.02
405.08	219.74
405.46	219.93
405.83	220.24
406.21	220.79
406.58	221.36
406.96	221.45
407.33	222.21
407.70	222.90
408.08	225.02
408.45	225.90
408.83	226.88
409.20	227.26
409.58	226.62
409.95	227.83
410.33	228.69
410.70	228.90
411.08	230.10
411.45	231.02
411.82	231.83
412.20	233.50
412.57	235.76
412.95	235.31
413.32	237.24
413.69	238.67
414.07	240.21
414.44	242.19
414.82	244.40
415.19	246.71
415.56	248.93
415.94	249.93
416.31	252.86
416.68	255.81
417.06	259.00
417.43	262.71
417.81	266.05
418.18	269.48
418.55	273.07
418.93	277.07
419.30	281.45
419.67	285.60
420.04	289.76
420.42	293.90
420.79	301.24
421.16	306.86
421.54	313.83
421.91	320.29
422.28	326.43
422.66	332.45
423.03	340.69
423.40	347.36
423.77	354.83
424.15	361.86
424.52	369.38
424.89	377.64
425.26	385.19
425.64	392.86
426.01	401.38
426.38	410.50
426.75	419.95
427.13	428.98
427.50	438.48
427.87	448.67
428.24	458.55
428.61	467.10
428.99	478.29
429.36	488.40
429.73	499.57
430.10	510.95
430.47	523.14
430.85	532.93
431.22	545.40
431.59	559.90
431.96	572.57
432.33	586.33
432.70	600.12
433.08	616.14
433.45	631.12
433.82	646.07
434.19	662.74
434.56	679.38
434.93	695.10
435.30	711.33
435.68	728.57
436.05	745.86
436.42	762.55
436.79	778.45
437.16	795.90
437.53	813.48
437.90	830.69
438.27	848.71
438.64	867.02
439.01	884.05
439.38	897.71
439.75	912.60
440.13	929.24
440.50	944.90
440.87	957.48
441.24	970.64
441.61	984.29
441.98	994.98
442.35	1006.60
442.72	1019.60
443.09	1032.36
443.46	1039.38
443.83	1044.55
444.20	1049.21
444.57	1054.24
444.94	1057.29
445.31	1060.62
445.68	1066.45
446.05	1067.40
446.42	1066.36
446.79	1065.05
447.16	1063.31
447.53	1061.60
447.90	1055.21
448.27	1048.93
448.64	1040.33
449.01	1034.38
449.37	1024.55
449.74	1013.60
450.11	1002.52
450.48	987.79
450.85	972.36
451.22	960.31
451.59	948.57
451.96	937.14
452.33	922.26
452.70	908.26
453.07	891.26
453.43	871.69
453.80	855.52
454.17	839.67
454.54	824.64
454.91	808.31
455.28	792.95
455.65	778.26
456.02	766.36
456.38	754.10
456.75	738.90
457.12	725.50
457.49	712.90
457.86	698.90
458.23	689.31
458.59	678.17
458.96	666.26
459.33	655.38
459.70	644.38
460.07	636.12
460.43	626.88
460.80	618.81
461.17	611.69
461.54	603.38
461.91	595.24
462.27	586.76
462.64	579.90
463.01	572.43
463.38	566.17
463.74	555.67
464.11	548.74
464.48	542.76
464.85	536.31
465.21	532.02
465.58	526.95
465.95	519.98
466.32	514.93
466.68	509.74
467.05	504.88
467.42	500.74
467.78	495.29
468.15	489.90
468.52	485.74
468.88	480.48
469.25	475.79
469.62	472.76
469.98	468.81
470.35	465.31
470.72	461.95
471.08	457.40
471.45	454.60
471.82	452.48
472.18	449.00
472.55	446.76
472.92	442.83
473.28	439.67
473.65	436.83
474.02	433.88
474.38	431.81
474.75	429.88
475.11	427.14
475.48	425.60
475.85	424.07
476.21	422.50
476.58	421.07
476.94	420.26
477.31	418.76
477.67	417.93
478.04	416.90
478.41	415.93
478.77	417.10
479.14	416.31
479.50	415.43
479.87	415.29
480.23	415.17
480.60	414.95
480.96	415.00
481.33	416.00
481.69	415.93
482.06	416.17
482.42	416.62
482.79	417.38
483.15	417.74
483.52	418.31
483.88	418.71
484.25	419.48
484.61	420.07
484.98	420.50
485.34	421.93
485.71	423.36
486.07	424.62
486.44	424.48
486.80	426.07
487.17	426.93
487.53	429.29
487.90	430.83
488.26	433.98
488.62	436.88
488.99	438.88
489.35	441.67
489.72	444.17
490.08	446.81
490.44	449.29
490.81	452.40
491.17	455.43
491.54	458.93
491.90	462.67
492.26	465.98
492.63	470.14
492.99	473.52
493.36	477.64
493.72	481.90
494.08	486.14
494.45	491.05
494.81	496.69
495.17	501.10
495.54	506.55
495.90	510.98
496.26	515.90
496.63	521.10
496.99	526.31
497.35	532.10
497.72	537.69
498.08	543.40
498.44	549.55
498.80	556.40
499.17	562.38
499.53	568.36
499.89	575.17
500.26	582.02
500.62	589.21
500.98	596.26
501.34	603.24
501.71	610.76
502.07	618.02
502.43	625.14
502.79	632.12
503.16	638.98
503.52	646.12
503.88	653.14
504.24	660.64
504.60	668.24
504.97	676.40
505.33	684.31
505.69	693.29
506.05	700.88
506.41	708.21
506.78	716.10
507.14	723.36
507.50	731.69
507.86	739.07
508.22	746.69
508.59	754.14
508.95	762.43
509.31	771.36
509.67	778.76
510.03	786.07
510.39	793.57
510.75	801.50
511.12	809.52
511.48	817.14
511.84	824.64
512.20	832.71
512.56	840.02
512.92	847.86
513.28	854.88
513.64	862.19
514.00	869.69
514.37	877.14
514.73	885.17
515.09	892.02
515.45	899.50
515.81	906.33
516.17	912.93
516.53	919.29
516.89	924.29
517.25	931.19
517.61	938.45
517.97	945.00
518.33	951.26
518.69	958.05
519.05	964.45
519.41	970.52
519.77	977.83
520.13	983.02
520.49	988.14
520.85	993.98
521.21	1000.79
521.57	1006.90
521.93	1012.14
522.29	1017.10
522.65	1021.93
523.01	1027.07
523.37	1032.31
523.73	1038.17
524.09	1043.17
524.45	1047.88
524.81	1052.38
525.17	1057.14
525.53	1062.24
525.89	1066.95
526.25	1071.76
526.61	1075.98
526.97	1079.93
527.33	1083.50
527.68	1090.05
528.04	1095.33
528.40	1098.93
528.76	1102.48
529.12	1106.69
529.48	1110.95
529.84	1115.19
530.20	1119.67
530.56	1124.19
530.91	1128.31
531.27	1132.26
531.63	1136.55
531.99	1141.19
532.35	1144.74
532.71	1148.24
533.07	1152.95
533.42	1159.07
533.78	1162.29
534.14	1166.55
534.50	1170.79
534.86	1174.83
535.21	1176.60
535.57	1180.21
535.93	1183.81
536.29	1188.69
536.65	1191.83
537.00	1195.52
537.36	1199.19
537.72	1202.71
538.08	1205.95
538.44	1208.81
538.79	1212.31
539.15	1215.17
539.51	1218.60
539.87	1222.07
540.22	1225.07
540.58	1227.43
540.94	1228.64
541.29	1231.86
541.65	1234.26
542.01	1237.79
542.37	1239.90
542.72	1242.31
543.08	1244.43
543.44	1247.62
543.79	1248.71
544.15	1251.55
544.51	1255.50
544.87	1258.26
545.22	1261.05
545.58	1264.00
545.94	1267.38
546.29	1269.69
546.65	1272.88
547.01	1274.74
547.36	1277.71
547.72	1280.12
548.07	1282.62
548.43	1285.17
548.79	1287.07
549.14	1289.69
549.50	1292.40
549.86	1294.88
550.21	1298.69
550.57	1302.31
550.92	1304.79
551.28	1307.83
551.64	1310.52
551.99	1312.71
552.35	1315.90
552.70	1318.98
553.06	1321.67
553.41	1324.29
553.77	1328.17
554.13	1331.36
554.48	1335.31
554.84	1339.29
555.19	1343.17
555.55	1348.60
555.90	1352.12
556.26	1356.79
556.61	1360.57
556.97	1362.62
557.32	1365.64
557.68	1369.12
558.03	1372.26
558.39	1375.74
558.74	1379.57
559.10	1382.90
559.45	1386.95
559.81	1391.07
560.16	1394.76
560.52	1398.36
560.87	1403.05
561.23	1406.62
561.58	1412.86
561.94	1416.69
562.29	1420.07
562.64	1424.81
563.00	1427.50
563.35	1432.12
563.71	1436.40
564.06	1442.07
564.42	1448.29
564.77	1454.67
565.12	1460.45
565.48	1467.07
565.83	1473.00
566.19	1479.33
566.54	1485.64
566.89	1491.40
567.25	1497.19
567.60	1504.21
567.96	1511.69
568.31	1518.86
568.66	1525.19
569.02	1528.69
569.37	1534.21
569.72	1539.83
570.08	1544.12
570.43	1549.90
570.78	1555.79
571.14	1561.57
571.49	1566.00
571.84	1572.14
572.20	1577.43
572.55	1582.21
572.90	1585.71
573.26	1590.10
573.61	1593.60
573.96	1597.57
574.31	1601.74
574.67	1605.26
575.02	1608.64
575.37	1611.29
575.72	1613.76
576.08	1617.38
576.43	1620.62
576.78	1624.45
577.13	1627.95
577.49	1632.95
577.84	1637.40
578.19	1641.31
578.54	1644.83
578.90	1649.76
579.25	1652.17
579.60	1654.02
579.95	1657.21
580.30	1660.64
580.66	1664.98
581.01	1669.64
581.36	1673.29
581.71	1675.93
582.06	1681.33
582.42	1684.67
582.77	1688.14
583.12	1691.83
583.47	1695.21
583.82	1699.26
584.17	1702.74
584.53	1706.79
584.88	1709.90
585.23	1713.36
585.58	1715.26
585.93	1718.24
586.28	1721.12
586.63	1724.71
586.98	1728.67
587.34	1732.36
587.69	1735.69
588.04	1738.02
588.39	1740.00
588.74	1742.64
589.09	1746.33
589.44	1746.10
589.79	1748.74
590.14	1750.29
590.49	1752.10
590.84	1753.48
591.19	1755.33
591.54	1757.74
591.89	1758.76
592.25	1762.26
592.60	1762.57
592.95	1765.07
593.30	1766.60
593.65	1767.29
594.00	1766.93
594.35	1774.21
594.70	1774.21
595.05	1775.55
595.40	1776.12
595.75	1776.64
596.10	1778.64
596.45	1779.40
596.80	1781.29
597.15	1782.12
597.50	1783.43
597.85	1785.43
598.19	1785.81
598.54	1786.88
598.89	1787.36
599.24	1789.31
599.59	1787.62
599.94	1788.45
600.29	1788.74
600.64	1789.14
600.99	1789.33
601.34	1790.81
601.69	1785.12
602.04	1785.45
602.39	1784.29
602.74	1785.67
603.08	1785.67
603.43	1785.64
603.78	1784.71
604.13	1783.76
604.48	1782.64
604.83	1783.31
605.18	1782.38
605.53	1782.88
605.87	1781.76
606.22	1780.90
606.57	1779.36
606.92	1778.33
607.27	1776.81
607.62	1776.40
607.96	1776.07
608.31	1776.19
608.66	1775.45
609.01	1773.93
609.36	1773.74
609.70	1773.12
610.05	1770.52
610.40	1768.33
610.75	1765.69
611.10	1764.38
611.44	1762.36
611.79	1760.19
612.14	1757.52
612.49	1753.81
612.83	1751.48
613.18	1748.69
613.53	1746.26
613.88	1743.33
614.22	1740.14
614.57	1737.33
614.92	1733.10
615.27	1728.45
615.61	1723.52
615.96	1718.95
616.31	1716.17
616.65	1712.57
617.00	1708.62
617.35	1706.26
617.70	1703.69
618.04	1699.45
618.39	1694.79
618.74	1691.93
619.08	1688.38
619.43	1685.26
619.78	1682.74
620.12	1679.36
620.47	1676.48
620.82	1671.43
621.16	1667.00
621.51	1664.52
621.85	1660.38
622.20	1656.55
622.55	1653.12
622.89	1650.19
623.24	1647.60
623.59	1643.12
623.93	1638.31
624.28	1634.88
624.62	1632.29
624.97	1629.67
625.32	1627.14
625.66	1624.29
626.01	1620.48
626.35	1617.24
626.70	1612.29
627.04	1608.19
627.39	1603.00
627.73	1599.26
628.08	1596.52
628.43	1592.55
628.77	1588.07
629.12	1585.50
629.46	1582.67
629.81	1578.74
630.15	1573.69
630.50	1569.33
630.84	1565.10
631.19	1560.83
631.53	1557.00
631.88	1549.45
632.22	1543.45
632.57	1539.40
632.91	1534.29
633.26	1530.05
633.60	1525.29
633.95	1520.07
634.29	1514.95
634.64	1511.38
634.98	1505.62
635.32	1501.64
635.67	1498.43
636.01	1494.64
636.36	1488.93
636.70	1484.64
637.05	1480.12
637.39	1476.29
637.73	1471.38
638.08	1467.19
638.42	1462.57
638.77	1458.29
639.11	1454.24
639.45	1449.83
639.80	1442.50
640.14	1438.62
640.49	1433.64
640.83	1427.83
641.17	1423.69
641.52	1419.14
641.86	1413.21
642.20	1409.31
642.55	1403.38
642.89	1397.76
643.23	1391.86
643.58	1387.57
643.92	1380.62
644.26	1375.02
644.61	1370.38
644.95	1365.33
645.29	1359.19
645.64	1353.98
645.98	1347.40
646.32	1342.60
646.66	1336.24
647.01	1331.57
647.35	1325.81
647.69	1319.29
648.04	1314.60
648.38	1308.21
648.72	1302.19
649.06	1297.19
649.41	1291.55
649.75	1285.62
650.09	1279.40
650.43	1273.50
650.78	1266.17
651.12	1260.74
651.46	1254.10
651.80	1247.52
652.14	1241.62
652.49	1236.81
652.83	1230.57
653.17	1224.12
653.51	1217.45
653.85	1211.93
654.20	1205.67
654.54	1198.57
654.88	1192.88
655.22	1186.86
655.56	1181.33
655.90	1174.71
656.25	1167.45
656.59	1160.83
656.93	1154.86
657.27	1150.21
657.61	1143.67
657.95	1138.52
658.29	1132.05
658.64	1127.52
658.98	1120.33
659.32	1113.24
659.66	1105.98
660.00	1100.05
660.34	1093.93
660.68	1088.12
661.02	1081.93
661.36	1076.21
661.70	1070.69
662.05	1064.83
662.39	1058.74
662.73	1052.64
663.07	1048.10
663.41	1042.90
663.75	1036.31
664.09	1030.33
664.43	1023.60
664.77	1018.19
665.11	1012.02
665.45	1006.57
665.79	999.93
666.13	994.86
666.47	989.31
666.81	984.19
667.15	978.33
667.49	973.29
667.83	968.17
668.17	962.55
668.51	956.64
668.85	951.14
669.19	946.17
669.53	940.05
669.87	934.71
670.21	928.31
670.55	922.36
670.89	917.74
671.23	912.71
671.57	906.29
671.91	901.02
672.25	895.81
672.58	891.12
672.92	885.86
673.26	880.24
673.60	875.07
673.94	869.43
674.28	864.24
674.62	859.95
674.96	854.67
675.30	849.74
675.64	844.81
675.97	840.07
676.31	834.74
676.65	829.52
676.99	824.86
677.33	819.81
677.67	815.52
678.01	810.52
678.34	805.69
678.68	801.83
679.02	795.71
679.36	790.62
679.70	785.38
680.04	780.00
680.37	775.38
680.71	770.45
681.05	766.21
681.39	761.45
681.73	755.43
682.06	750.67
682.40	746.36
682.74	742.05
683.08	737.71
683.42	732.62
683.75	728.24
684.09	723.24
684.43	718.12
684.77	713.12
685.10	708.02
685.44	703.33
685.78	698.14
686.12	694.12
686.45	689.43
686.79	684.31
687.13	680.93
687.46	676.52
687.80	672.86
688.14	667.83
688.48	663.93
688.81	659.98
689.15	655.86
689.49	650.76
689.82	645.95
690.16	640.52
690.50	635.74
690.83	631.14
691.17	626.33
691.51	622.48
691.84	618.69
692.18	614.31
692.52	609.69
692.85	606.12
693.19	603.38
693.52	599.19
693.86	594.74
694.20	589.95
694.53	585.79
694.87	581.31
695.21	577.26
695.54	572.90
695.88	568.17
696.21	562.64
696.55	558.69
696.88	555.07
697.22	551.19
697.56	548.14
697.89	544.40
698.23	541.07
698.56	537.10
698.90	533.10
699.23	529.52
699.57	525.95
699.90	522.05
700.24	517.45
700.58	513.60
700.91	510.69
701.25	508.88
701.58	506.02
701.92	503.12
702.25	499.48
702.59	495.88
702.92	493.05
703.26	490.95
703.59	488.07
703.93	486.52
704.26	483.55
704.60	480.31
704.93	477.14
705.26	473.83
705.60	471.29
705.93	467.98
706.27	465.55
706.60	463.00
706.94	461.07
707.27	457.90
707.61	455.62
707.94	452.74
708.27	448.29
708.61	444.98
708.94	442.10
709.28	440.07
709.61	437.29
709.94	434.71
710.28	431.67
710.61	429.02
710.95	424.83
711.28	423.86
711.61	421.45
711.95	419.79
712.28	417.38
712.61	414.83
712.95	413.52
713.28	411.90
713.61	408.81
713.95	405.79
714.28	403.45
714.61	401.29
714.95	399.05
715.28	396.55
715.61	393.95
715.95	391.86
716.28	389.07
716.61	387.33
716.95	384.74
717.28	382.60
717.61	380.36
717.94	378.19
718.28	374.48
718.61	372.36
718.94	369.86
719.27	367.60
719.61	365.71
719.94	363.29
720.27	360.31
720.60	358.83
720.94	356.98
721.27	355.52
721.60	353.86
721.93	351.98
722.27	351.10
722.60	349.86
722.93	347.76
723.26	346.31
723.59	344.21
723.93	343.05
724.26	341.64
724.59	340.05
724.92	338.74
725.25	337.83
725.59	336.05
725.92	334.64
726.25	333.38
726.58	331.90
726.91	330.29
727.24	329.10
727.57	327.74
727.91	326.17
728.24	324.76
728.57	323.17
728.90	322.21
729.23	320.17
729.56	319.64
729.89	318.67
730.22	317.52
730.55	316.36
730.89	315.21
731.22	314.07
731.55	312.74
731.88	311.43
732.21	310.02
732.54	308.67
732.87	307.71
733.20	306.50
733.53	305.57
733.86	304.74
734.19	303.60
734.52	302.88
734.85	303.05
735.18	302.02
735.51	301.81
735.84	300.95
736.17	300.79
736.50	299.14
736.83	300.57
737.16	299.74
737.49	299.05
737.82	297.90
738.15	297.10
738.48	296.31
738.81	295.40
739.14	294.14
739.47	293.43
739.80	292.24
740.13	291.76
740.46	290.50
740.79	289.21
741.12	288.31
741.45	286.86
741.78	285.07
742.11	284.45
742.44	283.00
742.77	282.14
743.10	281.02
743.43	279.95
743.75	276.93
744.08	278.79
744.41	277.60
744.74	276.81
745.07	275.62
745.40	275.12
745.73	275.10
746.06	274.67
746.39	274.31
746.71	273.31
747.04	272.52
747.37	272.07
747.70	271.88
748.03	271.14
748.36	270.76
748.68	269.83
749.01	268.67
749.34	268.14
749.67	267.57
750.00	267.10
750.33	267.83
750.65	267.10
750.98	263.71
751.31	263.29
751.64	262.95
751.97	263.76
752.29	263.26
752.62	261.62
752.95	260.69
753.28	259.55
753.60	259.07
753.93	259.00
754.26	258.48
754.59	257.33
754.91	256.67
755.24	256.07
755.57	255.67
755.90	255.14
756.22	254.31
756.55	253.50
756.88	252.45
757.20	250.83
757.53	249.79
757.86	249.45
758.19	249.00
758.51	248.19
758.84	246.38
759.17	245.38
759.49	245.29
759.82	245.98
760.15	246.00
760.47	245.55
760.80	244.36
761.13	244.17
761.45	243.52
761.78	243.26
762.11	243.00
762.43	242.26
762.76	242.07
763.08	242.14
763.41	242.02
763.74	241.88
764.06	241.36
764.39	241.36
764.71	240.76
765.04	240.38
765.37	239.88
765.69	239.55
766.02	239.17
766.34	238.71
766.67	237.60
767.00	237.64
767.32	238.81
767.65	239.67
767.97	238.95
768.30	238.81
768.62	238.48
768.95	237.81
769.27	237.67
769.60	237.69
769.92	236.81
770.25	236.10
770.57	235.48
770.90	235.36
771.22	234.33
771.55	234.31
771.87	234.12
772.20	234.10
772.52	235.74
772.85	238.00
773.17	237.88
773.50	237.71
773.82	236.90
774.15	235.45
774.47	234.10
774.80	233.88
775.12	233.79
775.45	233.57
775.77	233.45
776.09	233.24
776.42	232.88
776.74	233.60
777.07	233.36
777.39	233.40
777.72	232.79
778.04	233.36
778.36	233.10
778.69	232.79
779.01	232.74
779.33	230.45
779.66	228.00
779.98	227.57
780.31	227.45
780.63	228.24
780.95	228.52
781.28	228.43
781.60	228.21
781.92	228.02
782.25	227.83
782.57	227.55
782.89	227.29
783.22	226.95
783.54	226.00
783.86	226.12
784.19	225.60
784.51	226.29
784.83	225.64
