SpectraSuite Data File
++++++++++++++++++++++++++++++++++++
Date: Tue Apr 02 18:46:06 EDT 2013
User: group
Dark Spectrum Present: No
Reference Spectrum Present: No
Number of Sampled Component Spectra: 1
Spectrometers: USB2E7196
Integration Time (usec): 580000 (USB2E7196)
Spectra Averaged: 2 (USB2E7196)
Boxcar Smoothing: 10 (USB2E7196)
Correct for Electrical Dark: No (USB2E7196)
Strobe/Lamp Enabled: No (USB2E7196)
Correct for Detector Non-linearity: No (USB2E7196)
Correct for Stray Light: No (USB2E7196)
Number of Pixels in Processed Spectrum: 2048
>>>>>Begin Processed Spectral Data<<<<<
339.09	0.00
339.48	191.00
339.86	198.00
340.24	194.50
340.63	200.00
341.01	232.00
341.39	199.00
341.78	206.00
342.16	210.50
342.54	201.50
342.93	197.83
343.31	207.69
343.69	208.17
344.07	208.52
344.46	209.29
344.84	209.76
345.22	208.38
345.60	209.05
345.99	209.26
346.37	209.29
346.75	209.60
347.13	209.50
347.52	209.71
347.90	210.48
348.28	210.45
348.66	210.95
349.05	210.29
349.43	210.57
349.81	210.79
350.19	210.71
350.57	210.90
350.96	211.02
351.34	211.31
351.72	211.74
352.10	211.86
352.48	211.86
352.87	211.74
353.25	212.07
353.63	211.79
354.01	211.98
354.39	212.21
354.77	212.38
355.15	213.07
355.54	213.05
355.92	212.74
356.30	212.93
356.68	214.24
357.06	214.62
357.44	214.10
357.82	214.29
358.20	215.48
358.58	215.45
358.97	215.40
359.35	215.74
359.73	216.02
360.11	216.19
360.49	216.19
360.87	216.38
361.25	216.74
361.63	217.64
362.01	217.69
362.39	217.57
362.77	217.81
363.15	217.48
363.53	217.33
363.91	217.33
364.29	217.24
364.67	215.19
365.05	215.02
365.43	215.52
365.81	215.83
366.19	215.83
366.57	216.76
366.95	216.57
367.33	216.12
367.71	216.21
368.09	216.71
368.47	216.71
368.85	216.60
369.23	216.90
369.61	216.05
369.99	216.64
370.37	216.71
370.75	217.57
371.13	217.24
371.51	217.10
371.89	217.31
372.27	217.62
372.65	218.00
373.03	218.05
373.41	217.76
373.78	217.40
374.16	216.12
374.54	215.52
374.92	215.50
375.30	215.62
375.68	215.05
376.06	214.98
376.44	214.88
376.82	215.24
377.19	215.31
377.57	215.21
377.95	214.60
378.33	214.69
378.71	213.62
379.09	213.98
379.47	214.12
379.84	213.86
380.22	213.55
380.60	213.17
380.98	213.02
381.36	212.90
381.73	212.64
382.11	213.21
382.49	213.21
382.87	212.95
383.25	212.86
383.62	215.43
384.00	214.79
384.38	215.00
384.76	215.19
385.13	215.62
385.51	215.83
385.89	215.38
386.27	215.29
386.64	215.33
387.02	215.10
387.40	214.93
387.78	215.05
388.15	215.07
388.53	215.05
388.91	215.24
389.29	215.14
389.66	215.40
390.04	215.24
390.42	215.67
390.79	215.76
391.17	215.86
391.55	213.55
391.92	213.74
392.30	213.74
392.68	213.26
393.05	213.17
393.43	213.12
393.81	213.43
394.18	213.07
394.56	213.31
394.94	213.83
395.31	213.76
395.69	214.43
396.06	214.74
396.44	214.98
396.82	214.90
397.19	216.02
397.57	216.26
397.95	216.64
398.32	215.90
398.70	216.33
399.07	216.74
399.45	216.62
399.82	216.45
400.20	216.43
400.58	216.48
400.95	215.74
401.33	216.33
401.70	217.79
402.08	217.95
402.45	217.93
402.83	218.48
403.20	218.57
403.58	218.29
403.95	218.43
404.33	218.79
404.71	219.02
405.08	220.02
405.46	220.02
405.83	220.12
406.21	220.69
406.58	221.10
406.96	221.31
407.33	222.07
407.70	222.74
408.08	224.79
408.45	225.86
408.83	226.98
409.20	227.38
409.58	226.86
409.95	227.95
410.33	228.93
410.70	229.05
411.08	230.40
411.45	231.60
411.82	232.55
412.20	234.07
412.57	236.45
412.95	236.48
413.32	238.12
413.69	239.69
414.07	241.26
414.44	243.02
414.82	245.07
415.19	247.43
415.56	249.90
415.94	251.26
416.31	253.88
416.68	256.81
417.06	259.83
417.43	263.38
417.81	266.79
418.18	270.29
418.55	274.26
418.93	278.24
419.30	282.31
419.67	286.81
420.04	291.24
420.42	295.52
420.79	302.48
421.16	308.29
421.54	315.26
421.91	321.26
422.28	327.45
422.66	334.05
423.03	341.74
423.40	348.76
423.77	355.71
424.15	363.00
424.52	370.48
424.89	379.17
425.26	386.62
425.64	394.36
426.01	402.45
426.38	410.71
426.75	420.29
427.13	429.38
427.50	438.86
427.87	448.93
428.24	459.00
428.61	467.24
428.99	478.38
429.36	488.64
429.73	499.86
430.10	511.48
430.47	522.98
430.85	533.79
431.22	546.07
431.59	560.71
431.96	573.43
432.33	587.64
432.70	601.48
433.08	617.95
433.45	633.26
433.82	648.81
434.19	666.07
434.56	682.29
434.93	697.79
435.30	713.74
435.68	730.93
436.05	747.48
436.42	764.48
436.79	780.29
437.16	797.31
437.53	815.10
437.90	832.24
438.27	850.02
438.64	868.36
439.01	885.43
439.38	899.33
439.75	914.14
440.13	930.21
440.50	945.60
440.87	958.19
441.24	971.76
441.61	986.38
441.98	997.12
442.35	1008.83
442.72	1021.98
443.09	1035.60
443.46	1043.88
443.83	1049.88
444.20	1054.86
444.57	1060.17
444.94	1063.74
445.31	1067.69
445.68	1073.29
446.05	1074.29
446.42	1072.57
446.79	1071.98
447.16	1069.60
447.53	1067.71
447.90	1061.43
448.27	1054.33
448.64	1045.10
449.01	1038.43
449.37	1027.33
449.74	1016.12
450.11	1005.12
450.48	990.31
450.85	974.00
451.22	960.79
451.59	948.60
451.96	936.67
452.33	921.48
452.70	907.31
453.07	889.69
453.43	870.71
453.80	854.62
454.17	838.62
454.54	822.38
454.91	806.83
455.28	791.19
455.65	776.71
456.02	766.52
456.38	754.69
456.75	739.50
457.12	726.19
457.49	713.76
457.86	699.43
458.23	689.64
458.59	678.52
458.96	666.57
459.33	656.00
459.70	645.38
460.07	637.36
460.43	627.02
460.80	618.74
461.17	611.24
461.54	602.86
461.91	595.33
462.27	587.38
462.64	580.14
463.01	572.76
463.38	566.17
463.74	554.95
464.11	547.95
464.48	542.05
464.85	536.10
465.21	531.57
465.58	527.12
465.95	520.52
466.32	515.36
466.68	510.38
467.05	505.33
467.42	500.62
467.78	495.33
468.15	491.24
468.52	487.69
468.88	482.14
469.25	477.81
469.62	474.24
469.98	470.57
470.35	467.14
470.72	463.95
471.08	459.07
471.45	456.40
471.82	454.10
472.18	450.69
472.55	448.12
472.92	444.62
473.28	441.33
473.65	438.64
474.02	436.21
474.38	434.33
474.75	432.48
475.11	429.93
475.48	428.31
475.85	426.17
476.21	424.10
476.58	422.90
476.94	422.02
477.31	421.07
477.67	419.36
478.04	418.31
478.41	417.52
478.77	419.00
479.14	417.71
479.50	416.71
479.87	416.60
480.23	415.90
480.60	415.81
480.96	415.86
481.33	416.79
481.69	416.40
482.06	416.45
482.42	416.48
482.79	417.24
483.15	417.24
483.52	418.57
483.88	419.14
484.25	419.86
484.61	420.45
484.98	420.76
485.34	422.88
485.71	424.19
486.07	425.21
486.44	425.00
486.80	426.62
487.17	428.19
487.53	430.38
487.90	432.52
488.26	435.31
488.62	438.14
488.99	439.62
489.35	442.36
489.72	444.81
490.08	447.36
490.44	450.07
490.81	453.40
491.17	456.21
491.54	460.07
491.90	464.10
492.26	467.43
492.63	471.69
492.99	474.74
493.36	478.69
493.72	483.12
494.08	487.38
494.45	492.36
494.81	497.67
495.17	502.24
495.54	507.43
495.90	511.93
496.26	516.62
496.63	522.52
496.99	527.88
497.35	533.81
497.72	539.88
498.08	545.83
498.44	552.12
498.80	558.26
499.17	564.10
499.53	569.81
499.89	576.64
500.26	582.95
500.62	589.88
500.98	597.43
501.34	604.40
501.71	612.21
502.07	618.86
502.43	625.52
502.79	632.10
503.16	639.36
503.52	646.86
503.88	654.31
504.24	661.29
504.60	668.33
504.97	676.05
505.33	683.33
505.69	691.74
506.05	699.07
506.41	706.60
506.78	714.00
507.14	722.00
507.50	729.74
507.86	737.36
508.22	745.14
508.59	752.24
508.95	760.10
509.31	768.52
509.67	776.60
510.03	784.19
510.39	792.00
510.75	799.38
511.12	806.74
511.48	814.21
511.84	822.02
512.20	830.26
512.56	837.60
512.92	845.86
513.28	852.76
513.64	859.93
514.00	867.55
514.37	875.40
514.73	882.79
515.09	890.38
515.45	896.67
515.81	903.45
516.17	910.14
516.53	916.76
516.89	921.95
517.25	928.55
517.61	935.86
517.97	942.31
518.33	948.90
518.69	956.10
519.05	963.50
519.41	970.14
519.77	977.71
520.13	983.38
520.49	988.14
520.85	993.98
521.21	1001.14
521.57	1007.12
521.93	1011.62
522.29	1016.93
522.65	1021.50
523.01	1028.21
523.37	1033.67
523.73	1039.31
524.09	1044.43
524.45	1049.31
524.81	1053.86
525.17	1057.88
525.53	1063.50
525.89	1068.19
526.25	1072.05
526.61	1075.67
526.97	1079.50
527.33	1082.64
527.68	1089.31
528.04	1094.40
528.40	1098.21
528.76	1101.43
529.12	1105.67
529.48	1110.81
529.84	1114.64
530.20	1119.26
530.56	1122.62
530.91	1126.76
531.27	1130.88
531.63	1134.93
531.99	1138.62
532.35	1142.26
532.71	1146.29
533.07	1150.21
533.42	1156.60
533.78	1160.67
534.14	1165.00
534.50	1168.76
534.86	1173.14
535.21	1175.21
535.57	1179.62
535.93	1184.14
536.29	1188.64
536.65	1192.36
537.00	1196.10
537.36	1199.17
537.72	1202.31
538.08	1206.21
538.44	1210.02
538.79	1213.95
539.15	1216.55
539.51	1221.17
539.87	1224.93
540.22	1227.81
540.58	1230.60
540.94	1231.55
541.29	1235.14
541.65	1237.02
542.01	1240.24
542.37	1242.83
542.72	1245.02
543.08	1246.93
543.44	1249.81
543.79	1251.21
544.15	1253.83
544.51	1256.76
544.87	1260.74
545.22	1264.31
545.58	1266.83
545.94	1268.90
546.29	1271.19
546.65	1274.33
547.01	1275.79
547.36	1278.60
547.72	1282.14
548.07	1284.69
548.43	1286.64
548.79	1288.55
549.14	1290.88
549.50	1293.88
549.86	1295.79
550.21	1298.74
550.57	1301.83
550.92	1303.71
551.28	1307.31
551.64	1310.10
551.99	1312.33
552.35	1314.26
552.70	1316.17
553.06	1319.40
553.41	1322.05
553.77	1326.12
554.13	1329.31
554.48	1333.45
554.84	1338.10
555.19	1341.07
555.55	1346.33
555.90	1350.69
556.26	1354.26
556.61	1358.26
556.97	1360.88
557.32	1364.81
557.68	1368.31
558.03	1371.86
558.39	1375.60
558.74	1379.60
559.10	1382.90
559.45	1386.93
559.81	1391.05
560.16	1395.69
560.52	1399.40
560.87	1405.17
561.23	1407.50
561.58	1413.81
561.94	1417.33
562.29	1419.93
562.64	1424.33
563.00	1427.07
563.35	1431.19
563.71	1435.62
564.06	1440.67
564.42	1446.12
564.77	1452.05
565.12	1458.10
565.48	1465.33
565.83	1471.71
566.19	1477.12
566.54	1482.71
566.89	1487.81
567.25	1493.81
567.60	1500.05
567.96	1507.83
568.31	1513.62
568.66	1521.45
569.02	1525.31
569.37	1531.02
569.72	1537.62
570.08	1543.29
570.43	1548.67
570.78	1554.43
571.14	1560.76
571.49	1566.19
571.84	1572.14
572.20	1576.88
572.55	1581.50
572.90	1583.88
573.26	1588.07
573.61	1592.05
573.96	1596.50
574.31	1601.05
574.67	1605.64
575.02	1608.45
575.37	1610.64
575.72	1613.67
576.08	1616.26
576.43	1620.36
576.78	1624.14
577.13	1626.83
577.49	1630.57
577.84	1635.17
578.19	1639.14
578.54	1643.10
578.90	1647.45
579.25	1650.69
579.60	1653.07
579.95	1656.17
580.30	1660.71
580.66	1664.36
581.01	1668.88
581.36	1672.29
581.71	1676.24
582.06	1681.12
582.42	1686.71
582.77	1690.17
583.12	1692.67
583.47	1696.24
583.82	1699.50
584.17	1703.48
584.53	1708.07
584.88	1710.62
585.23	1713.38
585.58	1715.43
585.93	1718.19
586.28	1721.07
586.63	1724.60
586.98	1729.33
587.34	1733.62
587.69	1736.21
588.04	1739.05
588.39	1740.38
588.74	1742.55
589.09	1745.69
589.44	1745.29
589.79	1746.40
590.14	1749.07
590.49	1751.95
590.84	1753.12
591.19	1754.21
591.54	1755.81
591.89	1756.76
592.25	1760.71
592.60	1761.81
592.95	1763.38
593.30	1765.00
593.65	1766.45
594.00	1766.43
594.35	1772.86
594.70	1772.02
595.05	1772.90
595.40	1773.83
595.75	1775.55
596.10	1777.76
596.45	1778.29
596.80	1780.52
597.15	1781.50
597.50	1781.83
597.85	1783.52
598.19	1784.43
598.54	1785.55
598.89	1785.50
599.24	1786.93
599.59	1785.98
599.94	1786.81
600.29	1786.88
600.64	1786.62
600.99	1786.02
601.34	1787.17
601.69	1781.98
602.04	1782.21
602.39	1781.60
602.74	1782.21
603.08	1782.12
603.43	1782.69
603.78	1781.86
604.13	1781.17
604.48	1780.83
604.83	1781.12
605.18	1780.62
605.53	1781.10
605.87	1780.31
606.22	1779.86
606.57	1778.83
606.92	1778.12
607.27	1776.93
607.62	1776.69
607.96	1776.71
608.31	1776.40
608.66	1775.31
609.01	1773.57
609.36	1773.29
609.70	1772.24
610.05	1770.24
610.40	1768.29
610.75	1765.40
611.10	1764.93
611.44	1762.86
611.79	1760.31
612.14	1756.95
612.49	1753.31
612.83	1750.33
613.18	1748.43
613.53	1746.29
613.88	1742.71
614.22	1739.88
614.57	1736.93
614.92	1733.60
615.27	1729.10
615.61	1724.38
615.96	1720.38
616.31	1716.69
616.65	1713.69
617.00	1711.02
617.35	1707.67
617.70	1705.69
618.04	1701.81
618.39	1697.07
618.74	1693.40
619.08	1690.19
619.43	1686.90
619.78	1684.14
620.12	1680.79
620.47	1676.93
620.82	1672.00
621.16	1666.81
621.51	1663.29
621.85	1659.33
622.20	1656.38
622.55	1653.19
622.89	1651.38
623.24	1648.48
623.59	1645.55
623.93	1641.07
624.28	1637.02
624.62	1634.62
624.97	1630.31
625.32	1625.88
625.66	1622.76
626.01	1619.90
626.35	1616.24
626.70	1612.02
627.04	1608.17
627.39	1603.60
627.73	1599.98
628.08	1597.98
628.43	1595.14
628.77	1590.60
629.12	1587.43
629.46	1583.60
629.81	1578.83
630.15	1573.45
630.50	1568.98
630.84	1563.36
631.19	1558.74
631.53	1554.02
631.88	1547.12
632.22	1541.60
632.57	1538.02
632.91	1531.95
633.26	1527.26
633.60	1521.45
633.95	1516.50
634.29	1511.02
634.64	1507.07
634.98	1502.62
635.32	1497.81
635.67	1494.69
636.01	1490.43
636.36	1485.36
636.70	1481.17
637.05	1476.93
637.39	1472.74
637.73	1467.55
638.08	1464.45
638.42	1459.21
638.77	1455.19
639.11	1451.57
639.45	1446.55
639.80	1440.81
640.14	1436.55
640.49	1430.79
640.83	1426.19
641.17	1421.83
641.52	1416.95
641.86	1412.00
642.20	1406.74
642.55	1400.95
642.89	1394.24
643.23	1388.83
643.58	1383.57
643.92	1376.90
644.26	1371.86
644.61	1366.88
644.95	1361.74
645.29	1355.19
645.64	1350.52
645.98	1344.79
646.32	1338.86
646.66	1333.07
647.01	1328.05
647.35	1322.88
647.69	1317.26
648.04	1312.21
648.38	1307.05
648.72	1301.33
649.06	1295.00
649.41	1289.07
649.75	1283.07
650.09	1277.88
650.43	1271.29
650.78	1264.90
651.12	1258.90
651.46	1252.07
651.80	1245.17
652.14	1239.24
652.49	1233.90
652.83	1227.67
653.17	1221.71
653.51	1215.50
653.85	1210.71
654.20	1204.90
654.54	1197.67
654.88	1191.19
655.22	1185.67
655.56	1179.33
655.90	1173.57
656.25	1167.69
656.59	1161.43
656.93	1155.10
657.27	1149.86
657.61	1144.43
657.95	1139.33
658.29	1133.48
658.64	1128.52
658.98	1122.19
659.32	1114.93
659.66	1108.21
660.00	1102.81
660.34	1095.81
660.68	1089.48
661.02	1082.45
661.36	1075.60
661.70	1069.86
662.05	1064.31
662.39	1057.60
662.73	1051.69
663.07	1046.60
663.41	1040.57
663.75	1034.95
664.09	1029.95
664.43	1023.02
664.77	1017.31
665.11	1010.07
665.45	1004.05
665.79	997.98
666.13	992.76
666.47	987.52
666.81	981.69
667.15	975.48
667.49	970.60
667.83	965.67
668.17	960.48
668.51	955.62
668.85	950.64
669.19	946.02
669.53	940.43
669.87	934.12
670.21	927.93
670.55	922.05
670.89	916.90
671.23	911.38
671.57	905.95
671.91	899.90
672.25	895.86
672.58	891.71
672.92	885.57
673.26	880.67
673.60	875.36
673.94	870.43
674.28	865.38
674.62	860.48
674.96	855.31
675.30	850.26
675.64	845.17
675.97	840.45
676.31	834.62
676.65	829.36
676.99	825.98
677.33	820.81
677.67	816.55
678.01	811.21
678.34	806.21
678.68	801.86
679.02	797.67
679.36	791.76
679.70	786.02
680.04	781.38
680.37	775.98
680.71	771.24
681.05	766.50
681.39	761.95
681.73	756.40
682.06	751.43
682.40	746.98
682.74	742.45
683.08	738.12
683.42	732.98
683.75	728.43
684.09	722.57
684.43	717.76
684.77	712.55
685.10	707.86
685.44	703.10
685.78	698.05
686.12	692.90
686.45	688.62
686.79	683.81
687.13	679.86
687.46	675.50
687.80	671.86
688.14	667.17
688.48	662.40
688.81	658.21
689.15	654.38
689.49	649.48
689.82	645.07
690.16	639.76
690.50	635.60
690.83	631.02
691.17	626.64
691.51	622.45
691.84	619.02
692.18	614.29
692.52	609.90
692.85	606.26
693.19	603.05
693.52	598.48
693.86	594.00
694.20	589.38
694.53	585.19
694.87	580.21
695.21	576.02
695.54	571.71
695.88	567.10
696.21	562.14
696.55	557.48
696.88	553.36
697.22	550.00
697.56	546.45
697.89	542.69
698.23	539.14
698.56	535.12
698.90	531.19
699.23	528.00
699.57	524.50
699.90	520.45
700.24	516.21
700.58	513.05
700.91	510.38
701.25	508.81
701.58	506.21
701.92	503.62
702.25	500.21
702.59	497.36
702.92	494.60
703.26	491.48
703.59	488.74
703.93	487.19
704.26	483.86
704.60	480.69
704.93	477.69
705.26	474.43
705.60	471.74
705.93	467.76
706.27	465.17
706.60	462.26
706.94	460.12
707.27	456.93
707.61	454.50
707.94	451.29
708.27	446.90
708.61	443.52
708.94	440.81
709.28	438.33
709.61	435.43
709.94	432.81
710.28	430.67
710.61	428.52
710.95	424.31
711.28	423.05
711.61	420.36
711.95	418.05
712.28	415.69
712.61	413.31
712.95	412.40
713.28	410.60
713.61	407.93
713.95	405.29
714.28	403.36
714.61	400.93
714.95	398.55
715.28	395.98
715.61	393.48
715.95	391.50
716.28	388.95
716.61	387.21
716.95	384.83
717.28	382.40
717.61	379.69
717.94	377.31
718.28	373.74
718.61	371.62
718.94	369.31
719.27	367.38
719.61	365.36
719.94	362.69
720.27	359.86
720.60	358.05
720.94	356.05
721.27	354.21
721.60	352.57
721.93	350.93
722.27	350.14
722.60	348.83
722.93	346.67
723.26	345.57
723.59	343.21
723.93	341.95
724.26	340.19
724.59	338.86
724.92	337.79
725.25	337.14
725.59	336.10
725.92	335.00
726.25	333.52
726.58	332.12
726.91	331.07
727.24	329.95
727.57	328.76
727.91	326.86
728.24	325.69
728.57	324.05
728.90	323.12
729.23	321.29
729.56	320.64
729.89	319.50
730.22	317.62
730.55	316.60
730.89	315.38
731.22	314.71
731.55	313.71
731.88	312.45
732.21	310.88
732.54	309.40
732.87	308.38
733.20	307.57
733.53	306.74
733.86	305.50
734.19	304.29
734.52	303.38
734.85	303.98
735.18	302.60
735.51	302.31
735.84	301.29
736.17	300.24
736.50	298.21
736.83	299.86
737.16	299.10
737.49	298.36
737.82	297.36
738.15	296.36
738.48	295.17
738.81	294.36
739.14	293.26
739.47	292.26
739.80	291.05
740.13	290.17
740.46	288.86
740.79	287.71
741.12	286.76
741.45	285.55
741.78	283.48
742.11	283.36
742.44	282.07
742.77	281.48
743.10	280.95
743.43	280.12
743.75	276.90
744.08	278.71
744.41	277.71
744.74	276.79
745.07	275.71
745.40	275.60
745.73	275.60
746.06	275.00
746.39	274.45
746.71	273.76
747.04	272.81
747.37	272.24
747.70	271.69
748.03	271.00
748.36	270.62
748.68	270.12
749.01	268.79
749.34	268.12
749.67	267.57
750.00	267.21
750.33	268.26
750.65	267.83
750.98	264.74
751.31	264.21
751.64	263.69
751.97	264.40
752.29	263.55
752.62	261.88
752.95	261.14
753.28	260.57
753.60	259.81
753.93	259.83
754.26	259.55
754.59	258.98
754.91	258.38
755.24	257.88
755.57	257.12
755.90	256.62
756.22	255.95
756.55	255.02
756.88	254.02
757.20	252.14
757.53	251.02
757.86	250.48
758.19	250.10
758.51	249.86
758.84	248.02
759.17	247.57
759.49	247.67
759.82	248.29
760.15	247.98
760.47	247.62
760.80	246.48
761.13	246.38
761.45	245.93
761.78	245.55
762.11	244.83
762.43	244.43
762.76	244.07
763.08	243.90
763.41	243.62
763.74	243.52
764.06	243.17
764.39	242.81
764.71	242.45
765.04	241.81
765.37	241.14
765.69	240.81
766.02	240.21
766.34	239.33
766.67	237.88
767.00	237.79
767.32	238.60
767.65	239.67
767.97	238.76
768.30	238.26
768.62	237.98
768.95	237.69
769.27	237.71
769.60	237.67
769.92	237.10
770.25	236.64
770.57	235.88
770.90	235.64
771.22	235.05
771.55	234.88
771.87	234.83
772.20	234.45
772.52	236.07
772.85	238.31
773.17	238.29
773.50	238.00
773.82	237.50
774.15	236.05
774.47	234.50
774.80	234.38
775.12	234.05
775.45	233.83
775.77	233.88
776.09	233.40
776.42	233.24
776.74	233.67
777.07	233.24
777.39	233.02
777.72	232.60
778.04	233.10
778.36	233.00
778.69	232.76
779.01	232.88
779.33	230.90
779.66	228.40
779.98	227.98
780.31	227.88
780.63	228.33
780.95	228.83
781.28	228.62
781.60	228.29
781.92	228.21
782.25	227.88
782.57	227.52
782.89	227.40
783.22	226.93
783.54	226.29
783.86	226.26
784.19	226.05
784.51	226.52
784.83	225.98
