SpectraSuite Data File
++++++++++++++++++++++++++++++++++++
Date: Tue Apr 02 18:39:51 EDT 2013
User: group
Dark Spectrum Present: No
Reference Spectrum Present: No
Number of Sampled Component Spectra: 1
Spectrometers: USB2E7196
Integration Time (usec): 580000 (USB2E7196)
Spectra Averaged: 2 (USB2E7196)
Boxcar Smoothing: 10 (USB2E7196)
Correct for Electrical Dark: No (USB2E7196)
Strobe/Lamp Enabled: No (USB2E7196)
Correct for Detector Non-linearity: No (USB2E7196)
Correct for Stray Light: No (USB2E7196)
Number of Pixels in Processed Spectrum: 2048
>>>>>Begin Processed Spectral Data<<<<<
339.09	0.00
339.48	192.00
339.86	195.50
340.24	197.00
340.63	198.00
341.01	231.00
341.39	197.00
341.78	205.50
342.16	212.00
342.54	205.50
342.93	197.60
343.31	207.36
343.69	208.05
344.07	208.40
344.46	209.21
344.84	210.00
345.22	208.88
345.60	209.69
345.99	209.81
346.37	209.86
346.75	210.02
347.13	210.07
347.52	210.21
347.90	211.02
348.28	211.07
348.66	211.38
349.05	210.74
349.43	210.93
349.81	211.31
350.19	211.40
350.57	211.29
350.96	211.79
351.34	212.14
351.72	212.48
352.10	212.64
352.48	212.33
352.87	212.21
353.25	212.33
353.63	212.24
354.01	212.45
354.39	212.55
354.77	212.38
355.15	213.10
355.54	212.88
355.92	212.36
356.30	212.69
356.68	214.10
357.06	214.38
357.44	214.33
357.82	214.17
358.20	215.29
358.58	215.29
358.97	215.12
359.35	215.38
359.73	215.79
360.11	215.90
360.49	215.98
360.87	215.81
361.25	216.05
361.63	216.60
362.01	216.74
362.39	216.69
362.77	217.05
363.15	216.88
363.53	216.86
363.91	216.76
364.29	216.45
364.67	214.36
365.05	214.48
365.43	214.62
365.81	214.88
366.19	215.02
366.57	215.88
366.95	215.86
367.33	215.48
367.71	215.31
368.09	215.95
368.47	215.98
368.85	215.90
369.23	216.24
369.61	215.57
369.99	216.24
370.37	216.31
370.75	217.19
371.13	216.74
371.51	216.62
371.89	217.17
372.27	217.31
372.65	217.52
373.03	217.48
373.41	217.29
373.78	217.07
374.16	216.02
374.54	215.31
374.92	215.10
375.30	215.14
375.68	214.74
376.06	214.52
376.44	214.43
376.82	214.79
377.19	214.69
377.57	214.55
377.95	213.69
378.33	213.50
378.71	212.40
379.09	212.50
379.47	212.79
379.84	212.43
380.22	212.43
380.60	212.24
380.98	212.05
381.36	211.98
381.73	211.83
382.11	212.14
382.49	212.12
382.87	212.17
383.25	212.14
383.62	214.50
384.00	213.93
384.38	214.26
384.76	214.64
385.13	215.52
385.51	215.74
385.89	215.67
386.27	215.83
386.64	216.12
387.02	215.93
387.40	215.88
387.78	215.90
388.15	215.98
388.53	215.93
388.91	215.95
389.29	215.88
389.66	216.38
390.04	216.12
390.42	216.40
390.79	216.38
391.17	216.43
391.55	214.10
391.92	214.38
392.30	214.40
392.68	214.00
393.05	213.83
393.43	213.52
393.81	213.62
394.18	213.29
394.56	213.29
394.94	213.79
395.31	213.36
395.69	213.95
396.06	214.12
396.44	214.12
396.82	214.31
397.19	215.50
397.57	215.19
397.95	215.45
398.32	214.90
398.70	215.17
399.07	215.45
399.45	215.40
399.82	215.45
400.20	215.33
400.58	215.19
400.95	214.36
401.33	215.17
401.70	216.83
402.08	217.05
402.45	217.24
402.83	217.81
403.20	218.05
403.58	218.07
403.95	218.69
404.33	219.45
404.71	219.31
405.08	220.36
405.46	220.36
405.83	220.74
406.21	221.21
406.58	221.67
406.96	222.10
407.33	222.93
407.70	223.67
408.08	225.67
408.45	226.69
408.83	227.45
409.20	227.81
409.58	227.10
409.95	228.19
410.33	229.14
410.70	229.69
411.08	231.31
411.45	232.38
411.82	233.07
412.20	234.57
412.57	237.29
412.95	237.29
413.32	239.64
413.69	241.19
414.07	243.00
414.44	244.98
414.82	246.93
415.19	249.45
415.56	251.79
415.94	253.38
416.31	256.43
416.68	259.81
417.06	263.43
417.43	267.38
417.81	270.98
418.18	275.02
418.55	278.93
418.93	283.05
419.30	287.52
419.67	292.55
420.04	297.40
420.42	302.14
420.79	309.38
421.16	315.21
421.54	322.90
421.91	329.81
422.28	336.45
422.66	343.67
423.03	352.29
423.40	359.86
423.77	367.71
424.15	375.52
424.52	383.48
424.89	392.83
425.26	401.24
425.64	409.52
426.01	418.31
426.38	428.14
426.75	438.55
427.13	448.64
427.50	459.00
427.87	469.50
428.24	480.29
428.61	489.69
428.99	501.93
429.36	512.86
429.73	525.00
430.10	537.81
430.47	551.31
430.85	562.90
431.22	576.55
431.59	592.40
431.96	606.31
432.33	621.90
432.70	636.90
433.08	654.36
433.45	671.21
433.82	687.83
434.19	705.98
434.56	723.67
434.93	740.74
435.30	757.95
435.68	777.21
436.05	796.12
436.42	815.19
436.79	832.45
437.16	851.90
437.53	871.48
437.90	890.40
438.27	909.05
438.64	929.24
439.01	948.19
439.38	964.00
439.75	979.98
440.13	998.29
440.50	1015.69
440.87	1030.24
441.24	1044.95
441.61	1061.81
441.98	1073.93
442.35	1087.52
442.72	1102.07
443.09	1116.38
443.46	1125.02
443.83	1131.02
444.20	1135.76
444.57	1141.86
444.94	1144.95
445.31	1149.05
445.68	1155.02
446.05	1156.29
446.42	1153.86
446.79	1152.40
447.16	1150.10
447.53	1149.31
447.90	1142.40
448.27	1135.19
448.64	1125.60
449.01	1118.74
449.37	1106.45
449.74	1094.24
450.11	1081.95
450.48	1065.76
450.85	1048.81
451.22	1034.29
451.59	1020.95
451.96	1008.48
452.33	991.60
452.70	976.33
453.07	956.98
453.43	935.93
453.80	918.33
454.17	901.79
454.54	884.14
454.91	866.31
455.28	848.24
455.65	831.83
456.02	818.21
456.38	803.55
456.75	786.79
457.12	771.43
457.49	757.36
457.86	741.71
458.23	730.45
458.59	717.86
458.96	705.31
459.33	693.45
459.70	681.31
460.07	672.55
460.43	662.07
460.80	652.76
461.17	644.55
461.54	635.45
461.91	626.60
462.27	617.95
462.64	610.24
463.01	602.17
463.38	595.48
463.74	584.38
464.11	577.31
464.48	571.07
464.85	564.48
465.21	559.93
465.58	554.57
465.95	547.43
466.32	541.86
466.68	536.00
467.05	530.90
467.42	525.95
467.78	519.90
468.15	513.98
468.52	510.60
468.88	504.52
469.25	499.57
469.62	495.83
469.98	491.83
470.35	487.88
470.72	484.26
471.08	479.17
471.45	476.21
471.82	473.24
472.18	468.93
472.55	466.10
472.92	462.05
473.28	458.60
473.65	455.45
474.02	452.52
474.38	450.57
474.75	448.38
475.11	445.74
475.48	444.05
475.85	442.33
476.21	439.76
476.58	438.98
476.94	437.86
477.31	436.19
477.67	435.31
478.04	434.02
478.41	432.88
478.77	433.67
479.14	432.31
479.50	431.95
479.87	431.88
480.23	431.81
480.60	431.36
480.96	430.93
481.33	432.12
481.69	432.26
482.06	432.45
482.42	432.57
482.79	433.24
483.15	433.24
483.52	434.64
483.88	435.45
484.25	435.57
484.61	436.19
484.98	437.05
485.34	438.38
485.71	440.24
486.07	441.83
486.44	442.07
486.80	443.95
487.17	445.24
487.53	447.60
487.90	449.81
488.26	453.24
488.62	456.88
488.99	458.95
489.35	462.17
489.72	464.88
490.08	468.02
490.44	471.26
490.81	475.38
491.17	478.43
491.54	482.21
491.90	486.93
492.26	490.83
492.63	495.21
492.99	498.90
493.36	503.55
493.72	508.50
494.08	512.83
494.45	518.38
494.81	524.21
495.17	529.71
495.54	535.36
495.90	540.07
496.26	545.67
496.63	551.31
496.99	557.26
497.35	563.74
497.72	570.21
498.08	576.74
498.44	583.40
498.80	590.19
499.17	596.74
499.53	603.05
499.89	611.40
500.26	618.57
500.62	626.62
500.98	634.14
501.34	641.62
501.71	650.26
502.07	657.60
502.43	664.93
502.79	672.62
503.16	680.43
503.52	688.12
503.88	695.69
504.24	704.12
504.60	712.26
504.97	720.90
505.33	729.43
505.69	738.86
506.05	747.74
506.41	756.24
506.78	765.43
507.14	774.05
507.50	782.29
507.86	791.74
508.22	800.43
508.59	808.36
508.95	817.60
509.31	827.10
509.67	836.40
510.03	845.14
510.39	853.69
510.75	862.19
511.12	871.31
511.48	880.45
511.84	889.05
512.20	897.83
512.56	907.14
512.92	915.67
513.28	923.86
513.64	931.79
514.00	940.17
514.37	947.95
514.73	956.55
515.09	965.31
515.45	972.52
515.81	980.50
516.17	989.45
516.53	997.17
516.89	1004.21
517.25	1011.93
517.61	1020.62
517.97	1028.60
518.33	1036.57
518.69	1044.67
519.05	1052.50
519.41	1059.90
519.77	1068.98
520.13	1075.64
520.49	1082.76
520.85	1089.62
521.21	1097.57
521.57	1105.21
521.93	1112.19
522.29	1119.24
522.65	1124.98
523.01	1132.79
523.37	1139.52
523.73	1146.19
524.09	1152.40
524.45	1158.31
524.81	1164.45
525.17	1171.07
525.53	1177.64
525.89	1183.90
526.25	1189.95
526.61	1195.31
526.97	1201.55
527.33	1205.69
527.68	1212.93
528.04	1219.02
528.40	1224.64
528.76	1229.26
529.12	1234.45
529.48	1241.45
529.84	1247.24
530.20	1253.31
530.56	1259.21
530.91	1264.48
531.27	1269.60
531.63	1275.83
531.99	1281.24
532.35	1286.79
532.71	1291.57
533.07	1297.26
533.42	1304.67
533.78	1310.31
534.14	1316.86
534.50	1322.38
534.86	1329.14
535.21	1333.71
535.57	1339.14
535.93	1343.64
536.29	1349.74
536.65	1355.64
537.00	1359.98
537.36	1365.26
537.72	1369.90
538.08	1374.52
538.44	1379.38
538.79	1384.83
539.15	1388.95
539.51	1394.05
539.87	1399.45
540.22	1404.31
540.58	1408.62
540.94	1411.57
541.29	1415.36
541.65	1417.86
542.01	1422.64
542.37	1425.71
542.72	1429.02
543.08	1432.29
543.44	1436.86
543.79	1439.83
544.15	1443.93
544.51	1448.40
544.87	1451.88
545.22	1456.76
545.58	1460.60
545.94	1464.74
546.29	1468.07
546.65	1471.95
547.01	1474.38
547.36	1477.38
547.72	1481.29
548.07	1484.79
548.43	1487.38
548.79	1490.36
549.14	1495.05
549.50	1497.40
549.86	1500.67
550.21	1504.86
550.57	1508.88
550.92	1512.19
551.28	1515.74
551.64	1518.88
551.99	1522.40
552.35	1526.40
552.70	1528.98
553.06	1533.05
553.41	1535.52
553.77	1540.64
554.13	1545.02
554.48	1550.19
554.84	1555.45
555.19	1559.33
555.55	1564.55
555.90	1570.17
556.26	1575.64
556.61	1579.48
556.97	1584.07
557.32	1588.48
557.68	1592.50
558.03	1596.95
558.39	1600.76
558.74	1605.95
559.10	1610.81
559.45	1615.36
559.81	1619.81
560.16	1623.93
560.52	1627.48
560.87	1632.74
561.23	1635.98
561.58	1641.88
561.94	1646.31
562.29	1649.71
562.64	1653.98
563.00	1657.43
563.35	1660.33
563.71	1664.88
564.06	1669.90
564.42	1674.86
564.77	1681.24
565.12	1686.48
565.48	1693.00
565.83	1699.67
566.19	1705.43
566.54	1709.38
566.89	1714.60
567.25	1720.17
567.60	1726.57
567.96	1732.95
568.31	1739.33
568.66	1744.43
569.02	1747.17
569.37	1751.52
569.72	1756.10
570.08	1760.26
570.43	1764.05
570.78	1768.93
571.14	1772.90
571.49	1776.07
571.84	1780.00
572.20	1781.93
572.55	1785.40
572.90	1786.40
573.26	1788.45
573.61	1790.48
573.96	1794.00
574.31	1796.38
574.67	1798.40
575.02	1800.02
575.37	1801.48
575.72	1802.24
576.08	1803.83
576.43	1805.88
576.78	1808.60
577.13	1810.21
577.49	1811.60
577.84	1813.69
578.19	1815.60
578.54	1817.36
578.90	1818.95
579.25	1820.33
579.60	1821.64
579.95	1821.76
580.30	1823.93
580.66	1825.21
581.01	1826.19
581.36	1826.43
581.71	1826.71
582.06	1828.60
582.42	1829.64
582.77	1829.17
583.12	1829.83
583.47	1830.19
583.82	1831.05
584.17	1830.64
584.53	1831.36
584.88	1832.07
585.23	1832.93
585.58	1833.05
585.93	1832.40
586.28	1832.38
586.63	1831.07
586.98	1831.17
587.34	1830.86
587.69	1830.05
588.04	1829.81
588.39	1829.38
588.74	1828.55
589.09	1827.86
589.44	1825.29
589.79	1824.98
590.14	1824.67
590.49	1823.19
590.84	1821.60
591.19	1820.14
591.54	1819.17
591.89	1817.00
592.25	1817.10
592.60	1813.67
592.95	1811.64
593.30	1809.69
593.65	1807.69
594.00	1805.29
594.35	1808.14
594.70	1805.83
595.05	1803.02
595.40	1800.14
595.75	1797.88
596.10	1796.64
596.45	1794.14
596.80	1792.33
597.15	1789.81
597.50	1786.90
597.85	1785.29
598.19	1783.12
598.54	1780.76
598.89	1778.60
599.24	1776.95
599.59	1772.83
599.94	1771.69
600.29	1768.93
600.64	1766.86
600.99	1764.43
601.34	1763.43
601.69	1755.93
602.04	1753.07
602.39	1751.86
602.74	1750.24
603.08	1747.29
603.43	1745.40
603.78	1742.71
604.13	1739.71
604.48	1737.05
604.83	1734.90
605.18	1732.76
605.53	1729.74
605.87	1725.40
606.22	1721.81
606.57	1717.88
606.92	1714.21
607.27	1710.48
607.62	1708.02
607.96	1704.83
608.31	1701.76
608.66	1698.10
609.01	1693.79
609.36	1690.36
609.70	1685.31
610.05	1681.24
610.40	1677.33
610.75	1671.71
611.10	1667.95
611.44	1663.07
611.79	1657.12
612.14	1651.98
612.49	1645.26
612.83	1640.45
613.18	1636.60
613.53	1630.81
613.88	1625.33
614.22	1619.33
614.57	1613.57
614.92	1607.98
615.27	1601.52
615.61	1595.17
615.96	1588.95
616.31	1583.79
616.65	1580.43
617.00	1575.71
617.35	1570.10
617.70	1564.48
618.04	1558.98
618.39	1553.02
618.74	1547.88
619.08	1542.74
619.43	1537.57
619.78	1532.95
620.12	1528.38
620.47	1522.48
620.82	1517.40
621.16	1511.12
621.51	1507.29
621.85	1501.38
622.20	1495.05
622.55	1489.64
622.89	1484.31
623.24	1478.86
623.59	1473.45
623.93	1466.57
624.28	1461.00
624.62	1457.38
624.97	1452.83
625.32	1447.12
625.66	1440.90
626.01	1434.93
626.35	1429.69
626.70	1423.36
627.04	1418.05
627.39	1411.21
627.73	1407.00
628.08	1401.69
628.43	1397.24
628.77	1390.90
629.12	1385.64
629.46	1380.40
629.81	1374.50
630.15	1368.38
630.50	1362.98
630.84	1356.33
631.19	1349.02
631.53	1342.86
631.88	1333.79
632.22	1325.33
632.57	1319.12
632.91	1312.45
633.26	1306.50
633.60	1300.00
633.95	1293.98
634.29	1287.48
634.64	1281.81
634.98	1274.19
635.32	1268.29
635.67	1262.67
636.01	1256.76
636.36	1250.17
636.70	1245.05
637.05	1239.76
637.39	1234.71
637.73	1228.14
638.08	1223.02
638.42	1217.95
638.77	1211.76
639.11	1206.24
639.45	1201.62
639.80	1195.62
640.14	1189.90
640.49	1183.00
640.83	1176.10
641.17	1169.67
641.52	1162.48
641.86	1156.26
642.20	1150.64
642.55	1142.90
642.89	1135.83
643.23	1129.29
643.58	1123.95
643.92	1115.81
644.26	1108.31
644.61	1101.12
644.95	1094.79
645.29	1087.33
645.64	1081.02
645.98	1074.21
646.32	1067.40
646.66	1059.93
647.01	1053.21
647.35	1047.43
647.69	1041.48
648.04	1035.88
648.38	1029.60
648.72	1023.81
649.06	1016.50
649.41	1009.29
649.75	1003.45
650.09	996.71
650.43	989.62
650.78	982.45
651.12	976.26
651.46	970.29
651.80	964.12
652.14	957.81
652.49	952.69
652.83	945.50
653.17	938.67
653.51	932.00
653.85	925.90
654.20	919.81
654.54	912.31
654.88	905.55
655.22	899.21
655.56	892.71
655.90	886.10
656.25	880.21
656.59	874.24
656.93	868.31
657.27	863.40
657.61	857.14
657.95	851.69
658.29	845.60
658.64	840.17
658.98	833.83
659.32	828.07
659.66	821.62
660.00	816.36
660.34	810.57
660.68	804.71
661.02	799.12
661.36	793.05
661.70	788.07
662.05	782.98
662.39	777.83
662.73	773.24
663.07	768.86
663.41	763.83
663.75	757.79
664.09	752.62
664.43	746.26
664.77	741.17
665.11	734.88
665.45	730.02
665.79	725.14
666.13	720.05
666.47	714.90
666.81	709.43
667.15	703.88
667.49	699.67
667.83	695.93
668.17	691.52
668.51	686.57
668.85	681.79
669.19	677.64
669.53	671.93
669.87	666.55
670.21	661.60
670.55	657.02
670.89	653.98
671.23	649.36
671.57	645.14
671.91	641.33
672.25	637.45
672.58	633.86
672.92	628.50
673.26	624.36
673.60	619.71
673.94	616.10
674.28	612.02
674.62	608.24
674.96	603.69
675.30	599.05
675.64	595.29
675.97	591.21
676.31	587.00
676.65	583.21
676.99	580.38
677.33	576.17
677.67	572.14
678.01	567.10
678.34	562.95
678.68	559.67
679.02	555.33
679.36	551.55
679.70	546.76
680.04	543.36
680.37	539.60
680.71	536.10
681.05	531.98
681.39	528.29
681.73	523.79
682.06	520.02
682.40	516.50
682.74	513.40
683.08	511.14
683.42	506.88
683.75	503.48
684.09	499.02
684.43	495.40
684.77	491.74
685.10	488.62
685.44	485.81
685.78	481.95
686.12	479.33
686.45	476.07
686.79	472.79
687.13	469.62
687.46	466.40
687.80	463.88
688.14	460.98
688.48	458.64
688.81	455.86
689.15	453.67
689.49	450.69
689.82	447.64
690.16	443.55
690.50	441.19
690.83	438.33
691.17	435.33
691.51	432.86
691.84	430.64
692.18	427.69
692.52	424.95
692.85	422.62
693.19	420.43
693.52	417.86
693.86	415.21
694.20	412.83
694.53	410.55
694.87	407.40
695.21	404.93
695.54	401.98
695.88	399.02
696.21	395.62
696.55	393.43
696.88	390.90
697.22	389.12
697.56	387.05
697.89	384.64
698.23	383.17
698.56	380.81
698.90	378.60
699.23	376.43
699.57	374.17
699.90	371.90
700.24	369.02
700.58	366.88
700.91	365.29
701.25	364.60
701.58	363.26
701.92	361.90
702.25	359.98
702.59	358.12
702.92	356.76
703.26	355.50
703.59	353.86
703.93	353.67
704.26	351.76
704.60	349.95
704.93	348.52
705.26	346.24
705.60	345.17
705.93	342.95
706.27	342.21
706.60	340.88
706.94	340.29
707.27	338.57
707.61	337.43
707.94	335.69
708.27	332.69
708.61	330.62
708.94	328.76
709.28	327.45
709.61	325.93
709.94	324.71
710.28	323.29
710.61	322.05
710.95	319.07
711.28	318.93
711.61	317.05
711.95	316.14
712.28	314.69
712.61	312.67
712.95	312.79
713.28	312.17
713.61	310.71
713.95	308.67
714.28	307.67
714.61	306.52
714.95	305.33
715.28	304.07
715.61	302.86
715.95	302.10
716.28	300.50
716.61	299.64
716.95	298.31
717.28	296.86
717.61	295.45
717.94	294.38
718.28	291.76
718.61	291.21
718.94	289.62
719.27	288.76
719.61	288.33
719.94	286.69
720.27	284.81
720.60	283.81
720.94	282.64
721.27	281.90
721.60	281.10
721.93	280.21
722.27	280.36
722.60	279.79
722.93	278.74
723.26	278.40
723.59	277.38
723.93	276.69
724.26	276.43
724.59	275.64
724.92	275.05
725.25	275.10
725.59	274.50
725.92	274.24
726.25	273.69
726.58	272.93
726.91	272.14
727.24	271.76
727.57	270.88
727.91	270.14
728.24	269.60
728.57	268.55
728.90	268.31
729.23	267.00
729.56	267.19
729.89	266.71
730.22	265.86
730.55	265.40
730.89	264.81
731.22	264.00
731.55	263.40
731.88	262.95
732.21	262.07
732.54	261.02
732.87	260.40
733.20	259.86
733.53	259.36
733.86	259.10
734.19	258.19
734.52	258.12
734.85	258.90
735.18	258.14
735.51	258.43
735.84	257.88
736.17	257.98
736.50	256.38
736.83	258.31
737.16	258.02
737.49	257.64
737.82	256.93
738.15	256.71
738.48	256.43
738.81	255.95
739.14	255.10
739.47	254.81
739.80	254.38
740.13	254.05
740.46	253.05
740.79	252.38
741.12	251.83
741.45	251.14
741.78	249.81
742.11	249.79
742.44	248.81
742.77	248.83
743.10	247.86
743.43	247.50
743.75	244.74
744.08	246.76
744.41	246.07
744.74	245.86
745.07	245.21
745.40	245.05
745.73	245.67
746.06	245.60
746.39	245.45
746.71	244.67
747.04	244.14
747.37	243.93
747.70	243.86
748.03	243.81
748.36	243.62
748.68	243.33
749.01	242.43
749.34	242.33
749.67	241.83
750.00	241.95
750.33	243.21
750.65	242.95
750.98	240.10
751.31	239.71
751.64	239.55
751.97	240.29
752.29	239.81
752.62	238.55
752.95	238.10
753.28	237.52
753.60	237.26
753.93	237.50
754.26	237.40
754.59	236.52
754.91	235.81
755.24	235.40
755.57	235.05
755.90	234.81
756.22	234.33
756.55	233.69
756.88	232.98
757.20	231.26
757.53	230.62
757.86	230.60
758.19	230.74
758.51	230.31
758.84	229.19
759.17	228.90
759.49	228.36
759.82	229.12
760.15	229.26
760.47	228.93
760.80	227.95
761.13	228.10
761.45	227.88
761.78	228.05
762.11	228.10
762.43	227.48
762.76	227.52
763.08	227.50
763.41	227.57
763.74	227.52
764.06	227.50
764.39	227.48
764.71	227.38
765.04	227.17
765.37	226.88
765.69	226.45
766.02	226.29
766.34	226.26
766.67	225.52
767.00	225.52
767.32	226.64
767.65	227.74
767.97	227.26
768.30	227.31
768.62	226.86
768.95	226.33
769.27	226.64
769.60	226.60
769.92	226.26
770.25	225.69
770.57	225.21
770.90	224.79
771.22	224.55
771.55	224.07
771.87	223.95
772.20	223.86
772.52	225.57
772.85	227.69
773.17	227.64
773.50	227.36
773.82	227.17
774.15	226.02
774.47	224.81
774.80	224.93
775.12	224.62
775.45	224.83
775.77	224.88
776.09	224.60
776.42	224.43
776.74	224.79
777.07	224.67
777.39	224.79
777.72	224.69
778.04	224.93
778.36	224.93
778.69	224.81
779.01	224.83
779.33	223.10
779.66	220.81
779.98	220.64
780.31	220.57
780.63	221.21
780.95	221.62
781.28	221.52
781.60	221.17
781.92	221.24
782.25	221.05
782.57	220.95
782.89	220.95
783.22	220.71
783.54	219.93
783.86	220.17
784.19	220.10
784.51	220.88
784.83	220.45
785.16	219.93
785.48	219.81
