SpectraSuite Data File
++++++++++++++++++++++++++++++++++++
Date: Tue Apr 02 18:42:29 EDT 2013
User: group
Dark Spectrum Present: No
Reference Spectrum Present: No
Number of Sampled Component Spectra: 1
Spectrometers: USB2E7196
Integration Time (usec): 580000 (USB2E7196)
Spectra Averaged: 2 (USB2E7196)
Boxcar Smoothing: 10 (USB2E7196)
Correct for Electrical Dark: No (USB2E7196)
Strobe/Lamp Enabled: No (USB2E7196)
Correct for Detector Non-linearity: No (USB2E7196)
Correct for Stray Light: No (USB2E7196)
Number of Pixels in Processed Spectrum: 2048
>>>>>Begin Processed Spectral Data<<<<<
339.09	0.00
339.48	194.50
339.86	197.00
340.24	199.00
340.63	194.00
341.01	228.50
341.39	200.50
341.78	208.50
342.16	213.50
342.54	204.50
342.93	197.71
343.31	207.69
343.69	208.21
344.07	208.79
344.46	209.52
344.84	210.17
345.22	209.17
345.60	209.67
345.99	209.86
346.37	209.74
346.75	210.07
347.13	210.05
347.52	210.07
347.90	210.67
348.28	210.57
348.66	211.40
349.05	210.69
349.43	210.79
349.81	210.81
350.19	210.57
350.57	210.98
350.96	211.36
351.34	211.33
351.72	211.48
352.10	211.48
352.48	211.12
352.87	211.07
353.25	211.17
353.63	210.83
354.01	210.74
354.39	210.93
354.77	210.76
355.15	211.33
355.54	211.26
355.92	210.83
356.30	210.95
356.68	212.05
357.06	212.52
357.44	212.31
357.82	212.26
358.20	213.19
358.58	212.81
358.97	212.86
359.35	213.26
359.73	213.67
360.11	213.74
360.49	213.69
360.87	213.74
361.25	213.86
361.63	214.86
362.01	214.74
362.39	214.31
362.77	214.45
363.15	214.43
363.53	214.57
363.91	214.43
364.29	214.19
364.67	212.26
365.05	212.17
365.43	212.26
365.81	212.50
366.19	212.67
366.57	213.45
366.95	213.29
367.33	212.74
367.71	212.81
368.09	213.19
368.47	213.40
368.85	213.31
369.23	213.93
369.61	213.14
369.99	213.88
370.37	214.24
370.75	215.55
371.13	215.10
371.51	214.93
371.89	215.29
372.27	215.60
372.65	215.81
373.03	215.81
373.41	215.88
373.78	215.90
374.16	214.76
374.54	214.36
374.92	214.21
375.30	214.43
375.68	214.05
376.06	214.19
376.44	213.98
376.82	214.45
377.19	214.05
377.57	214.05
377.95	213.40
378.33	213.43
378.71	211.81
379.09	212.10
379.47	212.38
379.84	212.29
380.22	212.17
380.60	211.74
380.98	211.52
381.36	211.29
381.73	210.93
382.11	211.60
382.49	211.62
382.87	211.64
383.25	211.79
383.62	214.10
384.00	213.79
384.38	213.90
384.76	214.02
385.13	214.98
385.51	215.07
385.89	215.00
386.27	215.12
386.64	215.86
387.02	215.76
387.40	215.26
387.78	215.31
388.15	215.48
388.53	215.62
388.91	215.60
389.29	215.83
389.66	216.14
390.04	215.81
390.42	216.26
390.79	216.31
391.17	216.26
391.55	214.07
391.92	213.74
392.30	214.05
392.68	213.64
393.05	213.38
393.43	213.40
393.81	213.52
394.18	213.26
394.56	212.90
394.94	213.40
395.31	213.48
395.69	214.24
396.06	214.31
396.44	214.71
396.82	214.86
397.19	215.81
397.57	215.93
397.95	216.31
398.32	215.69
398.70	215.62
399.07	215.95
399.45	215.76
399.82	215.93
400.20	215.67
400.58	215.74
400.95	214.95
401.33	215.38
401.70	217.00
402.08	217.05
402.45	217.19
402.83	217.69
403.20	217.88
403.58	217.36
403.95	217.81
404.33	218.10
404.71	218.33
405.08	219.52
405.46	219.86
405.83	220.19
406.21	220.50
406.58	221.36
406.96	221.79
407.33	222.60
407.70	223.38
408.08	225.71
408.45	226.74
408.83	227.83
409.20	228.31
409.58	227.95
409.95	229.02
410.33	230.07
410.70	230.00
411.08	231.19
411.45	232.38
411.82	233.24
412.20	234.69
412.57	237.19
412.95	236.83
413.32	238.48
413.69	239.69
414.07	241.79
414.44	243.40
414.82	245.36
415.19	247.52
415.56	249.69
415.94	250.98
416.31	253.74
416.68	256.52
417.06	259.83
417.43	263.05
417.81	266.76
418.18	270.50
418.55	274.67
418.93	278.67
419.30	282.88
419.67	287.48
420.04	292.00
420.42	296.19
420.79	303.36
421.16	308.88
421.54	315.90
421.91	321.74
422.28	327.83
422.66	334.19
423.03	342.45
423.40	349.52
423.77	356.90
424.15	363.76
424.52	371.64
424.89	380.38
425.26	388.17
425.64	395.62
426.01	403.86
426.38	412.83
426.75	422.43
427.13	431.86
427.50	441.31
427.87	451.17
428.24	461.26
428.61	469.62
428.99	481.07
429.36	491.45
429.73	502.79
430.10	514.10
430.47	526.55
430.85	537.19
431.22	549.88
431.59	564.83
431.96	578.21
432.33	592.45
432.70	606.02
433.08	622.57
433.45	638.00
433.82	653.62
434.19	670.86
434.56	687.95
434.93	703.64
435.30	719.71
435.68	737.57
436.05	754.71
436.42	771.98
436.79	787.93
437.16	805.57
437.53	823.76
437.90	842.31
438.27	860.19
438.64	877.98
439.01	895.05
439.38	908.26
439.75	923.05
440.13	939.71
440.50	955.43
440.87	968.43
441.24	981.33
441.61	996.07
441.98	1006.43
442.35	1018.19
442.72	1031.38
443.09	1045.19
443.46	1052.83
443.83	1058.40
444.20	1063.55
444.57	1069.64
444.94	1073.12
445.31	1076.88
445.68	1082.69
446.05	1083.31
446.42	1082.79
446.79	1081.52
447.16	1080.45
447.53	1079.64
447.90	1073.45
448.27	1066.90
448.64	1058.24
449.01	1052.71
449.37	1041.79
449.74	1031.60
450.11	1020.36
450.48	1005.57
450.85	989.38
451.22	976.93
451.59	964.40
451.96	952.81
452.33	937.50
452.70	923.17
453.07	905.88
453.43	886.36
453.80	870.31
454.17	853.76
454.54	838.24
454.91	821.67
455.28	804.81
455.65	789.74
456.02	778.43
456.38	765.38
456.75	749.38
457.12	735.52
457.49	721.86
457.86	707.71
458.23	697.76
458.59	686.29
458.96	673.95
459.33	663.48
459.70	652.55
460.07	643.71
460.43	633.69
460.80	625.12
461.17	617.50
461.54	608.98
461.91	601.24
462.27	592.93
462.64	585.57
463.01	578.45
463.38	572.05
463.74	561.14
464.11	554.24
464.48	549.21
464.85	543.02
465.21	538.98
465.58	533.88
465.95	526.86
466.32	521.76
466.68	516.33
467.05	511.38
467.42	505.93
467.78	500.31
468.15	495.60
468.52	491.05
468.88	484.95
469.25	480.21
469.62	476.52
469.98	473.00
470.35	469.67
470.72	466.02
471.08	460.93
471.45	457.71
471.82	454.76
472.18	450.67
472.55	447.88
472.92	443.79
473.28	440.50
473.65	437.74
474.02	434.67
474.38	432.79
474.75	430.64
475.11	428.60
475.48	426.98
475.85	424.98
476.21	423.45
476.58	422.33
476.94	420.95
477.31	419.48
477.67	417.90
478.04	416.29
478.41	415.69
478.77	417.14
479.14	416.33
479.50	416.00
479.87	415.60
480.23	415.52
480.60	415.55
480.96	415.24
481.33	416.33
481.69	416.29
482.06	416.40
482.42	417.07
482.79	417.50
483.15	417.64
483.52	418.60
483.88	418.86
484.25	419.05
484.61	419.95
484.98	420.98
485.34	422.76
485.71	424.79
486.07	425.81
486.44	425.57
486.80	427.07
487.17	428.79
487.53	431.19
487.90	433.14
488.26	435.64
488.62	438.64
488.99	439.90
489.35	443.07
489.72	445.83
490.08	448.38
490.44	451.07
490.81	454.74
491.17	457.81
491.54	461.31
491.90	465.55
492.26	469.50
492.63	473.00
492.99	476.07
493.36	479.64
493.72	484.29
494.08	488.55
494.45	493.19
494.81	497.93
495.17	502.17
495.54	507.50
495.90	512.02
496.26	517.29
496.63	523.19
496.99	527.95
497.35	533.45
497.72	539.43
498.08	545.40
498.44	551.33
498.80	557.57
499.17	563.95
499.53	570.02
499.89	576.07
500.26	582.67
500.62	589.98
500.98	597.43
501.34	604.43
501.71	612.07
502.07	619.26
502.43	626.40
502.79	633.57
503.16	640.52
503.52	647.60
503.88	654.17
504.24	661.43
504.60	669.69
504.97	677.10
505.33	684.40
505.69	692.81
506.05	700.43
506.41	708.43
506.78	716.36
507.14	724.21
507.50	732.88
507.86	741.62
508.22	749.19
508.59	755.81
508.95	763.69
509.31	772.33
509.67	780.12
510.03	787.31
510.39	796.02
510.75	804.36
511.12	812.52
511.48	820.69
511.84	828.52
512.20	835.45
512.56	843.40
512.92	851.07
513.28	858.40
513.64	866.10
514.00	873.43
514.37	880.12
514.73	887.31
515.09	894.79
515.45	901.48
515.81	908.67
516.17	916.64
516.53	922.64
516.89	928.26
517.25	935.14
517.61	942.69
517.97	948.48
518.33	954.83
518.69	961.98
519.05	968.60
519.41	975.10
519.77	982.60
520.13	988.67
520.49	994.81
520.85	1000.50
521.21	1007.17
521.57	1012.69
521.93	1017.79
522.29	1023.79
522.65	1028.38
523.01	1034.02
523.37	1039.10
523.73	1044.36
524.09	1050.19
524.45	1054.90
524.81	1059.90
525.17	1064.50
525.53	1070.05
525.89	1074.57
526.25	1079.02
526.61	1083.76
526.97	1087.71
527.33	1091.95
527.68	1099.02
528.04	1103.24
528.40	1107.83
528.76	1111.43
529.12	1115.74
529.48	1122.24
529.84	1126.07
530.20	1130.29
530.56	1134.55
530.91	1139.76
531.27	1143.31
531.63	1147.95
531.99	1151.79
532.35	1156.10
532.71	1160.10
533.07	1163.24
533.42	1169.31
533.78	1173.24
534.14	1177.57
534.50	1181.98
534.86	1186.50
535.21	1188.10
535.57	1193.07
535.93	1196.17
536.29	1200.95
536.65	1205.98
537.00	1209.38
537.36	1213.02
537.72	1217.21
538.08	1220.60
538.44	1223.17
538.79	1227.57
539.15	1229.98
539.51	1234.90
539.87	1238.36
540.22	1241.90
540.58	1246.29
540.94	1248.05
541.29	1251.88
541.65	1253.57
542.01	1256.81
542.37	1259.98
542.72	1262.62
543.08	1264.55
543.44	1268.29
543.79	1270.12
544.15	1272.83
544.51	1276.05
544.87	1279.29
545.22	1281.62
545.58	1284.57
545.94	1287.60
546.29	1290.45
546.65	1294.38
547.01	1295.81
547.36	1298.38
547.72	1300.88
548.07	1303.38
548.43	1305.26
548.79	1307.07
549.14	1309.83
549.50	1313.10
549.86	1314.45
550.21	1316.95
550.57	1320.21
550.92	1322.48
551.28	1325.31
551.64	1327.95
551.99	1330.43
552.35	1333.07
552.70	1336.48
553.06	1339.62
553.41	1342.02
553.77	1346.64
554.13	1349.50
554.48	1353.76
554.84	1358.10
555.19	1362.57
555.55	1367.74
555.90	1372.29
556.26	1376.14
556.61	1380.31
556.97	1383.83
557.32	1387.62
557.68	1392.64
558.03	1396.74
558.39	1400.74
558.74	1405.36
559.10	1408.76
559.45	1413.71
559.81	1417.90
560.16	1421.93
560.52	1425.90
560.87	1431.31
561.23	1434.19
561.58	1440.17
561.94	1444.45
562.29	1448.71
562.64	1453.24
563.00	1456.62
563.35	1461.21
563.71	1466.74
564.06	1472.55
564.42	1476.90
564.77	1483.48
565.12	1489.07
565.48	1496.52
565.83	1502.45
566.19	1507.14
566.54	1512.83
566.89	1517.21
567.25	1524.43
567.60	1531.21
567.96	1539.69
568.31	1546.67
568.66	1552.67
569.02	1556.07
569.37	1561.98
569.72	1568.21
570.08	1573.12
570.43	1577.60
570.78	1583.74
571.14	1589.48
571.49	1594.00
571.84	1600.10
572.20	1605.02
572.55	1609.40
572.90	1611.71
573.26	1616.76
573.61	1621.79
573.96	1626.52
574.31	1631.55
574.67	1635.71
575.02	1639.67
575.37	1640.50
575.72	1643.14
576.08	1647.10
576.43	1651.55
576.78	1655.14
577.13	1658.05
577.49	1662.10
577.84	1666.50
578.19	1668.93
578.54	1672.55
578.90	1676.76
579.25	1679.45
579.60	1681.88
579.95	1684.10
580.30	1688.43
580.66	1692.00
581.01	1694.86
581.36	1697.76
581.71	1701.02
582.06	1704.90
582.42	1707.83
582.77	1711.50
583.12	1714.60
583.47	1716.69
583.82	1719.62
584.17	1721.83
584.53	1724.81
584.88	1727.33
585.23	1730.60
585.58	1732.93
585.93	1734.26
586.28	1736.26
586.63	1738.52
586.98	1741.19
587.34	1744.64
587.69	1745.19
588.04	1746.86
588.39	1749.21
588.74	1749.98
589.09	1751.43
589.44	1750.62
589.79	1752.45
590.14	1753.86
590.49	1755.26
590.84	1756.60
591.19	1758.05
591.54	1760.21
591.89	1760.98
592.25	1764.74
592.60	1764.50
592.95	1765.12
593.30	1767.79
593.65	1768.50
594.00	1768.60
594.35	1775.26
594.70	1775.12
595.05	1776.17
595.40	1777.10
595.75	1777.79
596.10	1779.52
596.45	1780.05
596.80	1781.43
597.15	1781.98
597.50	1782.36
597.85	1783.76
598.19	1783.69
598.54	1784.02
598.89	1784.05
599.24	1784.38
599.59	1783.21
599.94	1783.62
600.29	1784.19
600.64	1782.79
600.99	1783.19
601.34	1785.14
601.69	1779.62
602.04	1779.33
602.39	1779.33
602.74	1779.05
603.08	1777.67
603.43	1777.86
603.78	1777.14
604.13	1776.40
604.48	1775.69
604.83	1776.21
605.18	1775.57
605.53	1775.64
605.87	1773.76
606.22	1772.07
606.57	1771.50
606.92	1768.62
607.27	1767.55
607.62	1767.40
607.96	1766.90
608.31	1766.10
608.66	1764.17
609.01	1761.52
609.36	1760.60
609.70	1758.74
610.05	1755.88
610.40	1754.76
610.75	1751.60
611.10	1749.98
611.44	1747.38
611.79	1744.40
612.14	1740.76
612.49	1736.76
612.83	1733.81
613.18	1731.19
613.53	1728.19
613.88	1723.67
614.22	1719.95
614.57	1715.60
614.92	1710.69
615.27	1705.71
615.61	1700.69
615.96	1696.29
616.31	1693.40
616.65	1690.40
617.00	1687.26
617.35	1684.38
617.70	1680.31
618.04	1676.86
618.39	1672.40
618.74	1668.50
619.08	1664.74
619.43	1660.95
619.78	1656.90
620.12	1652.88
620.47	1649.55
620.82	1645.79
621.16	1640.98
621.51	1637.64
621.85	1633.83
622.20	1630.00
622.55	1626.45
622.89	1622.71
623.24	1618.88
623.59	1614.05
623.93	1609.14
624.28	1604.12
624.62	1601.50
624.97	1598.50
625.32	1593.90
625.66	1589.60
626.01	1585.64
626.35	1581.40
626.70	1577.88
627.04	1575.02
627.39	1571.31
627.73	1567.38
628.08	1562.71
628.43	1559.21
628.77	1554.98
629.12	1551.17
629.46	1548.26
629.81	1544.05
630.15	1539.07
630.50	1534.05
630.84	1529.64
631.19	1524.17
631.53	1519.57
631.88	1512.00
632.22	1505.50
632.57	1501.05
632.91	1496.07
633.26	1491.67
633.60	1485.38
633.95	1479.69
634.29	1473.05
634.64	1467.64
634.98	1462.48
635.32	1458.67
635.67	1454.69
636.01	1449.83
636.36	1444.67
636.70	1439.67
637.05	1433.95
637.39	1429.50
637.73	1425.12
638.08	1420.52
638.42	1416.12
638.77	1411.45
639.11	1406.31
639.45	1401.24
639.80	1396.10
640.14	1390.55
640.49	1384.36
640.83	1379.71
641.17	1373.64
641.52	1368.62
641.86	1362.62
642.20	1358.07
642.55	1350.95
642.89	1344.69
643.23	1339.24
643.58	1333.74
643.92	1326.12
644.26	1320.45
644.61	1314.52
644.95	1308.52
645.29	1301.55
645.64	1296.00
645.98	1289.50
646.32	1283.88
646.66	1277.88
647.01	1271.36
647.35	1265.40
647.69	1259.86
648.04	1253.98
648.38	1247.90
648.72	1241.71
649.06	1235.55
649.41	1227.95
649.75	1222.52
650.09	1216.36
650.43	1209.60
650.78	1202.81
651.12	1196.33
651.46	1189.69
651.80	1183.21
652.14	1176.79
652.49	1171.02
652.83	1164.24
653.17	1157.79
653.51	1151.26
653.85	1145.29
654.20	1138.62
654.54	1131.33
654.88	1123.88
655.22	1117.88
655.56	1111.48
655.90	1103.90
656.25	1097.67
656.59	1090.98
656.93	1083.86
657.27	1077.93
657.61	1070.43
657.95	1064.55
658.29	1058.17
658.64	1052.40
658.98	1046.26
659.32	1038.93
659.66	1032.31
660.00	1025.57
660.34	1019.43
660.68	1012.67
661.02	1005.24
661.36	998.86
661.70	993.26
662.05	987.40
662.39	981.50
662.73	975.62
663.07	970.79
663.41	964.60
663.75	958.14
664.09	952.43
664.43	945.24
664.77	939.93
665.11	933.55
665.45	928.19
665.79	922.88
666.13	915.71
666.47	909.40
666.81	903.36
667.15	896.93
667.49	891.24
667.83	886.76
668.17	881.55
668.51	875.93
668.85	870.31
669.19	865.31
669.53	858.57
669.87	852.50
670.21	846.74
670.55	841.24
670.89	837.19
671.23	832.19
671.57	827.48
671.91	822.62
672.25	817.29
672.58	812.26
672.92	805.79
673.26	801.45
673.60	797.52
673.94	792.83
674.28	788.45
674.62	783.71
674.96	777.69
675.30	772.88
675.64	768.00
675.97	763.07
676.31	757.98
676.65	752.69
676.99	749.12
677.33	743.67
677.67	738.81
678.01	732.48
678.34	727.21
678.68	722.67
679.02	717.29
679.36	712.29
679.70	707.38
680.04	702.62
680.37	697.88
680.71	692.71
681.05	688.38
681.39	683.86
681.73	678.48
682.06	674.05
682.40	669.40
682.74	665.52
683.08	661.50
683.42	656.21
683.75	652.29
684.09	646.88
684.43	642.71
684.77	638.24
685.10	634.40
685.44	629.69
685.78	625.10
686.12	620.76
686.45	616.67
686.79	611.95
687.13	608.05
687.46	603.86
687.80	600.55
688.14	595.67
688.48	591.67
688.81	587.88
689.15	584.17
689.49	580.02
689.82	575.43
690.16	570.64
690.50	566.86
690.83	562.79
691.17	558.48
691.51	554.17
691.84	550.67
692.18	546.62
692.52	543.14
692.85	539.33
693.19	535.98
693.52	532.29
693.86	528.21
694.20	524.55
694.53	520.64
694.87	516.33
695.21	512.33
695.54	508.24
695.88	504.17
696.21	500.00
696.55	496.00
696.88	492.57
697.22	489.62
697.56	486.81
697.89	482.76
698.23	479.88
698.56	476.60
698.90	473.21
699.23	469.86
699.57	466.69
699.90	463.31
700.24	460.10
700.58	456.86
700.91	454.38
701.25	452.71
701.58	450.67
701.92	448.10
702.25	445.81
702.59	442.90
702.92	440.48
703.26	437.50
703.59	435.55
703.93	434.57
704.26	431.60
704.60	428.95
704.93	426.69
705.26	423.95
705.60	421.69
705.93	418.57
706.27	416.69
706.60	414.48
706.94	413.40
707.27	410.67
707.61	408.43
707.94	405.81
708.27	401.60
708.61	398.29
708.94	395.69
709.28	393.31
709.61	391.14
709.94	388.79
710.28	386.98
710.61	384.40
710.95	380.26
711.28	379.33
711.61	376.71
711.95	375.55
712.28	373.45
712.61	371.50
712.95	371.07
713.28	370.07
713.61	367.74
713.95	364.90
714.28	363.21
714.61	361.14
714.95	359.33
715.28	357.76
715.61	356.14
715.95	354.36
716.28	352.45
716.61	350.93
716.95	348.98
717.28	347.26
717.61	345.62
717.94	344.10
718.28	341.21
718.61	339.74
718.94	337.36
719.27	335.64
719.61	334.00
719.94	331.31
720.27	328.45
720.60	327.07
720.94	325.57
721.27	323.95
721.60	323.02
721.93	321.62
722.27	320.90
722.60	319.76
722.93	318.38
723.26	317.17
723.59	315.76
723.93	314.88
724.26	313.83
724.59	312.86
724.92	311.88
725.25	311.17
725.59	309.95
725.92	309.26
726.25	308.29
726.58	307.40
726.91	306.36
727.24	305.57
727.57	304.38
727.91	302.71
728.24	301.83
728.57	300.36
728.90	299.57
729.23	297.88
729.56	297.69
729.89	296.55
730.22	295.21
730.55	294.07
730.89	293.12
731.22	292.00
731.55	290.76
731.88	290.05
732.21	289.05
732.54	287.90
732.87	286.88
733.20	285.98
733.53	284.76
733.86	284.07
734.19	282.90
734.52	282.50
734.85	283.17
735.18	282.14
735.51	282.21
735.84	281.67
736.17	281.45
736.50	279.57
736.83	281.17
737.16	280.64
737.49	279.95
737.82	279.10
738.15	278.52
738.48	277.76
738.81	276.64
739.14	275.55
739.47	274.93
739.80	274.24
740.13	273.90
740.46	273.05
740.79	272.14
741.12	271.48
741.45	270.45
741.78	268.83
742.11	268.71
742.44	267.57
742.77	267.14
743.10	266.36
743.43	265.67
743.75	263.14
744.08	265.10
744.41	264.50
744.74	263.83
745.07	262.83
745.40	262.69
745.73	263.05
746.06	262.67
746.39	262.29
746.71	261.21
747.04	260.33
747.37	259.93
747.70	259.93
748.03	259.45
748.36	259.24
748.68	258.69
749.01	257.74
749.34	257.10
749.67	256.40
750.00	256.36
750.33	257.64
750.65	257.31
750.98	254.26
751.31	253.52
751.64	253.21
751.97	254.19
752.29	253.50
752.62	252.19
752.95	251.55
753.28	250.95
753.60	250.74
753.93	250.88
754.26	250.60
754.59	249.45
754.91	248.76
755.24	247.90
755.57	247.26
755.90	246.76
756.22	246.10
756.55	245.24
756.88	243.95
757.20	242.21
757.53	241.10
757.86	240.71
758.19	240.50
758.51	240.14
758.84	238.38
759.17	237.93
759.49	237.69
759.82	238.29
760.15	238.00
760.47	237.74
760.80	236.88
761.13	236.93
761.45	236.57
761.78	236.40
762.11	236.21
762.43	235.67
762.76	235.29
763.08	235.29
763.41	235.40
763.74	235.50
764.06	234.93
764.39	235.00
764.71	235.02
765.04	234.67
765.37	234.24
765.69	234.29
766.02	234.12
766.34	233.64
766.67	232.62
767.00	232.74
767.32	233.38
767.65	234.19
767.97	233.62
768.30	233.55
768.62	233.26
768.95	232.71
769.27	232.76
769.60	232.88
769.92	232.40
770.25	231.64
770.57	230.93
770.90	230.55
771.22	229.86
771.55	229.62
771.87	229.52
772.20	229.17
772.52	230.55
772.85	232.83
773.17	232.81
773.50	232.62
773.82	232.10
774.15	231.05
774.47	229.62
774.80	229.48
775.12	229.12
775.45	229.17
775.77	229.26
776.09	229.33
776.42	229.02
776.74	229.55
777.07	229.38
777.39	229.45
777.72	229.50
778.04	229.83
778.36	229.24
778.69	229.10
779.01	229.14
779.33	227.45
779.66	225.05
779.98	224.76
780.31	224.74
780.63	225.55
780.95	225.90
781.28	225.71
781.60	225.33
781.92	225.45
782.25	225.33
782.57	225.33
782.89	224.76
783.22	224.62
783.54	223.74
783.86	223.88
784.19	223.50
784.51	224.05
784.83	223.48
785.16	223.45
