SpectraSuite Data File
++++++++++++++++++++++++++++++++++++
Date: Tue Apr 02 18:44:54 EDT 2013
User: group
Dark Spectrum Present: No
Reference Spectrum Present: No
Number of Sampled Component Spectra: 1
Spectrometers: USB2E7196
Integration Time (usec): 580000 (USB2E7196)
Spectra Averaged: 2 (USB2E7196)
Boxcar Smoothing: 10 (USB2E7196)
Correct for Electrical Dark: No (USB2E7196)
Strobe/Lamp Enabled: No (USB2E7196)
Correct for Detector Non-linearity: No (USB2E7196)
Correct for Stray Light: No (USB2E7196)
Number of Pixels in Processed Spectrum: 2048
>>>>>Begin Processed Spectral Data<<<<<
339.09	0.00
339.48	190.00
339.86	193.00
340.24	196.00
340.63	195.50
341.01	230.50
341.39	198.50
341.78	206.00
342.16	212.00
342.54	204.50
342.93	197.57
343.31	207.43
343.69	208.12
344.07	208.76
344.46	209.60
344.84	210.31
345.22	209.45
345.60	210.12
345.99	210.50
346.37	210.40
346.75	210.67
347.13	210.83
347.52	210.90
347.90	211.81
348.28	211.98
348.66	212.69
349.05	211.95
349.43	212.36
349.81	212.43
350.19	212.57
350.57	212.83
350.96	213.07
351.34	213.26
351.72	213.55
352.10	213.71
352.48	213.45
352.87	213.62
353.25	213.45
353.63	213.43
354.01	213.31
354.39	213.55
354.77	213.43
355.15	213.74
355.54	213.57
355.92	212.86
356.30	212.88
356.68	214.10
357.06	214.10
357.44	213.57
357.82	213.55
358.20	214.45
358.58	214.29
358.97	214.38
359.35	214.86
359.73	215.36
360.11	215.36
360.49	215.55
360.87	215.31
361.25	215.62
361.63	216.40
362.01	216.69
362.39	216.43
362.77	216.57
363.15	216.55
363.53	216.43
363.91	216.52
364.29	216.60
364.67	214.67
365.05	214.83
365.43	215.26
365.81	215.71
366.19	215.69
366.57	216.52
366.95	216.57
367.33	216.05
367.71	215.93
368.09	216.33
368.47	216.45
368.85	216.36
369.23	216.86
369.61	215.88
369.99	216.31
370.37	216.48
370.75	217.74
371.13	217.29
371.51	217.29
371.89	217.33
372.27	217.52
372.65	217.48
373.03	217.50
373.41	217.12
373.78	216.98
374.16	215.95
374.54	215.24
374.92	215.19
375.30	215.26
375.68	214.83
376.06	214.79
376.44	214.43
376.82	214.67
377.19	214.50
377.57	214.38
377.95	213.86
378.33	213.81
378.71	212.55
379.09	213.00
379.47	213.19
379.84	213.12
380.22	212.86
380.60	212.71
380.98	212.79
381.36	212.79
381.73	212.33
382.11	212.67
382.49	212.83
382.87	212.48
383.25	212.36
383.62	214.67
384.00	214.29
384.38	214.48
384.76	214.90
385.13	215.60
385.51	215.67
385.89	215.29
386.27	215.48
386.64	215.67
387.02	215.43
387.40	215.21
387.78	215.33
388.15	215.45
388.53	215.19
388.91	215.12
389.29	215.17
389.66	215.69
390.04	215.36
390.42	215.55
390.79	215.76
391.17	215.81
391.55	213.62
391.92	213.71
392.30	213.76
392.68	213.26
393.05	212.88
393.43	212.93
393.81	213.14
394.18	212.86
394.56	212.88
394.94	213.24
395.31	213.07
395.69	213.74
396.06	213.81
396.44	214.12
396.82	213.93
397.19	214.93
397.57	214.48
397.95	215.00
398.32	214.52
398.70	214.57
399.07	215.02
399.45	214.93
399.82	214.95
400.20	215.12
400.58	215.31
400.95	214.60
401.33	215.19
401.70	216.86
402.08	216.98
402.45	216.98
402.83	217.43
403.20	217.62
403.58	217.21
403.95	218.02
404.33	218.31
404.71	218.62
405.08	219.74
405.46	220.05
405.83	220.50
406.21	220.71
406.58	221.19
406.96	221.57
407.33	222.14
407.70	222.88
408.08	224.93
408.45	225.55
408.83	226.74
409.20	227.31
409.58	226.52
409.95	227.69
410.33	228.74
410.70	229.00
411.08	230.43
411.45	231.57
411.82	232.14
412.20	233.81
412.57	236.21
412.95	235.76
413.32	237.67
413.69	238.98
414.07	240.93
414.44	242.57
414.82	244.55
415.19	246.95
415.56	249.17
415.94	250.17
416.31	252.95
416.68	255.57
417.06	258.76
417.43	262.60
417.81	266.05
418.18	269.67
418.55	273.67
418.93	278.00
419.30	282.17
419.67	286.64
420.04	291.17
420.42	295.57
420.79	302.67
421.16	308.29
421.54	315.38
421.91	321.45
422.28	327.48
422.66	333.93
423.03	341.64
423.40	348.14
423.77	355.14
424.15	362.45
424.52	370.19
424.89	378.74
425.26	386.26
425.64	393.83
426.01	401.83
426.38	410.14
426.75	419.43
427.13	428.69
427.50	438.48
427.87	448.29
428.24	457.74
428.61	465.93
428.99	477.07
429.36	487.69
429.73	499.45
430.10	511.33
430.47	522.88
430.85	533.45
431.22	546.29
431.59	561.64
431.96	574.19
432.33	588.62
432.70	602.40
433.08	618.48
433.45	633.02
433.82	648.55
434.19	665.57
434.56	681.90
434.93	697.24
435.30	713.02
435.68	730.40
436.05	747.81
436.42	764.98
436.79	780.36
437.16	797.26
437.53	814.69
437.90	832.31
438.27	849.71
438.64	867.93
439.01	884.64
439.38	897.83
439.75	913.26
440.13	929.36
440.50	944.57
440.87	957.07
441.24	970.98
441.61	986.00
441.98	997.24
442.35	1009.33
442.72	1022.64
443.09	1035.40
443.46	1043.12
443.83	1048.95
444.20	1053.33
444.57	1059.64
444.94	1062.29
445.31	1065.69
445.68	1071.02
446.05	1072.81
446.42	1071.10
446.79	1070.79
447.16	1069.05
447.53	1067.14
447.90	1061.19
448.27	1054.93
448.64	1046.55
449.01	1041.10
449.37	1029.50
449.74	1017.98
450.11	1006.74
450.48	992.29
450.85	977.02
451.22	964.19
451.59	951.60
451.96	940.12
452.33	925.05
452.70	910.79
453.07	894.05
453.43	874.71
453.80	858.17
454.17	843.17
454.54	827.07
454.91	811.21
455.28	795.40
455.65	780.69
456.02	769.57
456.38	757.19
456.75	741.00
457.12	727.71
457.49	715.67
457.86	701.21
458.23	690.64
458.59	678.76
458.96	667.02
459.33	656.86
459.70	646.86
460.07	638.40
460.43	629.02
460.80	619.76
461.17	612.67
461.54	604.83
461.91	596.50
462.27	588.69
462.64	581.71
463.01	574.31
463.38	567.33
463.74	556.57
464.11	549.57
464.48	544.17
464.85	537.90
465.21	533.14
465.58	527.98
465.95	521.76
466.32	516.79
466.68	511.98
467.05	507.10
467.42	501.93
467.78	496.38
468.15	491.55
468.52	488.36
468.88	482.50
469.25	477.60
469.62	474.62
469.98	470.52
470.35	466.90
470.72	463.33
471.08	458.81
471.45	455.52
471.82	453.02
472.18	449.40
472.55	447.21
472.92	443.86
473.28	441.21
473.65	438.10
474.02	435.50
474.38	433.40
474.75	431.02
475.11	428.67
475.48	427.40
475.85	425.88
476.21	423.55
476.58	422.52
476.94	421.64
477.31	420.10
477.67	418.69
478.04	417.38
478.41	416.74
478.77	417.79
479.14	416.81
479.50	415.74
479.87	415.45
480.23	414.95
480.60	414.05
480.96	414.07
481.33	414.86
481.69	415.14
482.06	415.10
482.42	415.40
482.79	416.05
483.15	415.62
483.52	416.43
483.88	417.55
484.25	418.00
484.61	418.33
484.98	418.55
485.34	420.17
485.71	421.79
486.07	422.93
486.44	422.93
486.80	424.69
487.17	426.69
487.53	428.83
487.90	430.79
488.26	434.02
488.62	436.52
488.99	438.38
489.35	440.57
489.72	443.21
490.08	445.90
490.44	448.57
490.81	451.83
491.17	454.79
491.54	457.98
491.90	461.81
492.26	465.62
492.63	469.64
492.99	473.31
493.36	477.69
493.72	482.26
494.08	486.50
494.45	491.36
494.81	496.19
495.17	500.83
495.54	506.26
495.90	511.02
496.26	515.86
496.63	521.74
496.99	527.33
497.35	532.95
497.72	539.21
498.08	544.90
498.44	551.02
498.80	557.33
499.17	564.00
499.53	570.17
499.89	577.31
500.26	584.19
500.62	590.86
500.98	597.83
501.34	604.71
501.71	612.55
502.07	619.60
502.43	626.43
502.79	633.00
503.16	640.40
503.52	647.60
503.88	654.88
504.24	661.74
504.60	669.60
504.97	677.26
505.33	684.48
505.69	693.02
506.05	700.88
506.41	708.31
506.78	715.36
507.14	722.74
507.50	729.74
507.86	737.64
508.22	745.57
508.59	752.43
508.95	760.19
509.31	768.21
509.67	775.81
510.03	783.45
510.39	791.62
510.75	798.69
511.12	806.50
511.48	814.60
511.84	822.55
512.20	829.90
512.56	837.67
512.92	845.05
513.28	852.48
513.64	859.69
514.00	867.19
514.37	874.52
514.73	882.02
515.09	890.00
515.45	896.40
515.81	902.95
516.17	909.88
516.53	916.33
516.89	922.24
517.25	928.95
517.61	935.93
517.97	941.98
518.33	948.67
518.69	954.40
519.05	960.36
519.41	966.81
519.77	974.17
520.13	979.83
520.49	985.31
520.85	991.00
521.21	997.62
521.57	1003.79
521.93	1009.00
522.29	1014.83
522.65	1019.43
523.01	1025.43
523.37	1030.26
523.73	1035.71
524.09	1041.43
524.45	1045.86
524.81	1050.45
525.17	1055.55
525.53	1059.64
525.89	1063.40
526.25	1067.93
526.61	1072.00
526.97	1075.81
527.33	1079.52
527.68	1085.69
528.04	1089.98
528.40	1094.02
528.76	1097.48
529.12	1101.48
529.48	1106.36
529.84	1109.79
530.20	1115.07
530.56	1119.36
530.91	1124.48
531.27	1128.02
531.63	1131.76
531.99	1135.67
532.35	1140.19
532.71	1143.33
533.07	1148.67
533.42	1155.64
533.78	1160.26
534.14	1164.81
534.50	1169.19
534.86	1172.95
535.21	1175.29
535.57	1180.50
535.93	1184.12
536.29	1189.74
536.65	1193.24
537.00	1196.57
537.36	1200.83
537.72	1203.69
538.08	1206.74
538.44	1209.52
538.79	1213.69
539.15	1216.81
539.51	1220.83
539.87	1223.38
540.22	1227.33
540.58	1230.31
540.94	1231.52
541.29	1235.14
541.65	1237.19
542.01	1239.98
542.37	1242.40
542.72	1243.88
543.08	1244.76
543.44	1247.62
543.79	1248.00
544.15	1251.55
544.51	1254.62
544.87	1257.10
545.22	1260.21
545.58	1263.12
545.94	1266.19
546.29	1269.00
546.65	1272.29
547.01	1274.67
547.36	1278.00
547.72	1279.90
548.07	1283.17
548.43	1285.62
548.79	1287.67
549.14	1290.74
549.50	1293.86
549.86	1296.60
550.21	1300.60
550.57	1304.69
550.92	1306.79
551.28	1310.10
551.64	1312.29
551.99	1315.05
552.35	1317.76
552.70	1320.10
553.06	1323.14
553.41	1325.57
553.77	1329.60
554.13	1332.38
554.48	1337.14
554.84	1341.21
555.19	1345.36
555.55	1349.26
555.90	1352.21
556.26	1355.74
556.61	1359.26
556.97	1361.81
557.32	1365.48
557.68	1369.29
558.03	1372.57
558.39	1377.21
558.74	1381.71
559.10	1385.12
559.45	1389.76
559.81	1394.69
560.16	1398.79
560.52	1403.02
560.87	1408.79
561.23	1411.33
561.58	1417.86
561.94	1419.90
562.29	1423.24
562.64	1427.69
563.00	1431.33
563.35	1436.79
563.71	1441.79
564.06	1447.40
564.42	1453.81
564.77	1459.76
565.12	1465.26
565.48	1473.24
565.83	1479.57
566.19	1485.36
566.54	1491.50
566.89	1496.31
567.25	1502.57
567.60	1510.45
567.96	1518.05
568.31	1524.55
568.66	1532.29
569.02	1536.21
569.37	1542.67
569.72	1549.21
570.08	1554.57
570.43	1560.10
570.78	1565.48
571.14	1570.79
571.49	1576.19
571.84	1581.52
572.20	1586.00
572.55	1590.98
572.90	1593.38
573.26	1597.26
573.61	1601.33
573.96	1606.29
574.31	1611.38
574.67	1615.00
575.02	1616.93
575.37	1619.69
575.72	1622.90
576.08	1625.71
576.43	1629.36
576.78	1633.43
577.13	1636.98
577.49	1640.26
577.84	1644.69
578.19	1648.60
578.54	1653.00
578.90	1657.38
579.25	1659.88
579.60	1663.07
579.95	1665.45
580.30	1669.29
580.66	1672.90
581.01	1676.79
581.36	1679.86
581.71	1682.48
582.06	1687.10
582.42	1691.45
582.77	1694.17
583.12	1696.38
583.47	1699.40
583.82	1703.07
584.17	1706.14
584.53	1710.14
584.88	1713.50
585.23	1716.07
585.58	1718.57
585.93	1720.05
586.28	1721.86
586.63	1725.24
586.98	1728.12
587.34	1732.88
587.69	1735.57
588.04	1737.62
588.39	1740.07
588.74	1740.98
589.09	1743.69
589.44	1743.86
589.79	1745.31
590.14	1748.24
590.49	1749.88
590.84	1751.33
591.19	1753.36
591.54	1754.90
591.89	1754.31
592.25	1757.98
592.60	1758.90
592.95	1760.38
593.30	1762.29
593.65	1764.45
594.00	1765.12
594.35	1772.74
594.70	1771.95
595.05	1773.57
595.40	1775.33
595.75	1775.33
596.10	1777.95
596.45	1778.81
596.80	1780.62
597.15	1780.81
597.50	1780.07
597.85	1781.93
598.19	1782.55
598.54	1782.33
598.89	1782.90
599.24	1785.00
599.59	1783.02
599.94	1783.64
600.29	1783.74
600.64	1784.45
600.99	1783.95
601.34	1785.83
601.69	1779.64
602.04	1780.02
602.39	1778.14
602.74	1778.24
603.08	1778.19
603.43	1778.02
603.78	1777.21
604.13	1775.74
604.48	1776.19
604.83	1776.90
605.18	1776.05
605.53	1775.57
605.87	1774.45
606.22	1773.19
606.57	1771.45
606.92	1770.83
607.27	1770.07
607.62	1770.24
607.96	1769.62
608.31	1769.10
608.66	1766.83
609.01	1764.79
609.36	1763.64
609.70	1762.64
610.05	1759.60
610.40	1758.05
610.75	1754.98
611.10	1753.14
611.44	1750.90
611.79	1748.38
612.14	1745.62
612.49	1742.05
612.83	1739.33
613.18	1736.62
613.53	1734.10
613.88	1731.24
614.22	1727.71
614.57	1723.02
614.92	1717.90
615.27	1714.48
615.61	1709.95
615.96	1705.98
616.31	1703.02
616.65	1700.60
617.00	1697.69
617.35	1695.55
617.70	1692.38
618.04	1689.45
618.39	1685.98
618.74	1682.31
619.08	1678.31
619.43	1674.43
619.78	1671.79
620.12	1669.31
620.47	1666.10
620.82	1661.88
621.16	1657.43
621.51	1654.50
621.85	1651.21
622.20	1648.24
622.55	1643.50
622.89	1640.31
623.24	1637.02
623.59	1632.45
623.93	1628.07
624.28	1624.76
624.62	1621.79
624.97	1618.67
625.32	1614.64
625.66	1611.33
626.01	1608.02
626.35	1605.07
626.70	1601.12
627.04	1597.93
627.39	1592.62
627.73	1588.81
628.08	1585.81
628.43	1582.93
628.77	1578.90
629.12	1576.00
629.46	1572.29
629.81	1568.33
630.15	1563.95
630.50	1559.19
630.84	1555.64
631.19	1549.88
631.53	1544.81
631.88	1538.31
632.22	1531.79
632.57	1527.71
632.91	1522.21
633.26	1517.52
633.60	1512.21
633.95	1507.71
634.29	1501.79
634.64	1498.29
634.98	1493.50
635.32	1489.62
635.67	1485.05
636.01	1480.98
636.36	1475.60
636.70	1471.67
637.05	1467.21
637.39	1462.33
637.73	1459.05
638.08	1454.57
638.42	1451.14
638.77	1446.88
639.11	1442.67
639.45	1438.76
639.80	1433.86
640.14	1429.33
640.49	1424.67
640.83	1419.40
641.17	1414.93
641.52	1409.55
641.86	1403.95
642.20	1400.29
642.55	1394.12
642.89	1388.02
643.23	1382.17
643.58	1377.38
643.92	1370.12
644.26	1364.45
644.61	1359.29
644.95	1352.69
645.29	1346.71
645.64	1341.14
645.98	1335.05
646.32	1330.07
646.66	1323.64
647.01	1317.48
647.35	1311.45
647.69	1305.19
648.04	1299.62
648.38	1293.83
648.72	1288.07
649.06	1282.02
649.41	1274.19
649.75	1268.14
650.09	1262.24
650.43	1256.14
650.78	1249.69
651.12	1244.00
651.46	1238.02
651.80	1231.67
652.14	1225.45
652.49	1220.29
652.83	1213.71
653.17	1206.79
653.51	1200.07
653.85	1194.81
654.20	1189.33
654.54	1182.40
654.88	1176.17
655.22	1171.07
655.56	1164.45
655.90	1158.43
656.25	1152.62
656.59	1146.86
656.93	1141.07
657.27	1136.40
657.61	1130.05
657.95	1124.26
658.29	1119.12
658.64	1114.05
658.98	1108.33
659.32	1101.93
659.66	1095.31
660.00	1089.14
660.34	1083.33
660.68	1077.02
661.02	1069.93
661.36	1063.17
661.70	1057.86
662.05	1052.26
662.39	1044.93
662.73	1038.93
663.07	1033.93
663.41	1027.69
663.75	1021.17
664.09	1015.07
664.43	1008.26
664.77	1002.71
665.11	996.50
665.45	989.95
665.79	982.55
666.13	975.79
666.47	969.95
666.81	964.14
667.15	958.40
667.49	952.90
667.83	947.88
668.17	943.31
668.51	937.74
668.85	932.67
669.19	928.31
669.53	922.62
669.87	916.33
670.21	910.33
670.55	904.60
670.89	900.45
671.23	894.98
671.57	888.95
671.91	883.17
672.25	878.02
672.58	873.40
672.92	867.83
673.26	863.10
673.60	858.29
673.94	852.98
674.28	848.12
674.62	843.69
674.96	837.88
675.30	832.31
675.64	827.36
675.97	822.00
676.31	815.71
676.65	810.64
676.99	806.64
677.33	801.24
677.67	796.88
678.01	790.40
678.34	785.50
678.68	781.45
679.02	776.24
679.36	770.81
679.70	765.19
680.04	760.62
680.37	755.36
680.71	749.83
681.05	744.86
681.39	739.38
681.73	733.93
682.06	728.95
682.40	724.14
682.74	719.26
683.08	715.45
683.42	710.31
683.75	705.79
684.09	700.36
684.43	695.64
684.77	690.10
685.10	686.24
685.44	681.57
685.78	676.69
686.12	672.19
686.45	667.74
686.79	663.00
687.13	658.83
687.46	654.76
687.80	650.88
688.14	646.50
688.48	642.79
688.81	638.36
689.15	634.55
689.49	629.98
689.82	625.83
690.16	620.43
690.50	615.88
690.83	611.48
691.17	606.74
691.51	602.83
691.84	599.10
692.18	594.69
692.52	590.48
692.85	586.71
693.19	583.71
693.52	579.88
693.86	576.17
694.20	572.14
694.53	567.79
694.87	563.52
695.21	558.95
695.54	554.48
695.88	550.00
696.21	545.24
696.55	541.38
696.88	537.24
697.22	533.43
697.56	530.31
697.89	526.50
698.23	523.71
698.56	519.52
698.90	515.90
699.23	512.12
699.57	508.62
699.90	504.64
700.24	500.24
700.58	496.62
700.91	493.31
701.25	491.69
701.58	489.33
701.92	486.83
702.25	484.29
702.59	481.26
702.92	479.00
703.26	476.19
703.59	473.40
703.93	472.10
704.26	469.14
704.60	466.12
704.93	463.36
705.26	459.90
705.60	457.67
705.93	454.40
706.27	452.45
706.60	450.12
706.94	447.98
707.27	445.07
707.61	442.55
707.94	439.69
708.27	435.14
708.61	431.67
708.94	428.74
709.28	426.29
709.61	423.71
709.94	421.10
710.28	418.36
710.61	415.95
710.95	411.93
711.28	411.10
711.61	408.74
711.95	406.60
712.28	404.14
712.61	401.43
712.95	400.33
713.28	398.45
713.61	395.62
713.95	392.60
714.28	390.60
714.61	388.05
714.95	385.79
715.28	383.50
715.61	381.12
715.95	379.05
716.28	376.69
716.61	374.88
716.95	372.62
717.28	370.86
717.61	368.74
717.94	366.86
718.28	363.43
718.61	361.21
718.94	359.19
719.27	357.71
719.61	356.17
719.94	353.62
720.27	350.90
720.60	348.95
720.94	347.31
721.27	345.86
721.60	344.74
721.93	343.05
722.27	342.26
722.60	341.19
722.93	339.31
723.26	337.95
723.59	335.71
723.93	334.17
724.26	332.81
724.59	331.00
724.92	329.86
725.25	329.05
725.59	327.90
725.92	326.93
726.25	325.26
726.58	324.19
726.91	323.31
727.24	322.24
727.57	321.17
727.91	319.55
728.24	318.31
728.57	317.07
728.90	316.31
729.23	314.40
729.56	314.12
729.89	312.93
730.22	311.69
730.55	310.81
730.89	309.76
731.22	308.50
731.55	307.64
731.88	306.50
732.21	305.02
732.54	303.93
732.87	302.52
733.20	301.83
733.53	300.55
733.86	299.33
734.19	298.07
734.52	297.33
734.85	298.02
735.18	296.93
735.51	296.38
735.84	295.43
736.17	295.26
736.50	293.21
736.83	294.43
737.16	293.52
737.49	293.00
737.82	292.26
738.15	291.93
738.48	291.02
738.81	289.93
739.14	288.93
739.47	287.69
739.80	287.10
740.13	286.17
740.46	285.19
740.79	284.00
741.12	283.17
741.45	282.17
741.78	279.98
742.11	279.50
742.44	278.19
742.77	277.76
743.10	276.31
743.43	275.57
743.75	272.83
744.08	274.69
744.41	273.50
744.74	272.50
745.07	271.29
745.40	270.76
745.73	270.98
746.06	270.10
746.39	269.88
746.71	268.83
747.04	267.88
747.37	267.21
747.70	266.79
748.03	266.31
748.36	266.05
748.68	265.45
749.01	264.45
749.34	263.95
749.67	263.31
750.00	263.36
750.33	264.17
750.65	263.95
750.98	261.00
751.31	260.57
751.64	260.19
751.97	260.88
752.29	260.38
752.62	258.81
752.95	258.43
753.28	257.60
753.60	256.86
753.93	257.19
754.26	256.83
754.59	255.83
754.91	255.21
755.24	254.71
755.57	254.40
755.90	253.98
756.22	253.52
756.55	252.81
756.88	251.60
757.20	249.76
757.53	248.60
757.86	248.02
758.19	247.67
758.51	246.98
758.84	245.50
759.17	244.88
759.49	244.57
759.82	244.90
760.15	244.74
760.47	244.40
760.80	243.21
761.13	243.12
761.45	242.64
761.78	242.24
762.11	241.64
762.43	241.10
762.76	240.50
763.08	240.14
763.41	239.86
763.74	239.71
764.06	239.48
764.39	239.33
764.71	238.98
765.04	238.57
765.37	238.21
765.69	237.76
766.02	237.64
766.34	237.02
766.67	236.00
767.00	236.10
767.32	237.24
767.65	238.21
767.97	237.69
768.30	237.67
768.62	237.38
768.95	236.93
769.27	236.50
769.60	236.52
769.92	235.93
770.25	235.10
770.57	234.48
770.90	234.07
771.22	233.45
771.55	233.19
771.87	232.95
772.20	232.76
772.52	234.02
772.85	236.07
773.17	236.05
773.50	235.79
773.82	235.24
774.15	233.86
774.47	232.50
774.80	232.14
775.12	231.79
775.45	231.57
775.77	231.48
776.09	231.67
776.42	231.43
776.74	232.02
777.07	232.10
777.39	232.07
777.72	231.88
778.04	231.98
778.36	231.55
778.69	231.21
779.01	231.38
779.33	229.69
779.66	227.14
779.98	226.86
780.31	226.62
780.63	227.38
780.95	227.33
781.28	227.17
781.60	226.98
781.92	226.90
782.25	226.69
782.57	226.45
782.89	226.14
783.22	225.83
783.54	225.07
783.86	225.05
784.19	224.76
784.51	225.43
784.83	225.02
785.16	225.05
