SpectraSuite Data File
++++++++++++++++++++++++++++++++++++
Date: Tue Apr 02 18:44:22 EDT 2013
User: group
Dark Spectrum Present: No
Reference Spectrum Present: No
Number of Sampled Component Spectra: 1
Spectrometers: USB2E7196
Integration Time (usec): 580000 (USB2E7196)
Spectra Averaged: 2 (USB2E7196)
Boxcar Smoothing: 10 (USB2E7196)
Correct for Electrical Dark: No (USB2E7196)
Strobe/Lamp Enabled: No (USB2E7196)
Correct for Detector Non-linearity: No (USB2E7196)
Correct for Stray Light: No (USB2E7196)
Number of Pixels in Processed Spectrum: 2048
>>>>>Begin Processed Spectral Data<<<<<
339.09	0.00
339.48	191.50
339.86	192.50
340.24	192.50
340.63	195.50
341.01	228.50
341.39	197.00
341.78	204.50
342.16	209.00
342.54	204.00
342.93	196.31
343.31	206.07
343.69	206.55
344.07	206.98
344.46	207.95
344.84	208.50
345.22	207.21
345.60	207.93
345.99	208.21
346.37	208.10
346.75	208.43
347.13	208.86
347.52	209.02
347.90	209.71
348.28	209.79
348.66	210.31
349.05	209.79
349.43	210.17
349.81	210.45
350.19	210.60
350.57	210.60
350.96	210.67
351.34	210.83
351.72	211.24
352.10	211.64
352.48	211.43
352.87	211.57
353.25	212.02
353.63	211.83
354.01	211.81
354.39	212.19
354.77	212.07
355.15	212.64
355.54	212.57
355.92	212.10
356.30	212.31
356.68	213.50
357.06	213.76
357.44	213.40
357.82	213.26
358.20	214.33
358.58	214.55
358.97	214.67
359.35	215.50
359.73	215.81
360.11	215.71
360.49	215.93
360.87	216.05
361.25	216.38
361.63	217.29
362.01	217.45
362.39	217.38
362.77	217.55
363.15	217.21
363.53	217.26
363.91	217.38
364.29	217.12
364.67	215.29
365.05	215.31
365.43	215.88
365.81	216.21
366.19	216.36
366.57	217.05
366.95	217.10
367.33	216.55
367.71	216.52
368.09	216.88
368.47	216.76
368.85	216.50
369.23	216.79
369.61	215.93
369.99	216.64
370.37	216.98
370.75	218.40
371.13	218.02
371.51	217.93
371.89	218.07
372.27	218.43
372.65	218.55
373.03	218.74
373.41	218.48
373.78	218.33
374.16	217.38
374.54	216.79
374.92	216.29
375.30	216.17
375.68	215.86
376.06	215.98
376.44	215.79
376.82	216.21
377.19	216.02
377.57	216.00
377.95	215.24
378.33	215.10
378.71	213.36
379.09	213.62
379.47	213.95
379.84	213.79
380.22	213.43
380.60	213.26
380.98	212.93
381.36	212.81
381.73	212.43
382.11	212.67
382.49	212.71
382.87	212.71
383.25	212.60
383.62	214.88
384.00	214.48
384.38	214.79
384.76	215.21
385.13	216.21
385.51	216.38
385.89	216.14
386.27	216.10
386.64	216.74
387.02	216.52
387.40	216.38
387.78	216.36
388.15	216.64
388.53	216.31
388.91	216.31
389.29	216.26
389.66	216.57
390.04	216.14
390.42	216.50
390.79	216.74
391.17	217.05
391.55	214.90
391.92	215.17
392.30	215.31
392.68	214.81
393.05	214.43
393.43	214.31
393.81	214.55
394.18	214.36
394.56	214.29
394.94	214.79
395.31	214.67
395.69	215.45
396.06	215.62
396.44	215.95
396.82	215.81
397.19	217.02
397.57	216.98
397.95	217.50
398.32	216.93
398.70	216.93
399.07	217.36
399.45	217.36
399.82	217.33
400.20	217.07
400.58	216.86
400.95	216.24
401.33	216.79
401.70	218.33
402.08	218.40
402.45	218.43
402.83	219.07
403.20	219.43
403.58	218.95
403.95	219.26
404.33	219.76
404.71	220.26
405.08	221.36
405.46	221.67
405.83	221.95
406.21	222.55
406.58	223.14
406.96	223.14
407.33	223.88
407.70	224.64
408.08	227.00
408.45	228.00
408.83	228.86
409.20	229.10
409.58	228.40
409.95	229.43
410.33	230.29
410.70	230.38
411.08	231.74
411.45	233.05
411.82	233.88
412.20	235.38
412.57	237.60
412.95	237.43
413.32	239.19
413.69	240.57
414.07	242.17
414.44	243.90
414.82	245.95
415.19	248.24
415.56	250.26
415.94	251.10
416.31	253.93
416.68	256.83
417.06	260.38
417.43	263.88
417.81	267.26
418.18	271.02
418.55	274.83
418.93	278.62
419.30	282.67
419.67	287.19
420.04	291.52
420.42	295.79
420.79	302.62
421.16	308.17
421.54	315.17
421.91	321.05
422.28	326.90
422.66	333.48
423.03	341.64
423.40	348.67
423.77	356.45
424.15	363.38
424.52	370.86
424.89	379.24
425.26	387.45
425.64	395.10
426.01	403.14
426.38	412.02
426.75	421.14
427.13	430.38
427.50	439.67
427.87	450.10
428.24	460.26
428.61	468.57
428.99	479.43
429.36	489.83
429.73	501.21
430.10	513.17
430.47	525.07
430.85	535.10
431.22	547.36
431.59	561.88
431.96	574.90
432.33	589.05
432.70	602.40
433.08	618.40
433.45	633.48
433.82	648.52
434.19	665.36
434.56	681.55
434.93	696.88
435.30	713.07
435.68	730.31
436.05	747.29
436.42	764.40
436.79	780.29
437.16	797.57
437.53	815.48
437.90	832.98
438.27	849.81
438.64	868.55
439.01	886.19
439.38	899.07
439.75	914.05
440.13	930.50
440.50	946.10
440.87	958.95
441.24	972.67
441.61	987.71
441.98	998.19
442.35	1010.19
442.72	1024.19
443.09	1037.50
443.46	1044.79
443.83	1050.29
444.20	1054.48
444.57	1060.48
444.94	1063.55
445.31	1067.81
445.68	1073.50
446.05	1075.33
446.42	1073.50
446.79	1072.00
447.16	1070.83
447.53	1069.71
447.90	1063.45
448.27	1057.26
448.64	1048.36
449.01	1042.33
449.37	1031.21
449.74	1020.83
450.11	1009.90
450.48	994.26
450.85	978.36
451.22	965.90
451.59	953.81
451.96	942.60
452.33	927.74
452.70	913.57
453.07	896.21
453.43	877.17
453.80	861.00
454.17	845.10
454.54	829.07
454.91	812.95
455.28	796.36
455.65	781.55
456.02	770.31
456.38	757.83
456.75	742.38
457.12	728.90
457.49	716.10
457.86	702.17
458.23	692.45
458.59	680.83
458.96	668.90
459.33	658.19
459.70	647.88
460.07	639.12
460.43	629.40
460.80	620.31
461.17	612.60
461.54	604.14
461.91	596.26
462.27	587.86
462.64	581.00
463.01	573.45
463.38	567.12
463.74	556.29
464.11	549.45
464.48	543.12
464.85	536.81
465.21	532.31
465.58	527.29
465.95	520.67
466.32	515.69
466.68	510.60
467.05	505.43
467.42	500.64
467.78	495.29
468.15	490.43
468.52	486.98
468.88	480.98
469.25	476.45
469.62	473.26
469.98	470.12
470.35	466.26
470.72	462.79
471.08	457.90
471.45	455.24
471.82	452.55
472.18	449.14
472.55	446.45
472.92	442.76
473.28	439.90
473.65	437.57
474.02	434.60
474.38	432.48
474.75	430.62
475.11	428.00
475.48	426.12
475.85	424.45
476.21	422.05
476.58	421.29
476.94	420.05
477.31	418.24
477.67	416.98
478.04	416.07
478.41	416.12
478.77	417.50
479.14	416.21
479.50	415.48
479.87	415.24
480.23	415.14
480.60	414.76
480.96	414.50
481.33	414.98
481.69	415.55
482.06	415.86
482.42	416.33
482.79	416.83
483.15	417.43
483.52	418.40
483.88	419.31
484.25	419.74
484.61	420.55
484.98	421.50
485.34	422.95
485.71	424.50
486.07	425.19
486.44	424.93
486.80	426.50
487.17	427.67
487.53	430.07
487.90	432.26
488.26	434.95
488.62	437.71
488.99	439.26
489.35	442.07
489.72	444.60
490.08	447.07
490.44	449.38
490.81	452.55
491.17	455.31
491.54	458.48
491.90	462.21
492.26	465.95
492.63	469.86
492.99	473.55
493.36	477.62
493.72	482.17
494.08	486.67
494.45	491.67
494.81	496.98
495.17	501.26
495.54	506.50
495.90	511.36
496.26	516.38
496.63	522.07
496.99	526.95
497.35	532.81
497.72	538.52
498.08	544.74
498.44	550.81
498.80	556.98
499.17	563.45
499.53	569.81
499.89	576.55
500.26	583.31
500.62	590.10
500.98	597.14
501.34	604.24
501.71	611.76
502.07	618.71
502.43	625.71
502.79	632.69
503.16	639.93
503.52	647.21
503.88	654.19
504.24	661.36
504.60	668.71
504.97	676.26
505.33	683.98
505.69	692.98
506.05	700.38
506.41	708.26
506.78	715.93
507.14	722.76
507.50	730.62
507.86	738.19
508.22	745.88
508.59	753.17
508.95	760.98
509.31	769.07
509.67	776.88
510.03	784.52
510.39	792.57
510.75	800.02
511.12	807.24
511.48	815.14
511.84	822.90
512.20	830.86
512.56	838.57
512.92	845.71
513.28	852.62
513.64	860.43
514.00	868.29
514.37	875.40
514.73	883.52
515.09	890.88
515.45	898.05
515.81	904.50
516.17	911.57
516.53	917.52
516.89	923.43
517.25	929.95
517.61	936.71
517.97	943.48
518.33	950.17
518.69	957.38
519.05	963.48
519.41	969.95
519.77	976.52
520.13	982.17
520.49	989.21
520.85	994.43
521.21	1001.12
521.57	1006.55
521.93	1011.74
522.29	1017.17
522.65	1022.36
523.01	1027.86
523.37	1034.00
523.73	1038.67
524.09	1044.40
524.45	1049.21
524.81	1053.88
525.17	1058.93
525.53	1063.24
525.89	1067.71
526.25	1072.83
526.61	1076.98
526.97	1081.24
527.33	1085.50
527.68	1091.36
528.04	1094.95
528.40	1099.52
528.76	1102.74
529.12	1107.19
529.48	1111.95
529.84	1116.36
530.20	1120.64
530.56	1124.81
530.91	1129.12
531.27	1134.02
531.63	1137.83
531.99	1141.76
532.35	1145.62
532.71	1149.36
533.07	1153.62
533.42	1160.38
533.78	1164.10
534.14	1168.55
534.50	1171.93
534.86	1175.88
535.21	1179.05
535.57	1182.93
535.93	1185.38
536.29	1190.17
536.65	1193.31
537.00	1197.19
537.36	1200.45
537.72	1203.36
538.08	1207.17
538.44	1209.60
538.79	1212.67
539.15	1215.95
539.51	1219.31
539.87	1223.12
540.22	1226.62
540.58	1230.31
540.94	1230.98
541.29	1233.52
541.65	1236.12
542.01	1239.71
542.37	1242.43
542.72	1243.69
543.08	1245.71
543.44	1249.55
543.79	1250.55
544.15	1253.74
544.51	1256.83
544.87	1259.43
545.22	1262.83
545.58	1266.05
545.94	1269.29
546.29	1272.14
546.65	1274.98
547.01	1277.50
547.36	1280.17
547.72	1282.83
548.07	1284.55
548.43	1286.62
548.79	1288.64
549.14	1290.64
549.50	1294.21
549.86	1296.10
550.21	1298.98
550.57	1302.76
550.92	1305.26
551.28	1309.10
551.64	1311.55
551.99	1313.52
552.35	1316.52
552.70	1318.67
553.06	1321.52
553.41	1324.67
553.77	1329.14
554.13	1332.93
554.48	1337.29
554.84	1341.62
555.19	1344.71
555.55	1350.14
555.90	1354.02
556.26	1358.26
556.61	1362.62
556.97	1364.69
557.32	1368.93
557.68	1373.19
558.03	1376.69
558.39	1380.98
558.74	1384.95
559.10	1388.90
559.45	1393.36
559.81	1397.98
560.16	1402.48
560.52	1406.21
560.87	1411.24
561.23	1414.10
561.58	1419.55
561.94	1423.50
562.29	1427.00
562.64	1431.07
563.00	1434.57
563.35	1439.05
563.71	1444.79
564.06	1450.38
564.42	1456.67
564.77	1463.21
565.12	1469.86
565.48	1477.26
565.83	1483.69
566.19	1488.36
566.54	1494.00
566.89	1499.24
567.25	1505.07
567.60	1511.67
567.96	1519.52
568.31	1526.00
568.66	1532.45
569.02	1537.52
569.37	1542.19
569.72	1547.93
570.08	1554.05
570.43	1559.76
570.78	1566.67
571.14	1571.74
571.49	1576.64
571.84	1581.55
572.20	1585.38
572.55	1589.19
572.90	1592.10
573.26	1596.02
573.61	1601.71
573.96	1607.12
574.31	1612.38
574.67	1616.48
575.02	1620.24
575.37	1622.00
575.72	1624.14
576.08	1628.00
576.43	1631.24
576.78	1635.60
577.13	1639.31
577.49	1642.71
577.84	1646.33
578.19	1649.43
578.54	1652.48
578.90	1657.29
579.25	1660.74
579.60	1663.38
579.95	1666.17
580.30	1669.67
580.66	1673.93
581.01	1676.67
581.36	1679.12
581.71	1681.67
582.06	1685.64
582.42	1689.90
582.77	1692.93
583.12	1696.45
583.47	1699.43
583.82	1702.45
584.17	1706.31
584.53	1710.29
584.88	1714.00
585.23	1716.83
585.58	1718.60
585.93	1721.10
586.28	1723.05
586.63	1725.86
586.98	1729.52
587.34	1733.90
587.69	1735.88
588.04	1737.45
588.39	1740.69
588.74	1742.19
589.09	1744.29
589.44	1744.33
589.79	1745.55
590.14	1747.83
590.49	1749.76
590.84	1750.83
591.19	1752.26
591.54	1753.38
591.89	1754.60
592.25	1757.64
592.60	1758.60
592.95	1760.55
593.30	1762.69
593.65	1763.67
594.00	1763.62
594.35	1771.38
594.70	1771.12
595.05	1773.17
595.40	1774.62
595.75	1773.81
596.10	1776.12
596.45	1778.24
596.80	1780.14
597.15	1780.93
597.50	1781.52
597.85	1783.05
598.19	1783.19
598.54	1784.31
598.89	1784.48
599.24	1785.12
599.59	1783.79
599.94	1784.62
600.29	1785.67
600.64	1785.57
600.99	1785.33
601.34	1786.67
601.69	1779.64
602.04	1779.12
602.39	1778.17
602.74	1777.74
603.08	1778.67
603.43	1778.43
603.78	1776.57
604.13	1776.57
604.48	1775.45
604.83	1774.50
605.18	1772.88
605.53	1772.52
605.87	1770.90
606.22	1769.76
606.57	1767.38
606.92	1765.60
607.27	1764.86
607.62	1763.17
607.96	1761.74
608.31	1761.33
608.66	1760.57
609.01	1759.29
609.36	1758.74
609.70	1758.33
610.05	1755.95
610.40	1754.19
610.75	1751.76
611.10	1750.52
611.44	1748.67
611.79	1745.98
612.14	1743.26
612.49	1740.83
612.83	1738.83
613.18	1736.79
613.53	1734.60
613.88	1732.14
614.22	1729.83
614.57	1725.86
614.92	1722.38
615.27	1719.64
615.61	1715.55
615.96	1711.33
616.31	1708.79
616.65	1705.98
617.00	1701.93
617.35	1699.05
617.70	1695.33
618.04	1691.31
618.39	1687.10
618.74	1682.62
619.08	1678.86
619.43	1676.64
619.78	1672.98
620.12	1669.07
620.47	1665.43
620.82	1660.74
621.16	1656.50
621.51	1652.88
621.85	1648.55
622.20	1644.33
622.55	1639.45
622.89	1635.26
623.24	1631.93
623.59	1627.31
623.93	1622.45
624.28	1618.74
624.62	1616.33
624.97	1613.81
625.32	1609.88
625.66	1606.45
626.01	1602.76
626.35	1600.12
626.70	1595.24
627.04	1591.79
627.39	1588.19
627.73	1584.86
628.08	1582.21
628.43	1578.71
628.77	1574.60
629.12	1571.74
629.46	1568.79
629.81	1565.69
630.15	1561.36
630.50	1556.69
630.84	1551.81
631.19	1547.12
631.53	1542.60
631.88	1535.71
632.22	1529.24
632.57	1525.76
632.91	1520.64
633.26	1515.79
633.60	1510.64
633.95	1505.95
634.29	1500.38
634.64	1495.64
634.98	1489.67
635.32	1485.95
635.67	1482.67
636.01	1478.43
636.36	1472.52
636.70	1467.93
637.05	1462.88
637.39	1459.17
637.73	1454.69
638.08	1451.83
638.42	1448.40
638.77	1444.12
639.11	1439.69
639.45	1435.31
639.80	1429.38
640.14	1424.55
640.49	1420.21
640.83	1414.57
641.17	1410.26
641.52	1405.17
641.86	1399.93
642.20	1395.57
642.55	1388.50
642.89	1382.05
643.23	1376.57
643.58	1372.12
643.92	1365.64
644.26	1360.12
644.61	1354.52
644.95	1349.21
645.29	1342.43
645.64	1336.02
645.98	1329.07
646.32	1324.45
646.66	1318.67
647.01	1312.50
647.35	1308.17
647.69	1301.74
648.04	1296.55
648.38	1291.00
648.72	1285.57
649.06	1279.43
649.41	1273.48
649.75	1267.12
650.09	1260.67
650.43	1253.95
650.78	1247.07
651.12	1240.57
651.46	1233.45
651.80	1226.79
652.14	1219.95
652.49	1214.33
652.83	1208.40
653.17	1202.29
653.51	1194.38
653.85	1188.31
654.20	1182.50
654.54	1174.02
654.88	1167.19
655.22	1160.95
655.56	1153.76
655.90	1147.00
656.25	1140.81
656.59	1133.79
656.93	1127.83
657.27	1122.40
657.61	1116.40
657.95	1110.57
658.29	1104.69
658.64	1099.76
658.98	1093.69
659.32	1086.83
659.66	1079.93
660.00	1073.45
660.34	1067.55
660.68	1061.62
661.02	1055.02
661.36	1048.43
661.70	1043.07
662.05	1037.29
662.39	1031.50
662.73	1026.07
663.07	1021.43
663.41	1015.62
663.75	1010.02
664.09	1004.74
664.43	998.19
664.77	992.02
665.11	986.17
665.45	980.19
665.79	974.17
666.13	968.21
666.47	963.36
666.81	957.29
667.15	951.24
667.49	945.60
667.83	941.19
668.17	935.71
668.51	930.50
668.85	925.12
669.19	920.83
669.53	914.43
669.87	907.71
670.21	900.76
670.55	894.40
670.89	889.02
671.23	883.26
671.57	877.83
671.91	872.45
672.25	866.95
672.58	861.88
672.92	855.90
673.26	850.52
673.60	844.74
673.94	839.62
674.28	834.26
674.62	829.60
674.96	823.64
675.30	818.40
675.64	813.07
675.97	807.79
676.31	801.45
676.65	796.14
676.99	792.60
677.33	788.36
677.67	783.93
678.01	778.60
678.34	773.38
678.68	769.12
679.02	763.69
679.36	758.98
679.70	753.74
680.04	748.45
680.37	743.26
680.71	738.07
681.05	733.48
681.39	729.10
681.73	723.62
682.06	718.57
682.40	714.36
682.74	709.88
683.08	705.93
683.42	701.29
683.75	697.00
684.09	691.57
684.43	686.19
684.77	681.38
685.10	676.55
685.44	672.14
685.78	666.45
686.12	662.48
686.45	657.64
686.79	653.17
687.13	649.55
687.46	645.48
687.80	641.93
688.14	637.19
688.48	632.86
688.81	628.74
689.15	625.14
689.49	619.93
689.82	615.90
690.16	610.57
690.50	606.33
690.83	602.10
691.17	597.43
691.51	593.26
691.84	589.26
692.18	585.38
692.52	581.02
692.85	577.74
693.19	573.95
693.52	569.90
693.86	565.67
694.20	561.48
694.53	557.83
694.87	553.14
695.21	549.14
695.54	545.14
695.88	540.45
696.21	535.93
696.55	532.33
696.88	528.74
697.22	525.12
697.56	521.62
697.89	517.98
698.23	514.57
698.56	511.02
698.90	507.48
699.23	503.88
699.57	500.88
699.90	497.14
700.24	493.14
700.58	489.90
700.91	487.33
701.25	485.62
701.58	482.95
701.92	480.40
702.25	477.48
702.59	474.07
702.92	471.43
703.26	468.40
703.59	465.60
703.93	463.95
704.26	461.05
704.60	458.21
704.93	455.19
705.26	452.19
705.60	449.64
705.93	446.40
706.27	444.45
706.60	442.14
706.94	440.26
707.27	437.50
707.61	435.24
707.94	432.31
708.27	428.07
708.61	424.67
708.94	421.64
709.28	419.55
709.61	417.05
709.94	414.90
710.28	412.83
710.61	410.36
710.95	405.79
711.28	404.93
711.61	402.48
711.95	400.64
712.28	398.14
712.61	396.02
712.95	395.02
713.28	393.21
713.61	390.50
713.95	387.69
714.28	386.05
714.61	383.79
714.95	381.76
715.28	379.36
715.61	377.21
715.95	375.62
716.28	373.05
716.61	371.36
716.95	369.10
717.28	367.00
717.61	364.81
717.94	363.26
718.28	360.29
718.61	358.48
718.94	356.36
719.27	354.64
719.61	352.74
719.94	350.55
720.27	347.60
720.60	345.88
720.94	344.05
721.27	342.36
721.60	340.79
721.93	338.93
722.27	338.33
722.60	336.81
722.93	334.98
723.26	333.79
723.59	331.76
723.93	330.48
724.26	329.12
724.59	328.07
724.92	326.98
725.25	326.26
725.59	324.86
725.92	323.86
726.25	322.88
726.58	321.67
726.91	320.07
727.24	319.07
727.57	317.71
727.91	316.50
728.24	315.33
728.57	313.71
728.90	312.93
729.23	311.10
729.56	311.02
729.89	309.93
730.22	308.31
730.55	307.43
730.89	306.40
731.22	305.05
731.55	303.95
731.88	302.93
732.21	301.14
732.54	300.12
732.87	299.10
733.20	298.12
733.53	297.31
733.86	296.55
734.19	295.24
734.52	294.67
734.85	295.10
735.18	294.05
735.51	294.10
735.84	293.45
736.17	293.02
736.50	291.24
736.83	292.21
737.16	291.64
737.49	291.14
737.82	290.21
738.15	289.79
738.48	288.62
738.81	287.76
739.14	286.95
739.47	286.10
739.80	284.76
740.13	284.00
740.46	282.48
740.79	281.45
741.12	281.24
741.45	280.02
741.78	278.02
742.11	277.88
742.44	276.45
742.77	275.71
743.10	274.83
743.43	273.62
743.75	271.31
744.08	273.29
744.41	272.21
744.74	271.50
745.07	270.40
745.40	270.31
745.73	270.12
746.06	269.50
746.39	268.88
746.71	268.14
747.04	267.24
747.37	266.69
747.70	266.57
748.03	265.90
748.36	265.67
748.68	264.93
749.01	263.38
749.34	262.79
749.67	262.05
750.00	261.93
750.33	263.38
750.65	263.00
750.98	259.95
751.31	259.60
751.64	259.19
751.97	259.88
752.29	259.10
752.62	257.79
752.95	257.19
753.28	256.48
753.60	256.19
753.93	256.31
754.26	256.31
754.59	255.17
754.91	254.24
755.24	253.24
755.57	252.93
755.90	252.48
756.22	251.81
756.55	251.17
756.88	249.93
757.20	247.98
757.53	246.88
757.86	246.43
758.19	245.88
758.51	245.36
758.84	243.76
759.17	243.17
759.49	242.93
759.82	243.38
760.15	243.36
760.47	242.79
760.80	241.76
761.13	241.55
761.45	240.95
761.78	240.62
762.11	240.57
762.43	239.98
762.76	239.52
763.08	239.52
763.41	239.36
763.74	239.19
764.06	238.86
764.39	238.57
764.71	238.26
765.04	237.98
765.37	237.57
765.69	237.62
766.02	237.24
766.34	236.83
766.67	235.93
767.00	235.69
767.32	236.81
767.65	237.88
767.97	237.29
768.30	237.31
768.62	237.21
768.95	236.69
769.27	236.36
769.60	236.57
769.92	236.14
770.25	235.50
770.57	234.90
770.90	234.64
771.22	234.38
771.55	234.19
771.87	234.12
772.20	233.67
772.52	234.81
772.85	236.98
773.17	236.83
773.50	236.33
773.82	235.86
774.15	234.55
774.47	232.83
774.80	232.64
775.12	232.24
775.45	232.05
775.77	232.10
776.09	232.02
776.42	231.81
776.74	232.21
777.07	231.93
777.39	231.83
777.72	231.60
778.04	231.69
778.36	231.02
778.69	230.67
779.01	230.81
779.33	228.76
779.66	226.24
779.98	225.88
780.31	225.90
780.63	226.48
780.95	226.62
781.28	226.71
781.60	226.40
781.92	226.43
782.25	226.26
782.57	226.17
782.89	225.95
783.22	225.62
783.54	225.14
783.86	225.31
784.19	225.36
784.51	225.88
784.83	225.31
785.16	225.40
