SpectraSuite Data File
++++++++++++++++++++++++++++++++++++
Date: Tue Apr 02 18:43:56 EDT 2013
User: group
Dark Spectrum Present: No
Reference Spectrum Present: No
Number of Sampled Component Spectra: 1
Spectrometers: USB2E7196
Integration Time (usec): 580000 (USB2E7196)
Spectra Averaged: 2 (USB2E7196)
Boxcar Smoothing: 10 (USB2E7196)
Correct for Electrical Dark: No (USB2E7196)
Strobe/Lamp Enabled: No (USB2E7196)
Correct for Detector Non-linearity: No (USB2E7196)
Correct for Stray Light: No (USB2E7196)
Number of Pixels in Processed Spectrum: 2048
>>>>>Begin Processed Spectral Data<<<<<
339.09	0.00
339.48	193.50
339.86	195.00
340.24	192.00
340.63	196.50
341.01	232.00
341.39	198.00
341.78	207.50
342.16	207.50
342.54	207.00
342.93	197.93
343.31	207.71
343.69	208.38
344.07	208.71
344.46	209.79
344.84	210.57
345.22	209.48
345.60	210.10
345.99	210.17
346.37	210.33
346.75	210.36
347.13	210.14
347.52	210.43
347.90	210.86
348.28	210.86
348.66	211.29
349.05	210.90
349.43	210.86
349.81	211.19
350.19	211.10
350.57	210.98
350.96	211.33
351.34	211.69
351.72	211.76
352.10	212.14
352.48	211.76
352.87	211.71
353.25	211.55
353.63	211.45
354.01	211.55
354.39	211.79
354.77	211.95
355.15	212.45
355.54	212.29
355.92	211.67
356.30	211.69
356.68	213.00
357.06	213.00
357.44	212.79
357.82	212.57
358.20	213.57
358.58	213.60
358.97	213.69
359.35	214.17
359.73	214.60
360.11	214.57
360.49	214.83
360.87	214.83
361.25	215.24
361.63	216.05
362.01	216.19
362.39	215.83
362.77	215.98
363.15	215.98
363.53	216.24
363.91	216.45
364.29	216.45
364.67	214.31
365.05	214.52
365.43	214.74
365.81	214.93
366.19	215.07
366.57	215.98
366.95	215.71
367.33	214.93
367.71	214.76
368.09	215.14
368.47	215.26
368.85	215.29
369.23	215.79
369.61	214.86
369.99	215.57
370.37	215.98
370.75	217.19
371.13	217.10
371.51	216.79
371.89	216.81
372.27	216.93
372.65	217.31
373.03	217.24
373.41	217.14
373.78	217.10
374.16	215.93
374.54	215.33
374.92	215.19
375.30	215.29
375.68	215.05
376.06	215.19
376.44	214.98
376.82	215.00
377.19	214.71
377.57	214.76
377.95	213.71
378.33	213.64
378.71	212.31
379.09	212.67
379.47	212.93
379.84	212.98
380.22	212.86
380.60	212.48
380.98	212.60
381.36	212.55
381.73	212.26
382.11	212.90
382.49	212.71
382.87	212.50
383.25	212.79
383.62	215.10
384.00	214.76
384.38	214.90
384.76	215.21
385.13	215.93
385.51	216.12
385.89	216.10
386.27	216.17
386.64	216.38
387.02	216.07
387.40	215.79
387.78	215.95
388.15	216.02
388.53	216.02
388.91	216.05
389.29	215.86
389.66	216.43
390.04	216.00
390.42	216.55
390.79	216.88
391.17	216.62
391.55	214.62
391.92	214.62
392.30	214.69
392.68	214.19
393.05	214.02
393.43	214.02
393.81	214.29
394.18	213.95
394.56	213.88
394.94	214.36
395.31	214.24
395.69	214.62
396.06	214.88
396.44	215.07
396.82	214.83
397.19	215.98
397.57	215.50
397.95	215.95
398.32	215.40
398.70	215.57
399.07	216.21
399.45	216.10
399.82	215.88
400.20	215.83
400.58	215.98
400.95	215.24
401.33	215.62
401.70	217.05
402.08	217.38
402.45	217.45
402.83	217.95
403.20	218.19
403.58	218.14
403.95	218.69
404.33	219.19
404.71	219.33
405.08	220.55
405.46	220.90
405.83	221.19
406.21	221.62
406.58	221.98
406.96	222.29
407.33	222.86
407.70	223.67
408.08	225.86
408.45	226.90
408.83	228.12
409.20	228.69
409.58	228.05
409.95	228.83
410.33	229.71
410.70	230.07
411.08	231.45
411.45	232.57
411.82	233.26
412.20	234.62
412.57	237.05
412.95	236.55
413.32	238.21
413.69	239.43
414.07	241.21
414.44	242.90
414.82	244.88
415.19	247.05
415.56	249.29
415.94	250.43
416.31	253.07
416.68	255.81
417.06	258.69
417.43	262.48
417.81	266.05
418.18	270.14
418.55	273.69
418.93	277.40
419.30	281.36
419.67	285.83
420.04	290.43
420.42	294.69
420.79	302.02
421.16	307.74
421.54	314.86
421.91	320.88
422.28	327.43
422.66	333.60
423.03	341.69
423.40	348.26
423.77	355.86
424.15	362.81
424.52	370.40
424.89	378.95
425.26	386.50
425.64	394.40
426.01	402.57
426.38	411.60
426.75	421.33
427.13	430.67
427.50	440.40
427.87	450.50
428.24	460.33
428.61	468.43
428.99	479.79
429.36	489.95
429.73	501.14
430.10	512.50
430.47	524.31
430.85	535.24
431.22	548.00
431.59	562.38
431.96	575.00
432.33	589.24
432.70	602.71
433.08	618.62
433.45	632.90
433.82	647.93
434.19	665.12
434.56	681.62
434.93	697.02
435.30	712.36
435.68	729.55
436.05	746.43
436.42	763.60
436.79	779.14
437.16	796.48
437.53	814.19
437.90	831.40
438.27	849.24
438.64	866.95
439.01	884.48
439.38	897.43
439.75	912.76
440.13	928.88
440.50	945.24
440.87	958.14
441.24	971.67
441.61	986.31
441.98	997.10
442.35	1009.26
442.72	1022.40
443.09	1036.10
443.46	1044.52
443.83	1050.33
444.20	1055.19
444.57	1060.98
444.94	1063.88
445.31	1067.81
445.68	1073.71
446.05	1075.00
446.42	1073.36
446.79	1071.62
447.16	1070.52
447.53	1069.10
447.90	1063.21
448.27	1056.52
448.64	1048.05
449.01	1042.26
449.37	1030.69
449.74	1019.60
450.11	1008.17
450.48	993.21
450.85	976.98
451.22	963.43
451.59	951.07
451.96	939.31
452.33	923.81
452.70	909.57
453.07	892.26
453.43	872.81
453.80	856.24
454.17	840.69
454.54	824.98
454.91	808.60
455.28	792.36
455.65	777.50
456.02	765.95
456.38	753.17
456.75	737.86
457.12	724.83
457.49	711.81
457.86	697.48
458.23	687.95
458.59	676.90
458.96	665.55
459.33	654.79
459.70	644.31
460.07	636.10
460.43	626.90
460.80	618.21
461.17	610.95
461.54	603.14
461.91	595.31
462.27	587.48
462.64	580.43
463.01	573.10
463.38	566.74
463.74	556.05
464.11	549.45
464.48	543.62
464.85	537.21
465.21	532.83
465.58	528.12
465.95	521.48
466.32	516.10
466.68	510.74
467.05	506.26
467.42	501.50
467.78	496.55
468.15	491.95
468.52	487.86
468.88	482.17
469.25	477.10
469.62	473.48
469.98	469.50
470.35	466.14
470.72	462.71
471.08	457.79
471.45	455.07
471.82	452.52
472.18	448.79
472.55	446.74
472.92	443.17
473.28	439.93
473.65	436.88
474.02	434.38
474.38	432.10
474.75	430.12
475.11	427.55
475.48	425.64
475.85	423.71
476.21	421.83
476.58	420.76
476.94	419.74
477.31	418.43
477.67	417.38
478.04	416.40
478.41	415.60
478.77	417.24
479.14	415.90
479.50	415.00
479.87	414.67
480.23	414.02
480.60	413.50
480.96	413.36
481.33	414.57
481.69	414.31
482.06	414.38
482.42	414.69
482.79	415.38
483.15	415.52
483.52	416.50
483.88	417.45
484.25	417.79
484.61	418.69
484.98	419.24
485.34	420.76
485.71	422.12
486.07	423.50
486.44	422.67
486.80	424.40
487.17	425.83
487.53	428.48
487.90	430.88
488.26	433.60
488.62	436.45
488.99	438.24
489.35	441.02
489.72	443.71
490.08	446.33
490.44	448.95
490.81	452.50
491.17	455.29
491.54	458.71
491.90	462.76
492.26	466.43
492.63	470.52
492.99	473.74
493.36	477.93
493.72	482.38
494.08	486.98
494.45	491.93
494.81	497.10
495.17	501.64
495.54	506.74
495.90	511.71
496.26	517.02
496.63	522.43
496.99	527.60
497.35	533.83
497.72	539.79
498.08	545.45
498.44	551.12
498.80	557.38
499.17	562.93
499.53	568.98
499.89	576.10
500.26	582.86
500.62	590.07
500.98	597.10
501.34	604.38
501.71	611.67
502.07	618.71
502.43	625.48
502.79	632.40
503.16	638.98
503.52	646.02
503.88	652.79
504.24	660.40
504.60	668.24
504.97	675.76
505.33	683.12
505.69	692.19
506.05	699.88
506.41	707.71
506.78	716.12
507.14	723.67
507.50	730.93
507.86	738.26
508.22	746.02
508.59	753.31
508.95	760.64
509.31	769.62
509.67	777.83
510.03	785.31
510.39	792.67
510.75	800.60
511.12	808.62
511.48	816.38
511.84	823.90
512.20	831.50
512.56	838.79
512.92	846.21
513.28	852.71
513.64	860.24
514.00	867.62
514.37	874.81
514.73	882.17
515.09	889.31
515.45	896.67
515.81	903.76
516.17	910.81
516.53	917.45
516.89	922.57
517.25	928.24
517.61	935.69
517.97	942.29
518.33	949.29
518.69	955.45
519.05	962.31
519.41	968.29
519.77	975.48
520.13	981.29
520.49	986.76
520.85	992.83
521.21	999.55
521.57	1004.86
521.93	1009.95
522.29	1015.50
522.65	1020.50
523.01	1026.88
523.37	1031.79
523.73	1036.79
524.09	1041.48
524.45	1047.10
524.81	1052.00
525.17	1057.12
525.53	1062.14
525.89	1066.07
526.25	1070.86
526.61	1074.12
526.97	1078.26
527.33	1082.67
527.68	1089.21
528.04	1094.26
528.40	1097.79
528.76	1101.26
529.12	1106.17
529.48	1111.14
529.84	1115.86
530.20	1120.95
530.56	1124.45
530.91	1128.83
531.27	1132.95
531.63	1137.95
531.99	1141.24
532.35	1145.48
532.71	1148.38
533.07	1152.69
533.42	1159.26
533.78	1163.67
534.14	1168.38
534.50	1172.67
534.86	1176.62
535.21	1178.71
535.57	1183.12
535.93	1187.05
536.29	1191.76
536.65	1195.67
537.00	1199.17
537.36	1202.19
537.72	1205.36
538.08	1208.98
538.44	1211.86
538.79	1216.17
539.15	1219.48
539.51	1223.24
539.87	1226.69
540.22	1230.50
540.58	1233.93
540.94	1234.76
541.29	1237.43
541.65	1239.48
542.01	1242.76
542.37	1244.88
542.72	1246.81
543.08	1248.62
543.44	1251.67
543.79	1252.69
544.15	1255.00
544.51	1258.86
544.87	1262.40
545.22	1265.05
545.58	1267.64
545.94	1270.86
546.29	1272.74
546.65	1275.48
547.01	1278.12
547.36	1280.81
547.72	1282.90
548.07	1285.02
548.43	1287.52
548.79	1290.33
549.14	1293.93
549.50	1296.19
549.86	1298.69
550.21	1301.86
550.57	1304.86
550.92	1307.21
551.28	1311.07
551.64	1313.98
551.99	1316.26
552.35	1318.60
552.70	1321.90
553.06	1325.50
553.41	1328.33
553.77	1332.52
554.13	1336.02
554.48	1340.26
554.84	1344.05
555.19	1348.10
555.55	1352.88
555.90	1356.71
556.26	1359.86
556.61	1363.05
556.97	1366.67
557.32	1371.21
557.68	1375.36
558.03	1379.10
558.39	1383.26
558.74	1386.98
559.10	1390.62
559.45	1394.36
559.81	1399.26
560.16	1403.10
560.52	1406.86
560.87	1411.00
561.23	1414.36
561.58	1419.71
561.94	1422.62
562.29	1426.12
562.64	1430.83
563.00	1434.19
563.35	1439.55
563.71	1444.57
564.06	1450.07
564.42	1455.40
564.77	1460.52
565.12	1466.33
565.48	1473.52
565.83	1479.64
566.19	1486.36
566.54	1492.40
566.89	1497.26
567.25	1502.81
567.60	1510.29
567.96	1518.33
568.31	1525.93
568.66	1533.12
569.02	1537.07
569.37	1543.14
569.72	1549.26
570.08	1554.55
570.43	1559.95
570.78	1565.90
571.14	1571.90
571.49	1577.45
571.84	1583.43
572.20	1588.38
572.55	1592.62
572.90	1596.57
573.26	1600.76
573.61	1604.71
573.96	1609.17
574.31	1614.33
574.67	1618.21
575.02	1620.62
575.37	1621.50
575.72	1624.29
576.08	1627.76
576.43	1632.26
576.78	1637.24
577.13	1641.62
577.49	1645.71
577.84	1650.40
578.19	1653.31
578.54	1657.62
578.90	1661.52
579.25	1663.86
579.60	1667.95
579.95	1671.12
580.30	1674.02
580.66	1678.76
581.01	1681.57
581.36	1684.60
581.71	1687.88
582.06	1692.45
582.42	1696.40
582.77	1700.00
583.12	1703.55
583.47	1706.40
583.82	1708.76
584.17	1710.12
584.53	1713.26
584.88	1716.43
585.23	1719.00
585.58	1721.69
585.93	1723.60
586.28	1726.40
586.63	1730.43
586.98	1732.43
587.34	1736.64
587.69	1739.10
588.04	1741.36
588.39	1743.38
588.74	1744.74
589.09	1747.38
589.44	1748.05
589.79	1749.95
590.14	1752.14
590.49	1753.24
590.84	1754.71
591.19	1756.88
591.54	1758.86
591.89	1759.76
592.25	1763.10
592.60	1764.38
592.95	1766.10
593.30	1767.71
593.65	1768.45
594.00	1768.24
594.35	1775.05
594.70	1774.60
595.05	1776.02
595.40	1776.24
595.75	1777.62
596.10	1779.69
596.45	1780.33
596.80	1781.02
597.15	1781.05
597.50	1780.79
597.85	1782.45
598.19	1782.67
598.54	1783.19
598.89	1784.48
599.24	1785.48
599.59	1783.31
599.94	1783.60
600.29	1783.62
600.64	1783.12
600.99	1783.43
601.34	1784.48
601.69	1778.52
602.04	1777.88
602.39	1777.12
602.74	1776.98
603.08	1776.02
603.43	1776.05
603.78	1775.93
604.13	1775.33
604.48	1774.95
604.83	1776.40
605.18	1775.98
605.53	1775.79
605.87	1774.36
606.22	1772.55
606.57	1770.76
606.92	1769.79
607.27	1769.05
607.62	1768.71
607.96	1768.43
608.31	1767.90
608.66	1766.38
609.01	1764.40
609.36	1764.00
609.70	1762.48
610.05	1760.43
610.40	1759.00
610.75	1756.43
611.10	1754.02
611.44	1751.55
611.79	1749.62
612.14	1746.24
612.49	1741.88
612.83	1738.74
613.18	1735.93
613.53	1733.88
613.88	1731.52
614.22	1728.12
614.57	1723.60
614.92	1718.90
615.27	1714.43
615.61	1709.81
615.96	1705.74
616.31	1702.88
616.65	1700.62
617.00	1698.07
617.35	1694.83
617.70	1691.29
618.04	1687.79
618.39	1683.76
618.74	1680.62
619.08	1676.24
619.43	1673.00
619.78	1671.40
620.12	1668.24
620.47	1665.26
620.82	1661.02
621.16	1656.55
621.51	1654.26
621.85	1650.71
622.20	1648.29
622.55	1644.14
622.89	1641.57
623.24	1638.38
623.59	1633.79
623.93	1628.62
624.28	1624.24
624.62	1622.43
624.97	1619.21
625.32	1615.10
625.66	1611.81
626.01	1608.38
626.35	1605.17
626.70	1600.12
627.04	1595.69
627.39	1591.24
627.73	1587.90
628.08	1585.05
628.43	1581.17
628.77	1576.52
629.12	1573.17
629.46	1568.50
629.81	1565.52
630.15	1559.55
630.50	1555.05
630.84	1551.33
631.19	1547.21
631.53	1541.98
631.88	1534.55
632.22	1529.17
632.57	1525.57
632.91	1520.79
633.26	1515.86
633.60	1511.00
633.95	1505.90
634.29	1500.21
634.64	1496.19
634.98	1490.36
635.32	1484.95
635.67	1481.17
636.01	1476.95
636.36	1471.79
636.70	1467.31
637.05	1462.14
637.39	1458.45
637.73	1454.07
638.08	1449.86
638.42	1444.36
638.77	1440.02
639.11	1435.81
639.45	1431.14
639.80	1425.02
640.14	1419.60
640.49	1413.60
640.83	1407.79
641.17	1403.43
641.52	1398.93
641.86	1393.55
642.20	1389.33
642.55	1382.90
642.89	1377.19
643.23	1370.98
643.58	1366.81
643.92	1360.71
644.26	1355.05
644.61	1350.02
644.95	1344.36
645.29	1338.21
645.64	1333.26
645.98	1327.17
646.32	1321.67
646.66	1315.64
647.01	1310.10
647.35	1304.55
647.69	1299.26
648.04	1295.07
648.38	1289.43
648.72	1282.88
649.06	1276.12
649.41	1269.05
649.75	1263.71
650.09	1257.05
650.43	1250.90
650.78	1244.05
651.12	1237.55
651.46	1231.12
651.80	1223.76
652.14	1217.43
652.49	1211.71
652.83	1204.90
653.17	1198.31
653.51	1191.64
653.85	1186.02
654.20	1179.71
654.54	1172.69
654.88	1166.14
655.22	1159.05
655.56	1152.19
655.90	1146.10
656.25	1140.12
656.59	1134.24
656.93	1127.71
657.27	1122.52
657.61	1116.07
657.95	1109.60
658.29	1103.50
658.64	1097.55
658.98	1091.43
659.32	1084.62
659.66	1077.33
660.00	1071.67
660.34	1065.64
660.68	1059.52
661.02	1051.69
661.36	1045.26
661.70	1039.40
662.05	1033.48
662.39	1027.02
662.73	1021.55
663.07	1015.79
663.41	1009.60
663.75	1003.64
664.09	997.93
664.43	990.74
664.77	985.00
665.11	978.31
665.45	972.43
665.79	966.40
666.13	960.62
666.47	954.67
666.81	949.10
667.15	942.60
667.49	937.62
667.83	931.90
668.17	927.10
668.51	921.69
668.85	915.83
669.19	910.67
669.53	904.43
669.87	898.07
670.21	892.14
670.55	886.14
670.89	881.24
671.23	875.50
671.57	869.71
671.91	864.10
672.25	858.93
672.58	853.98
672.92	848.24
673.26	842.36
673.60	837.33
673.94	831.95
674.28	826.50
674.62	821.83
674.96	816.95
675.30	811.81
675.64	806.79
675.97	801.69
676.31	796.19
676.65	791.14
676.99	787.21
677.33	781.90
677.67	777.57
678.01	771.93
678.34	767.26
678.68	763.33
679.02	758.02
679.36	753.29
679.70	748.10
680.04	743.14
680.37	738.14
680.71	733.19
681.05	728.69
681.39	724.17
681.73	718.26
682.06	713.21
682.40	708.57
682.74	704.02
683.08	700.45
683.42	695.55
683.75	691.33
684.09	685.93
684.43	681.31
684.77	676.36
685.10	671.88
685.44	666.86
685.78	662.10
686.12	658.00
686.45	653.21
686.79	648.29
687.13	644.71
687.46	640.64
687.80	636.62
688.14	632.31
688.48	628.33
688.81	624.07
689.15	620.40
689.49	615.95
689.82	611.62
690.16	606.43
690.50	602.69
690.83	598.57
691.17	594.36
691.51	590.10
691.84	586.05
692.18	581.60
692.52	577.90
692.85	573.90
693.19	570.50
693.52	566.98
693.86	563.07
694.20	558.21
694.53	554.24
694.87	549.62
695.21	545.12
695.54	540.55
695.88	536.60
696.21	531.79
696.55	528.02
696.88	524.31
697.22	520.48
697.56	516.33
697.89	512.31
698.23	509.14
698.56	505.74
698.90	502.14
699.23	498.71
699.57	495.24
699.90	492.10
700.24	488.31
700.58	484.62
700.91	481.62
701.25	480.29
701.58	477.86
701.92	475.48
702.25	472.74
702.59	470.21
702.92	467.33
703.26	464.48
703.59	461.52
703.93	460.10
704.26	457.83
704.60	455.36
704.93	452.71
705.26	449.64
705.60	447.33
705.93	444.36
706.27	441.86
706.60	439.52
706.94	437.24
707.27	434.05
707.61	432.19
707.94	429.52
708.27	425.29
708.61	421.95
708.94	419.24
709.28	416.93
709.61	414.05
709.94	411.93
710.28	409.79
710.61	407.50
710.95	403.02
711.28	401.81
711.61	399.26
711.95	397.26
712.28	394.88
712.61	392.10
712.95	391.17
713.28	389.95
713.61	387.50
713.95	384.67
714.28	382.81
714.61	380.10
714.95	378.12
715.28	375.83
715.61	373.76
715.95	371.74
716.28	369.33
716.61	367.60
716.95	365.10
717.28	362.76
717.61	360.67
717.94	358.76
718.28	355.24
718.61	353.38
718.94	351.33
719.27	349.45
719.61	347.90
719.94	345.69
720.27	342.83
720.60	341.14
720.94	339.21
721.27	337.45
721.60	336.02
721.93	333.90
722.27	333.29
722.60	332.02
722.93	330.26
723.26	329.26
723.59	327.57
723.93	326.33
724.26	325.26
724.59	323.79
724.92	323.07
725.25	322.40
725.59	320.95
725.92	320.02
726.25	318.95
726.58	317.57
726.91	316.17
727.24	315.69
727.57	314.45
727.91	313.38
728.24	312.52
728.57	311.55
728.90	311.02
729.23	309.45
729.56	309.17
729.89	308.24
730.22	307.00
730.55	305.81
730.89	304.86
731.22	303.62
731.55	302.86
731.88	301.71
732.21	300.29
732.54	299.48
732.87	298.31
733.20	297.38
733.53	296.81
733.86	295.98
734.19	294.07
734.52	293.52
734.85	293.93
735.18	292.93
735.51	292.43
735.84	291.57
736.17	291.02
736.50	289.14
736.83	290.48
737.16	289.55
737.49	289.05
737.82	288.00
738.15	287.55
738.48	286.62
738.81	285.71
739.14	284.76
739.47	283.88
739.80	283.07
740.13	282.38
740.46	281.14
740.79	279.79
741.12	279.12
741.45	277.83
741.78	275.98
742.11	275.55
742.44	274.26
742.77	273.62
743.10	272.74
743.43	272.00
743.75	269.29
744.08	271.17
744.41	270.33
744.74	269.33
745.07	268.12
745.40	267.95
745.73	268.12
746.06	267.36
746.39	267.00
746.71	266.21
747.04	265.31
747.37	264.62
747.70	264.57
748.03	264.21
748.36	263.88
748.68	263.40
749.01	262.38
749.34	261.90
749.67	261.60
750.00	260.93
750.33	261.95
750.65	261.71
750.98	258.60
751.31	258.26
751.64	258.00
751.97	259.05
752.29	258.19
752.62	256.62
752.95	256.31
753.28	255.17
753.60	254.69
753.93	254.88
754.26	254.71
754.59	253.69
754.91	253.10
755.24	252.52
755.57	252.10
755.90	251.40
756.22	250.71
756.55	249.95
756.88	249.43
757.20	247.38
757.53	246.19
757.86	245.57
758.19	245.02
758.51	244.98
758.84	243.31
759.17	242.64
759.49	242.69
759.82	243.36
760.15	243.55
760.47	243.17
760.80	242.31
761.13	242.26
761.45	241.88
761.78	241.19
762.11	240.93
762.43	240.31
762.76	240.05
763.08	239.95
763.41	239.74
763.74	239.57
764.06	239.26
764.39	238.93
764.71	238.83
765.04	238.31
765.37	237.64
765.69	237.26
766.02	237.02
766.34	236.38
766.67	235.10
767.00	235.02
767.32	235.74
767.65	236.40
767.97	235.71
768.30	235.69
768.62	235.60
768.95	235.19
769.27	234.81
769.60	235.00
769.92	234.64
770.25	233.81
770.57	233.31
770.90	233.17
771.22	232.76
771.55	232.45
771.87	232.50
772.20	232.33
772.52	233.95
772.85	236.02
773.17	235.90
773.50	235.60
773.82	235.02
774.15	233.86
774.47	232.50
774.80	232.24
775.12	231.98
775.45	231.69
775.77	231.40
776.09	231.48
776.42	231.33
776.74	231.71
777.07	231.48
777.39	231.40
777.72	231.12
778.04	231.38
778.36	231.21
778.69	231.00
779.01	230.98
779.33	228.88
779.66	226.83
779.98	226.33
780.31	226.17
780.63	226.95
780.95	227.33
781.28	227.40
781.60	227.19
781.92	227.00
782.25	226.90
782.57	226.62
782.89	226.26
783.22	225.62
783.54	225.02
783.86	225.29
784.19	224.81
784.51	225.21
784.83	224.71
785.16	224.48
