SpectraSuite Data File
++++++++++++++++++++++++++++++++++++
Date: Tue Apr 02 18:40:04 EDT 2013
User: group
Dark Spectrum Present: No
Reference Spectrum Present: No
Number of Sampled Component Spectra: 1
Spectrometers: USB2E7196
Integration Time (usec): 580000 (USB2E7196)
Spectra Averaged: 2 (USB2E7196)
Boxcar Smoothing: 10 (USB2E7196)
Correct for Electrical Dark: No (USB2E7196)
Strobe/Lamp Enabled: No (USB2E7196)
Correct for Detector Non-linearity: No (USB2E7196)
Correct for Stray Light: No (USB2E7196)
Number of Pixels in Processed Spectrum: 2048
>>>>>Begin Processed Spectral Data<<<<<
339.09	0.00
339.48	196.00
339.86	195.00
340.24	196.00
340.63	200.50
341.01	230.00
341.39	196.00
341.78	207.50
342.16	211.00
342.54	204.50
342.93	197.64
343.31	207.45
343.69	207.95
344.07	208.57
344.46	209.19
344.84	209.57
345.22	208.48
345.60	209.12
345.99	209.26
346.37	209.14
346.75	209.19
347.13	209.24
347.52	209.21
347.90	210.05
348.28	209.98
348.66	210.40
349.05	209.71
349.43	210.00
349.81	210.17
350.19	210.21
350.57	210.14
350.96	210.36
351.34	210.83
351.72	210.83
352.10	210.71
352.48	210.67
352.87	210.64
353.25	210.81
353.63	210.64
354.01	210.60
354.39	210.88
354.77	211.12
355.15	211.71
355.54	211.52
355.92	210.98
356.30	211.43
356.68	212.76
357.06	213.02
357.44	212.83
357.82	212.64
358.20	213.48
358.58	213.67
358.97	213.83
359.35	213.98
359.73	214.60
360.11	214.76
360.49	215.02
360.87	214.98
361.25	215.07
361.63	216.10
362.01	216.38
362.39	216.33
362.77	216.45
363.15	216.02
363.53	216.21
363.91	216.26
364.29	216.02
364.67	214.14
365.05	214.40
365.43	214.86
365.81	215.24
366.19	215.71
366.57	216.43
366.95	216.40
367.33	216.05
367.71	215.83
368.09	216.07
368.47	216.05
368.85	216.21
369.23	216.67
369.61	215.93
369.99	216.40
370.37	216.71
370.75	217.79
371.13	217.81
371.51	217.52
371.89	217.74
372.27	217.93
372.65	218.17
373.03	217.98
373.41	217.81
373.78	217.90
374.16	216.52
374.54	216.05
374.92	215.90
375.30	216.10
375.68	215.74
376.06	216.00
376.44	215.83
376.82	216.05
377.19	216.07
377.57	215.98
377.95	215.45
378.33	215.00
378.71	213.69
379.09	213.93
379.47	214.36
379.84	214.17
380.22	213.93
380.60	213.48
380.98	213.48
381.36	213.40
381.73	212.98
382.11	213.57
382.49	213.45
382.87	213.02
383.25	212.95
383.62	215.48
384.00	215.17
384.38	215.24
384.76	215.71
385.13	216.43
385.51	216.43
385.89	216.12
386.27	216.10
386.64	216.57
387.02	216.48
387.40	216.26
387.78	216.40
388.15	216.57
388.53	216.64
388.91	216.64
389.29	216.40
389.66	216.52
390.04	216.24
390.42	216.74
390.79	217.05
391.17	216.90
391.55	214.79
391.92	214.64
392.30	215.07
392.68	214.52
393.05	214.24
393.43	214.17
393.81	214.19
394.18	214.02
394.56	213.95
394.94	214.05
395.31	213.83
395.69	214.31
396.06	214.57
396.44	214.74
396.82	214.55
397.19	215.71
397.57	215.76
397.95	216.07
398.32	215.50
398.70	215.67
399.07	216.17
399.45	215.90
399.82	216.00
400.20	215.76
400.58	215.48
400.95	214.81
401.33	215.40
401.70	217.31
402.08	217.67
402.45	217.74
402.83	218.55
403.20	218.93
403.58	218.95
403.95	219.38
404.33	219.95
404.71	220.26
405.08	221.48
405.46	221.83
405.83	222.19
406.21	222.38
406.58	222.67
406.96	222.98
407.33	223.86
407.70	224.71
408.08	226.79
408.45	227.76
408.83	228.88
409.20	229.26
409.58	228.64
409.95	229.98
410.33	231.05
410.70	231.19
411.08	232.60
411.45	233.83
411.82	234.93
412.20	236.52
412.57	239.02
412.95	238.74
413.32	240.57
413.69	241.98
414.07	243.95
414.44	245.95
414.82	248.07
415.19	250.40
415.56	252.67
415.94	254.12
416.31	257.48
416.68	260.17
417.06	263.86
417.43	267.38
417.81	270.81
418.18	274.81
418.55	278.93
418.93	283.17
419.30	287.69
419.67	292.50
420.04	297.14
420.42	301.38
420.79	308.93
421.16	315.00
421.54	322.76
421.91	329.14
422.28	335.71
422.66	342.79
423.03	351.05
423.40	358.50
423.77	366.38
424.15	374.05
424.52	382.43
424.89	391.57
425.26	400.12
425.64	408.31
426.01	417.17
426.38	426.50
426.75	436.62
427.13	446.40
427.50	456.95
427.87	467.88
428.24	478.95
428.61	487.81
428.99	499.90
429.36	511.14
429.73	523.40
430.10	535.81
430.47	548.52
430.85	560.26
431.22	573.93
431.59	589.50
431.96	602.93
432.33	618.19
432.70	633.17
433.08	650.60
433.45	667.17
433.82	683.52
434.19	702.00
434.56	720.48
434.93	737.69
435.30	754.12
435.68	773.12
436.05	791.79
436.42	810.48
436.79	827.52
437.16	845.69
437.53	865.40
437.90	885.07
438.27	903.90
438.64	924.05
439.01	942.69
439.38	957.17
439.75	973.05
440.13	991.36
440.50	1008.05
440.87	1021.74
441.24	1036.02
441.61	1051.38
441.98	1063.17
442.35	1075.50
442.72	1088.79
443.09	1103.24
443.46	1111.33
443.83	1117.29
444.20	1122.48
444.57	1128.81
444.94	1132.71
445.31	1136.57
445.68	1141.62
446.05	1143.67
446.42	1141.57
446.79	1139.83
447.16	1137.86
447.53	1137.10
447.90	1129.76
448.27	1122.86
448.64	1113.26
449.01	1106.48
449.37	1094.14
449.74	1081.45
450.11	1069.55
450.48	1053.76
450.85	1036.55
451.22	1023.07
451.59	1009.76
451.96	997.05
452.33	980.60
452.70	965.07
453.07	945.48
453.43	924.86
453.80	906.83
454.17	889.64
454.54	872.86
454.91	856.43
455.28	838.74
455.65	822.90
456.02	810.12
456.38	797.02
456.75	780.40
457.12	766.90
457.49	753.52
457.86	737.50
458.23	727.00
458.59	714.98
458.96	701.64
459.33	690.24
459.70	679.31
460.07	669.81
460.43	659.40
460.80	651.00
461.17	643.02
461.54	634.19
461.91	625.57
462.27	616.95
462.64	608.71
463.01	600.93
463.38	593.57
463.74	582.19
464.11	574.62
464.48	569.02
464.85	562.36
465.21	557.95
465.58	552.83
465.95	545.45
466.32	539.71
466.68	534.19
467.05	528.86
467.42	522.95
467.78	517.26
468.15	512.00
468.52	507.95
468.88	501.90
469.25	496.76
469.62	493.79
469.98	489.40
470.35	485.45
470.72	481.76
471.08	477.05
471.45	473.95
471.82	470.93
472.18	466.36
472.55	463.33
472.92	459.24
473.28	455.83
473.65	452.74
474.02	450.29
474.38	448.40
474.75	446.43
475.11	443.98
475.48	442.12
475.85	440.02
476.21	437.86
476.58	436.95
476.94	435.74
477.31	433.79
477.67	432.76
478.04	431.86
478.41	430.90
478.77	432.55
479.14	431.33
479.50	430.64
479.87	430.55
480.23	430.36
480.60	429.93
480.96	430.26
481.33	431.48
481.69	431.52
482.06	431.31
482.42	431.43
482.79	432.12
483.15	432.71
483.52	433.69
483.88	434.26
484.25	434.45
484.61	435.29
484.98	435.83
485.34	437.33
485.71	438.95
486.07	440.67
486.44	440.07
486.80	442.10
487.17	443.88
487.53	446.12
487.90	448.67
488.26	451.69
488.62	454.48
488.99	456.69
489.35	459.21
489.72	462.10
490.08	464.45
490.44	467.38
490.81	470.64
491.17	474.05
491.54	477.79
491.90	482.17
492.26	485.86
492.63	490.29
492.99	494.12
493.36	498.29
493.72	503.05
494.08	507.62
494.45	512.43
494.81	517.60
495.17	522.79
495.54	528.33
495.90	533.48
496.26	539.14
496.63	544.79
496.99	550.81
497.35	557.19
497.72	564.24
498.08	570.50
498.44	577.10
498.80	583.81
499.17	590.69
499.53	597.24
499.89	604.86
500.26	611.76
500.62	619.29
500.98	627.12
501.34	634.07
501.71	642.62
502.07	650.64
502.43	658.17
502.79	665.79
503.16	673.19
503.52	681.26
503.88	688.81
504.24	696.98
504.60	705.10
504.97	713.31
505.33	721.24
505.69	730.98
506.05	739.57
506.41	748.24
506.78	757.10
507.14	765.64
507.50	774.26
507.86	783.05
508.22	791.60
508.59	799.38
508.95	808.40
509.31	818.31
509.67	826.64
510.03	835.29
510.39	844.33
510.75	852.71
511.12	861.07
511.48	869.83
511.84	878.10
512.20	886.60
512.56	895.43
512.92	904.48
513.28	912.62
513.64	920.90
514.00	929.38
514.37	936.71
514.73	945.52
515.09	954.26
515.45	962.40
515.81	970.79
516.17	979.40
516.53	986.62
516.89	992.45
517.25	1000.57
517.61	1009.07
517.97	1016.29
518.33	1024.40
518.69	1032.21
519.05	1040.67
519.41	1048.24
519.77	1057.19
520.13	1064.10
520.49	1070.50
520.85	1076.81
521.21	1084.90
521.57	1092.05
521.93	1098.50
522.29	1104.88
522.65	1110.62
523.01	1117.17
523.37	1122.57
523.73	1128.76
524.09	1135.71
524.45	1141.83
524.81	1148.10
525.17	1153.02
525.53	1158.71
525.89	1164.48
526.25	1170.86
526.61	1174.74
526.97	1180.26
527.33	1184.76
527.68	1191.81
528.04	1197.38
528.40	1202.74
528.76	1207.31
529.12	1212.26
529.48	1218.02
529.84	1222.81
530.20	1228.19
530.56	1233.38
530.91	1239.57
531.27	1245.31
531.63	1250.90
531.99	1255.74
532.35	1259.05
532.71	1264.40
533.07	1270.33
533.42	1277.52
533.78	1282.07
534.14	1288.05
534.50	1292.43
534.86	1297.93
535.21	1301.83
535.57	1308.19
535.93	1312.40
536.29	1318.26
536.65	1323.48
537.00	1328.19
537.36	1333.62
537.72	1338.62
538.08	1343.40
538.44	1347.31
538.79	1350.90
539.15	1354.07
539.51	1359.10
539.87	1364.55
540.22	1369.48
540.58	1373.67
540.94	1375.86
541.29	1380.12
541.65	1383.69
542.01	1389.40
542.37	1392.86
542.72	1395.57
543.08	1398.10
543.44	1403.19
543.79	1405.24
544.15	1409.69
544.51	1414.55
544.87	1418.00
545.22	1421.69
545.58	1425.50
545.94	1429.45
546.29	1434.31
546.65	1438.81
547.01	1442.50
547.36	1446.67
547.72	1450.98
548.07	1454.93
548.43	1457.79
548.79	1460.88
549.14	1464.14
549.50	1467.62
549.86	1470.26
550.21	1474.36
550.57	1478.48
550.92	1481.62
551.28	1486.40
551.64	1489.60
551.99	1492.67
552.35	1496.31
552.70	1500.45
553.06	1504.74
553.41	1508.40
553.77	1512.81
554.13	1516.71
554.48	1520.98
554.84	1526.83
555.19	1530.12
555.55	1535.14
555.90	1540.36
556.26	1545.17
556.61	1549.98
556.97	1553.29
557.32	1558.12
557.68	1562.74
558.03	1567.33
558.39	1571.69
558.74	1576.00
559.10	1580.00
559.45	1585.17
559.81	1589.67
560.16	1593.05
560.52	1597.19
560.87	1601.95
561.23	1605.26
561.58	1611.86
561.94	1615.83
562.29	1618.38
562.64	1623.36
563.00	1626.90
563.35	1630.93
563.71	1635.57
564.06	1640.62
564.42	1645.76
564.77	1651.76
565.12	1657.79
565.48	1664.14
565.83	1669.64
566.19	1674.50
566.54	1679.24
566.89	1684.21
567.25	1690.21
567.60	1697.02
567.96	1704.60
568.31	1710.50
568.66	1716.31
569.02	1718.67
569.37	1723.74
569.72	1729.24
570.08	1733.26
570.43	1737.19
570.78	1742.21
571.14	1746.36
571.49	1751.38
571.84	1755.33
572.20	1758.45
572.55	1761.93
572.90	1763.88
573.26	1766.43
573.61	1769.43
573.96	1773.57
574.31	1776.45
574.67	1779.24
575.02	1781.48
575.37	1781.95
575.72	1783.40
576.08	1786.21
576.43	1788.17
576.78	1790.31
577.13	1791.90
577.49	1794.36
577.84	1797.17
578.19	1798.74
578.54	1801.71
578.90	1803.50
579.25	1806.12
579.60	1807.62
579.95	1807.98
580.30	1809.12
580.66	1811.17
581.01	1813.36
581.36	1814.17
581.71	1815.17
582.06	1817.36
582.42	1818.10
582.77	1818.64
583.12	1820.26
583.47	1820.21
583.82	1822.64
584.17	1823.12
584.53	1824.69
584.88	1825.95
585.23	1826.21
585.58	1826.67
585.93	1826.98
586.28	1826.45
586.63	1825.93
586.98	1827.02
587.34	1828.17
587.69	1828.55
588.04	1828.26
588.39	1826.93
588.74	1825.48
589.09	1824.74
589.44	1821.86
589.79	1821.05
590.14	1820.02
590.49	1818.29
590.84	1817.07
591.19	1815.67
591.54	1814.64
591.89	1813.26
592.25	1813.50
592.60	1812.02
592.95	1810.83
593.30	1809.10
593.65	1807.26
594.00	1805.55
594.35	1809.07
594.70	1806.29
595.05	1804.07
595.40	1802.71
595.75	1801.24
596.10	1800.60
596.45	1799.52
596.80	1798.88
597.15	1796.74
597.50	1795.24
597.85	1794.76
598.19	1793.33
598.54	1790.98
598.89	1788.71
599.24	1785.55
599.59	1780.83
599.94	1779.33
600.29	1777.12
600.64	1775.05
600.99	1773.69
601.34	1772.21
601.69	1763.64
602.04	1761.36
602.39	1758.86
602.74	1756.86
603.08	1754.67
603.43	1752.40
603.78	1750.12
604.13	1748.10
604.48	1745.79
604.83	1743.48
605.18	1741.21
605.53	1738.90
605.87	1736.10
606.22	1733.55
606.57	1730.71
606.92	1727.64
607.27	1723.86
607.62	1721.05
607.96	1718.19
608.31	1714.52
608.66	1710.81
609.01	1707.79
609.36	1705.05
609.70	1701.76
610.05	1697.71
610.40	1693.98
610.75	1689.36
611.10	1685.02
611.44	1679.26
611.79	1674.31
612.14	1669.48
612.49	1663.71
612.83	1657.67
613.18	1652.43
613.53	1648.31
613.88	1643.74
614.22	1638.74
614.57	1633.33
614.92	1627.52
615.27	1622.26
615.61	1616.62
615.96	1611.33
616.31	1606.24
616.65	1601.79
617.00	1597.19
617.35	1591.79
617.70	1586.17
618.04	1580.31
618.39	1573.69
618.74	1568.60
619.08	1563.64
619.43	1558.21
619.78	1552.52
620.12	1548.19
620.47	1543.21
620.82	1536.83
621.16	1530.60
621.51	1526.50
621.85	1521.26
622.20	1516.26
622.55	1509.12
622.89	1503.81
623.24	1498.79
623.59	1492.45
623.93	1486.19
624.28	1480.64
624.62	1477.38
624.97	1473.19
625.32	1469.26
625.66	1464.21
626.01	1459.07
626.35	1454.12
626.70	1449.74
627.04	1444.69
627.39	1438.57
627.73	1433.95
628.08	1429.19
628.43	1424.19
628.77	1417.69
629.12	1412.86
629.46	1407.64
629.81	1402.52
630.15	1396.86
630.50	1390.02
630.84	1384.88
631.19	1378.36
631.53	1371.86
631.88	1362.48
632.22	1355.02
632.57	1348.55
632.91	1342.50
633.26	1336.19
633.60	1330.02
633.95	1323.02
634.29	1317.36
634.64	1311.76
634.98	1304.29
635.32	1298.33
635.67	1293.33
636.01	1287.93
636.36	1280.86
636.70	1274.98
637.05	1268.71
637.39	1262.86
637.73	1257.50
638.08	1252.62
638.42	1247.02
638.77	1241.38
639.11	1236.52
639.45	1230.24
639.80	1224.24
640.14	1218.74
640.49	1212.90
640.83	1205.90
641.17	1199.31
641.52	1192.24
641.86	1185.69
642.20	1180.88
642.55	1173.31
642.89	1165.93
643.23	1159.24
643.58	1154.10
643.92	1146.69
644.26	1140.69
644.61	1134.31
644.95	1127.29
645.29	1119.10
645.64	1112.81
645.98	1105.50
646.32	1099.26
646.66	1093.00
647.01	1085.74
647.35	1079.38
647.69	1073.10
648.04	1067.60
648.38	1062.07
648.72	1056.17
649.06	1049.86
649.41	1042.36
649.75	1036.50
650.09	1029.67
650.43	1022.90
650.78	1015.79
651.12	1009.38
651.46	1002.38
651.80	995.36
652.14	989.71
652.49	984.83
652.83	978.26
653.17	972.29
653.51	965.48
653.85	958.45
654.20	952.21
654.54	945.36
654.88	938.60
655.22	932.19
655.56	925.33
655.90	918.88
656.25	912.33
656.59	906.81
656.93	901.07
657.27	896.52
657.61	890.33
657.95	884.14
658.29	878.50
658.64	873.52
658.98	867.83
659.32	861.50
659.66	854.57
660.00	848.62
660.34	843.05
660.68	837.57
661.02	832.40
661.36	826.64
661.70	820.98
662.05	815.48
662.39	810.24
662.73	805.26
663.07	800.64
663.41	795.10
663.75	789.21
664.09	783.86
664.43	777.19
664.77	771.88
665.11	765.90
665.45	760.88
665.79	755.64
666.13	750.19
666.47	744.62
666.81	739.86
667.15	734.64
667.49	729.95
667.83	725.26
668.17	720.26
668.51	715.38
668.85	710.19
669.19	706.05
669.53	700.14
669.87	694.71
670.21	688.55
670.55	684.33
670.89	680.40
671.23	675.05
671.57	670.43
671.91	665.81
672.25	661.64
672.58	657.52
672.92	652.31
673.26	648.48
673.60	643.98
673.94	639.62
674.28	635.50
674.62	631.55
674.96	626.52
675.30	622.81
675.64	618.83
675.97	615.05
676.31	610.02
676.65	605.81
676.99	602.74
677.33	598.88
677.67	594.69
678.01	589.50
678.34	586.21
678.68	582.93
679.02	578.64
679.36	574.86
679.70	570.21
680.04	566.31
680.37	562.12
680.71	558.55
681.05	554.33
681.39	550.38
681.73	545.74
682.06	541.79
682.40	537.76
682.74	533.79
683.08	530.93
683.42	527.02
683.75	523.76
684.09	518.81
684.43	515.14
684.77	511.33
685.10	507.79
685.44	503.88
685.78	499.86
686.12	496.48
686.45	492.69
686.79	489.26
687.13	486.31
687.46	482.90
687.80	479.79
688.14	476.64
688.48	473.57
688.81	470.60
689.15	468.50
689.49	465.26
689.82	462.60
690.16	458.62
690.50	455.69
690.83	452.43
691.17	449.57
691.51	446.74
691.84	443.48
692.18	440.81
692.52	437.74
692.85	435.64
693.19	433.50
693.52	430.81
693.86	427.83
694.20	424.90
694.53	422.10
694.87	419.14
695.21	416.21
695.54	413.55
695.88	410.26
696.21	406.29
696.55	403.76
696.88	401.05
697.22	398.60
697.56	396.64
697.89	394.07
698.23	392.21
698.56	389.74
698.90	387.62
699.23	385.33
699.57	383.29
699.90	380.60
700.24	378.05
700.58	376.29
700.91	374.52
701.25	374.45
701.58	373.17
701.92	371.45
702.25	369.50
702.59	367.14
702.92	365.64
703.26	364.02
703.59	361.95
703.93	361.52
704.26	359.95
704.60	358.36
704.93	356.76
705.26	354.57
705.60	353.36
705.93	351.55
706.27	350.38
706.60	349.38
706.94	348.45
707.27	346.67
707.61	344.95
707.94	343.29
708.27	339.76
708.61	337.45
708.94	336.12
709.28	334.74
709.61	333.21
709.94	331.81
710.28	330.57
710.61	329.31
710.95	326.24
711.28	325.98
711.61	324.00
711.95	323.00
712.28	321.26
712.61	319.55
712.95	319.38
713.28	318.90
713.61	316.83
713.95	315.14
714.28	313.98
714.61	312.60
714.95	310.83
715.28	309.62
715.61	308.14
715.95	306.86
716.28	305.40
716.61	304.74
716.95	303.17
717.28	301.79
717.61	300.55
717.94	299.36
718.28	296.95
718.61	296.05
718.94	294.55
719.27	293.45
719.61	292.40
719.94	290.74
720.27	288.26
720.60	287.38
720.94	286.12
721.27	285.31
721.60	284.81
721.93	284.14
722.27	283.81
722.60	283.33
722.93	282.14
723.26	281.50
723.59	280.24
723.93	279.90
724.26	279.48
724.59	278.64
724.92	278.24
725.25	277.93
725.59	276.98
725.92	276.98
726.25	276.62
726.58	276.02
726.91	275.12
727.24	274.98
727.57	274.36
727.91	273.69
728.24	273.07
728.57	272.00
728.90	271.76
729.23	270.50
729.56	270.64
729.89	269.90
730.22	269.19
730.55	268.50
730.89	268.00
731.22	267.21
731.55	266.57
731.88	265.90
732.21	264.98
732.54	264.36
732.87	263.19
733.20	262.57
733.53	262.10
733.86	261.90
734.19	260.95
734.52	260.81
734.85	261.36
735.18	260.62
735.51	260.74
735.84	260.31
736.17	260.62
736.50	259.19
736.83	260.98
737.16	260.33
737.49	259.74
737.82	258.79
738.15	258.71
738.48	258.21
738.81	257.48
739.14	256.81
739.47	256.21
739.80	255.71
740.13	255.55
740.46	254.98
740.79	254.05
741.12	253.86
741.45	253.10
741.78	251.69
742.11	251.74
742.44	250.90
742.77	250.62
743.10	249.26
743.43	248.81
743.75	246.31
744.08	248.69
744.41	248.50
744.74	247.95
745.07	247.07
745.40	246.90
745.73	247.62
746.06	247.14
746.39	247.14
746.71	246.88
747.04	246.12
747.37	245.69
747.70	246.12
748.03	245.64
748.36	245.79
748.68	245.31
749.01	244.45
749.34	243.90
749.67	243.76
750.00	243.95
750.33	245.02
750.65	245.19
750.98	242.36
751.31	242.10
751.64	242.26
751.97	243.19
752.29	242.88
752.62	241.52
752.95	241.26
753.28	240.55
753.60	240.00
753.93	240.36
754.26	240.10
754.59	239.07
754.91	238.79
755.24	237.98
755.57	237.71
755.90	237.52
756.22	237.29
756.55	236.29
756.88	235.48
757.20	234.26
757.53	233.29
757.86	233.14
758.19	233.31
758.51	233.02
758.84	231.60
759.17	231.19
759.49	231.10
759.82	231.83
760.15	231.90
760.47	232.07
760.80	231.21
761.13	231.31
761.45	230.95
761.78	230.76
762.11	230.45
762.43	230.29
762.76	229.98
763.08	229.98
763.41	230.19
763.74	230.36
764.06	230.10
764.39	230.10
764.71	229.62
765.04	229.07
765.37	228.40
765.69	228.24
766.02	227.98
766.34	227.50
766.67	226.43
767.00	226.55
767.32	227.07
767.65	228.12
767.97	227.83
768.30	227.76
768.62	227.64
768.95	227.43
769.27	227.17
769.60	227.31
769.92	226.98
770.25	226.29
770.57	225.93
770.90	225.64
771.22	225.21
771.55	225.26
771.87	225.05
772.20	225.29
772.52	227.10
772.85	229.74
773.17	229.83
773.50	229.64
773.82	229.21
774.15	228.31
774.47	226.88
774.80	226.74
775.12	226.57
775.45	226.24
775.77	226.62
776.09	226.76
776.42	226.60
776.74	226.93
777.07	226.95
777.39	226.62
777.72	226.10
778.04	226.45
778.36	225.95
778.69	226.00
779.01	225.83
779.33	224.02
779.66	221.38
779.98	221.24
780.31	221.33
780.63	221.95
780.95	222.31
781.28	222.38
781.60	221.98
781.92	222.05
782.25	222.12
782.57	221.57
782.89	221.05
783.22	220.79
783.54	220.31
783.86	220.33
784.19	220.40
784.51	220.86
784.83	220.10
785.16	220.12
785.48	220.10
