SpectraSuite Data File
++++++++++++++++++++++++++++++++++++
Date: Tue Apr 02 18:42:14 EDT 2013
User: group
Dark Spectrum Present: No
Reference Spectrum Present: No
Number of Sampled Component Spectra: 1
Spectrometers: USB2E7196
Integration Time (usec): 580000 (USB2E7196)
Spectra Averaged: 2 (USB2E7196)
Boxcar Smoothing: 10 (USB2E7196)
Correct for Electrical Dark: No (USB2E7196)
Strobe/Lamp Enabled: No (USB2E7196)
Correct for Detector Non-linearity: No (USB2E7196)
Correct for Stray Light: No (USB2E7196)
Number of Pixels in Processed Spectrum: 2048
>>>>>Begin Processed Spectral Data<<<<<
339.09	0.00
339.48	193.00
339.86	193.00
340.24	198.50
340.63	199.00
341.01	238.00
341.39	199.00
341.78	205.50
342.16	209.50
342.54	204.00
342.93	197.67
343.31	207.55
343.69	208.02
344.07	208.60
344.46	209.48
344.84	210.02
345.22	208.60
345.60	209.12
345.99	209.38
346.37	209.36
346.75	209.74
347.13	209.76
347.52	209.98
347.90	210.79
348.28	210.83
348.66	211.40
349.05	211.00
349.43	211.00
349.81	211.33
350.19	211.48
350.57	212.07
350.96	212.24
351.34	212.45
351.72	212.74
352.10	213.19
352.48	212.69
352.87	212.62
353.25	212.81
353.63	213.00
354.01	212.90
354.39	213.12
354.77	213.00
355.15	213.69
355.54	213.26
355.92	212.40
356.30	212.57
356.68	213.86
357.06	213.86
357.44	213.60
357.82	213.50
358.20	214.50
358.58	214.19
358.97	214.48
359.35	214.98
359.73	215.57
360.11	215.40
360.49	215.69
360.87	215.86
361.25	216.21
361.63	217.05
362.01	217.21
362.39	217.17
362.77	217.48
363.15	217.19
363.53	217.71
363.91	218.00
364.29	218.21
364.67	216.21
365.05	216.36
365.43	216.83
365.81	216.93
366.19	217.19
366.57	217.98
366.95	217.93
367.33	217.52
367.71	217.45
368.09	218.12
368.47	218.29
368.85	218.26
369.23	218.60
369.61	217.64
369.99	218.57
370.37	218.98
370.75	219.93
371.13	219.57
371.51	219.26
371.89	219.67
372.27	219.62
372.65	219.76
373.03	219.83
373.41	219.55
373.78	219.57
374.16	218.50
374.54	217.76
374.92	217.62
375.30	217.60
375.68	217.17
376.06	217.00
376.44	216.86
376.82	217.07
377.19	216.86
377.57	216.79
377.95	215.74
378.33	215.38
378.71	214.21
379.09	214.76
379.47	214.98
379.84	214.60
380.22	214.40
380.60	214.07
380.98	214.00
381.36	214.02
381.73	213.62
382.11	214.00
382.49	214.31
382.87	213.88
383.25	213.93
383.62	216.02
384.00	215.60
384.38	215.48
384.76	215.76
385.13	216.64
385.51	216.60
385.89	216.60
386.27	216.76
386.64	216.88
387.02	216.62
387.40	216.43
387.78	216.48
388.15	216.69
388.53	216.71
388.91	216.79
389.29	216.69
389.66	216.98
390.04	216.69
390.42	216.90
390.79	217.14
391.17	217.05
391.55	215.10
391.92	215.21
392.30	215.48
392.68	215.00
393.05	214.76
393.43	214.74
393.81	214.71
394.18	214.31
394.56	214.33
394.94	214.74
395.31	214.67
395.69	215.14
396.06	215.43
396.44	215.57
396.82	215.36
397.19	216.38
397.57	216.07
397.95	216.31
398.32	215.71
398.70	216.02
399.07	216.33
399.45	216.24
399.82	216.07
400.20	215.64
400.58	215.60
400.95	214.57
401.33	215.14
401.70	216.90
402.08	217.14
402.45	217.45
402.83	217.88
403.20	217.90
403.58	217.95
403.95	218.00
404.33	218.40
404.71	218.74
405.08	220.10
405.46	220.76
405.83	221.12
406.21	221.62
406.58	221.71
406.96	222.05
407.33	222.79
407.70	223.52
408.08	226.21
408.45	227.14
408.83	228.38
409.20	228.83
409.58	228.26
409.95	229.40
410.33	230.24
410.70	230.45
411.08	231.79
411.45	232.62
411.82	233.48
412.20	235.48
412.57	237.88
412.95	237.07
413.32	238.79
413.69	240.12
414.07	241.69
414.44	243.71
414.82	245.71
415.19	248.17
415.56	250.45
415.94	251.52
416.31	254.57
416.68	257.29
417.06	260.74
417.43	264.19
417.81	267.60
418.18	271.00
418.55	275.02
418.93	279.05
419.30	283.62
419.67	288.26
420.04	292.33
420.42	296.57
420.79	303.71
421.16	309.29
421.54	316.79
421.91	323.14
422.28	329.12
422.66	335.88
423.03	343.36
423.40	350.40
423.77	357.79
424.15	365.00
424.52	372.67
424.89	381.24
425.26	388.95
425.64	396.88
426.01	405.60
426.38	414.60
426.75	424.19
427.13	433.26
427.50	443.02
427.87	452.98
428.24	462.88
428.61	471.83
428.99	483.38
429.36	493.69
429.73	504.79
430.10	516.60
430.47	528.36
430.85	539.24
431.22	552.14
431.59	567.36
431.96	580.19
432.33	594.38
432.70	608.21
433.08	624.76
433.45	639.71
433.82	655.19
434.19	672.10
434.56	688.98
434.93	704.95
435.30	721.05
435.68	738.57
436.05	756.07
436.42	772.86
436.79	788.74
437.16	806.38
437.53	824.55
437.90	843.24
438.27	861.38
438.64	880.07
439.01	897.19
439.38	910.38
439.75	925.05
440.13	942.55
440.50	958.19
440.87	970.90
441.24	985.10
441.61	999.67
441.98	1011.33
442.35	1023.69
442.72	1036.93
443.09	1050.38
443.46	1058.24
443.83	1064.29
444.20	1069.52
444.57	1075.81
444.94	1078.69
445.31	1082.71
445.68	1087.95
446.05	1088.90
446.42	1087.40
446.79	1086.48
447.16	1085.00
447.53	1084.19
447.90	1077.29
448.27	1071.00
448.64	1062.81
449.01	1056.24
449.37	1045.10
449.74	1033.57
450.11	1022.64
450.48	1007.81
450.85	992.19
451.22	980.05
451.59	967.90
451.96	956.21
452.33	940.76
452.70	926.33
453.07	909.17
453.43	889.55
453.80	873.40
454.17	857.50
454.54	841.71
454.91	825.14
455.28	809.17
455.65	794.40
456.02	783.05
456.38	769.98
456.75	754.52
457.12	741.26
457.49	728.17
457.86	713.36
458.23	703.38
458.59	691.52
458.96	679.07
459.33	667.93
459.70	656.81
460.07	647.74
460.43	637.74
460.80	628.55
461.17	621.02
461.54	612.33
461.91	603.86
462.27	595.10
462.64	588.14
463.01	580.31
463.38	573.55
463.74	562.24
464.11	555.45
464.48	549.57
464.85	543.21
465.21	538.57
465.58	533.45
465.95	526.21
466.32	520.83
466.68	515.76
467.05	510.64
467.42	505.86
467.78	500.52
468.15	496.00
468.52	492.24
468.88	486.26
469.25	481.45
469.62	478.52
469.98	474.62
470.35	470.69
470.72	466.93
471.08	462.31
471.45	459.48
471.82	456.88
472.18	452.79
472.55	450.17
472.92	446.62
473.28	443.50
473.65	441.05
474.02	438.33
474.38	436.07
474.75	433.88
475.11	431.71
475.48	429.76
475.85	428.12
476.21	426.14
476.58	425.21
476.94	424.26
477.31	422.31
477.67	421.12
478.04	420.24
478.41	419.57
478.77	421.24
479.14	420.24
479.50	419.21
479.87	419.50
480.23	418.88
480.60	418.69
480.96	418.62
481.33	419.19
481.69	419.14
482.06	418.93
482.42	419.14
482.79	419.52
483.15	419.74
483.52	420.40
483.88	420.55
484.25	420.64
484.61	421.40
484.98	422.02
485.34	423.69
485.71	424.93
486.07	426.40
486.44	425.79
486.80	427.45
487.17	428.88
487.53	430.83
487.90	433.26
488.26	436.31
488.62	438.76
488.99	440.69
489.35	443.71
489.72	446.21
490.08	449.40
490.44	451.95
490.81	455.71
491.17	458.88
491.54	462.86
491.90	467.00
492.26	471.00
492.63	475.29
492.99	478.79
493.36	483.05
493.72	487.38
494.08	491.29
494.45	495.98
494.81	501.12
495.17	505.55
495.54	510.79
495.90	515.05
496.26	520.43
496.63	526.02
496.99	531.05
497.35	537.43
497.72	543.12
498.08	549.19
498.44	554.79
498.80	561.02
499.17	566.86
499.53	572.95
499.89	579.33
500.26	585.81
500.62	592.52
500.98	599.83
501.34	606.83
501.71	614.69
502.07	621.81
502.43	628.64
502.79	635.50
503.16	642.14
503.52	649.50
503.88	656.05
504.24	663.38
504.60	671.12
504.97	678.60
505.33	686.64
505.69	695.43
506.05	703.14
506.41	710.88
506.78	719.10
507.14	726.71
507.50	734.64
507.86	742.55
508.22	750.86
508.59	757.67
508.95	765.48
509.31	774.10
509.67	781.52
510.03	789.48
510.39	797.71
510.75	805.67
511.12	813.62
511.48	821.83
511.84	829.26
512.20	837.36
512.56	845.29
512.92	852.69
513.28	860.14
513.64	867.93
514.00	875.24
514.37	882.83
514.73	890.76
515.09	898.52
515.45	905.74
515.81	912.31
516.17	919.79
516.53	926.43
516.89	932.05
517.25	939.48
517.61	946.81
517.97	953.62
518.33	960.29
518.69	966.14
519.05	972.76
519.41	979.26
519.77	986.31
520.13	992.45
520.49	997.76
520.85	1002.90
521.21	1009.79
521.57	1015.93
521.93	1020.33
522.29	1026.38
522.65	1031.26
523.01	1037.60
523.37	1043.14
523.73	1048.21
524.09	1053.38
524.45	1058.50
524.81	1063.07
525.17	1067.45
525.53	1071.79
525.89	1076.86
526.25	1082.52
526.61	1086.52
526.97	1090.93
527.33	1095.19
527.68	1101.52
528.04	1106.76
528.40	1110.83
528.76	1114.74
529.12	1119.07
529.48	1125.29
529.84	1129.60
530.20	1134.79
530.56	1138.76
530.91	1143.43
531.27	1148.24
531.63	1152.81
531.99	1157.14
532.35	1161.95
532.71	1165.93
533.07	1171.12
533.42	1177.24
533.78	1180.98
534.14	1186.02
534.50	1190.26
534.86	1194.45
535.21	1196.81
535.57	1201.24
535.93	1205.55
536.29	1210.12
536.65	1214.14
537.00	1216.57
537.36	1219.57
537.72	1222.62
538.08	1225.95
538.44	1228.83
538.79	1233.02
539.15	1236.45
539.51	1239.71
539.87	1243.29
540.22	1247.24
540.58	1249.93
540.94	1251.55
541.29	1254.95
541.65	1258.12
542.01	1262.07
542.37	1264.40
542.72	1266.79
543.08	1268.95
543.44	1272.21
543.79	1274.36
544.15	1276.95
544.51	1280.71
544.87	1283.86
545.22	1286.86
545.58	1290.02
545.94	1292.43
546.29	1294.74
546.65	1296.98
547.01	1299.93
547.36	1302.17
547.72	1304.50
548.07	1308.02
548.43	1309.79
548.79	1312.29
549.14	1314.69
549.50	1317.21
549.86	1319.88
550.21	1322.60
550.57	1326.26
550.92	1328.86
551.28	1331.62
551.64	1334.64
551.99	1338.00
552.35	1340.74
552.70	1343.26
553.06	1346.93
553.41	1350.67
553.77	1354.83
554.13	1359.07
554.48	1364.07
554.84	1368.50
555.19	1372.81
555.55	1377.76
555.90	1382.50
556.26	1387.12
556.61	1390.90
556.97	1394.14
557.32	1398.26
557.68	1402.79
558.03	1406.88
558.39	1410.95
558.74	1415.79
559.10	1420.55
559.45	1424.67
559.81	1429.79
560.16	1433.93
560.52	1437.83
560.87	1443.26
561.23	1447.00
561.58	1453.14
561.94	1456.50
562.29	1460.67
562.64	1465.02
563.00	1468.36
563.35	1472.98
563.71	1478.33
564.06	1483.88
564.42	1489.81
564.77	1494.95
565.12	1500.52
565.48	1507.81
565.83	1514.60
566.19	1519.67
566.54	1524.98
566.89	1531.02
567.25	1537.55
567.60	1545.33
567.96	1553.19
568.31	1559.88
568.66	1566.50
569.02	1569.76
569.37	1575.10
569.72	1580.67
570.08	1586.86
570.43	1591.95
570.78	1597.31
571.14	1602.14
571.49	1607.64
571.84	1612.79
572.20	1618.26
572.55	1623.14
572.90	1625.86
573.26	1629.24
573.61	1633.38
573.96	1638.19
574.31	1642.76
574.67	1645.55
575.02	1648.81
575.37	1651.07
575.72	1652.98
576.08	1656.48
576.43	1660.93
576.78	1664.81
577.13	1668.17
577.49	1671.60
577.84	1676.14
578.19	1680.10
578.54	1683.81
578.90	1686.74
579.25	1690.40
579.60	1692.60
579.95	1695.90
580.30	1699.62
580.66	1703.45
581.01	1708.07
581.36	1711.14
581.71	1713.24
582.06	1717.00
582.42	1720.81
582.77	1723.83
583.12	1727.10
583.47	1729.52
583.82	1733.31
584.17	1736.36
584.53	1739.95
584.88	1742.10
585.23	1743.86
585.58	1745.64
585.93	1747.14
586.28	1748.98
586.63	1751.38
586.98	1754.48
587.34	1757.67
587.69	1758.71
588.04	1760.52
588.39	1761.48
588.74	1761.88
589.09	1763.79
589.44	1764.24
589.79	1765.55
590.14	1766.33
590.49	1767.90
590.84	1769.14
591.19	1769.95
591.54	1770.21
591.89	1770.48
592.25	1772.88
592.60	1773.93
592.95	1775.36
593.30	1776.81
593.65	1777.67
594.00	1776.60
594.35	1782.12
594.70	1781.26
595.05	1781.19
595.40	1781.12
595.75	1781.05
596.10	1782.64
596.45	1783.29
596.80	1784.48
597.15	1784.14
597.50	1783.90
597.85	1785.07
598.19	1784.67
598.54	1784.00
598.89	1784.60
599.24	1784.81
599.59	1783.26
599.94	1783.05
600.29	1782.98
600.64	1782.12
600.99	1781.83
601.34	1783.29
601.69	1778.17
602.04	1777.24
602.39	1777.36
602.74	1777.79
603.08	1777.50
603.43	1777.48
603.78	1776.45
604.13	1775.45
604.48	1773.79
604.83	1774.05
605.18	1773.12
605.53	1772.02
605.87	1770.74
606.22	1769.38
606.57	1768.07
606.92	1767.02
607.27	1766.00
607.62	1765.52
607.96	1765.19
608.31	1764.76
608.66	1762.74
609.01	1761.02
609.36	1760.62
609.70	1758.90
610.05	1755.64
610.40	1753.86
610.75	1750.81
611.10	1748.88
611.44	1746.67
611.79	1743.98
612.14	1740.93
612.49	1736.31
612.83	1733.48
613.18	1730.33
613.53	1727.10
613.88	1723.26
614.22	1719.69
614.57	1715.62
614.92	1710.38
615.27	1706.29
615.61	1701.14
615.96	1696.98
616.31	1693.21
616.65	1690.36
617.00	1686.98
617.35	1684.48
617.70	1680.38
618.04	1676.10
618.39	1671.14
618.74	1666.60
619.08	1662.71
619.43	1658.55
619.78	1655.21
620.12	1652.31
620.47	1648.45
620.82	1644.38
621.16	1639.43
621.51	1635.62
621.85	1631.33
622.20	1626.62
622.55	1621.50
622.89	1617.86
623.24	1613.14
623.59	1608.45
623.93	1601.83
624.28	1596.79
624.62	1594.19
624.97	1590.38
625.32	1586.33
625.66	1581.76
626.01	1577.19
626.35	1573.10
626.70	1569.00
627.04	1565.81
627.39	1560.19
627.73	1556.45
628.08	1552.36
628.43	1548.76
628.77	1543.93
629.12	1539.76
629.46	1536.26
629.81	1532.14
630.15	1527.81
630.50	1523.60
630.84	1518.64
631.19	1513.95
631.53	1508.88
631.88	1499.81
632.22	1493.12
632.57	1488.43
632.91	1483.26
633.26	1478.95
633.60	1473.24
633.95	1467.26
634.29	1460.14
634.64	1455.74
634.98	1450.24
635.32	1445.60
635.67	1441.43
636.01	1436.36
636.36	1430.76
636.70	1425.69
637.05	1420.98
637.39	1415.45
637.73	1410.62
638.08	1406.76
638.42	1402.17
638.77	1397.38
639.11	1393.40
639.45	1388.71
639.80	1382.60
640.14	1377.81
640.49	1371.88
640.83	1365.83
641.17	1360.81
641.52	1355.98
641.86	1349.88
642.20	1344.40
642.55	1337.86
642.89	1331.45
643.23	1325.45
643.58	1320.38
643.92	1313.62
644.26	1306.93
644.61	1301.19
644.95	1294.24
645.29	1286.17
645.64	1279.81
645.98	1273.52
646.32	1267.71
646.66	1260.60
647.01	1254.71
647.35	1248.57
647.69	1241.90
648.04	1237.02
648.38	1230.40
648.72	1224.29
649.06	1218.57
649.41	1211.31
649.75	1204.45
650.09	1197.29
650.43	1190.60
650.78	1183.05
651.12	1176.55
651.46	1169.43
651.80	1162.69
652.14	1156.88
652.49	1151.60
652.83	1145.43
653.17	1138.26
653.51	1131.00
653.85	1125.71
654.20	1118.86
654.54	1111.55
654.88	1104.45
655.22	1098.45
655.56	1092.12
655.90	1085.29
656.25	1077.43
656.59	1072.00
656.93	1065.50
657.27	1060.83
657.61	1054.00
657.95	1047.98
658.29	1041.93
658.64	1036.88
658.98	1029.86
659.32	1022.52
659.66	1015.40
660.00	1009.10
660.34	1003.00
660.68	996.86
661.02	990.00
661.36	983.81
661.70	977.83
662.05	971.88
662.39	965.33
662.73	959.69
663.07	955.31
663.41	949.45
663.75	942.52
664.09	936.98
664.43	929.81
664.77	924.17
665.11	918.02
665.45	912.24
665.79	906.07
666.13	900.12
666.47	894.74
666.81	889.67
667.15	882.93
667.49	878.10
667.83	873.45
668.17	867.98
668.51	862.07
668.85	857.21
669.19	853.62
669.53	847.19
669.87	840.93
670.21	834.00
670.55	829.00
670.89	824.62
671.23	819.50
671.57	814.17
671.91	809.29
672.25	804.48
672.58	799.83
672.92	794.00
673.26	789.55
673.60	784.33
673.94	778.98
674.28	774.48
674.62	769.40
674.96	763.93
675.30	759.24
675.64	755.12
675.97	750.31
676.31	744.21
676.65	739.83
676.99	736.19
677.33	731.55
677.67	727.29
678.01	722.02
678.34	716.83
678.68	712.69
679.02	708.12
679.36	703.31
679.70	698.10
680.04	693.40
680.37	688.26
680.71	684.02
681.05	679.95
681.39	675.67
681.73	671.00
682.06	666.55
682.40	662.14
682.74	657.36
683.08	653.10
683.42	648.10
683.75	643.76
684.09	638.55
684.43	633.86
684.77	628.67
685.10	624.40
685.44	620.60
685.78	616.21
686.12	611.52
686.45	607.17
686.79	602.57
687.13	599.19
687.46	595.43
687.80	591.83
688.14	587.64
688.48	583.29
688.81	579.50
689.15	576.07
689.49	571.64
689.82	567.57
690.16	562.69
690.50	558.81
690.83	554.83
691.17	550.57
691.51	546.88
691.84	543.64
692.18	539.67
692.52	535.98
692.85	532.26
693.19	529.62
693.52	525.83
693.86	522.45
694.20	518.76
694.53	515.40
694.87	511.57
695.21	507.52
695.54	503.93
695.88	499.19
696.21	495.38
696.55	492.00
696.88	488.57
697.22	485.33
697.56	482.79
697.89	479.60
698.23	476.90
698.56	473.21
698.90	470.26
699.23	466.64
699.57	463.31
699.90	459.90
700.24	456.00
700.58	452.98
700.91	450.36
701.25	449.14
701.58	446.36
701.92	443.62
702.25	440.64
702.59	438.07
702.92	435.95
703.26	433.07
703.59	430.55
703.93	429.95
704.26	427.76
704.60	425.29
704.93	422.07
705.26	419.50
705.60	417.38
705.93	414.26
706.27	412.71
706.60	410.90
706.94	409.40
707.27	406.71
707.61	404.36
707.94	401.62
708.27	397.29
708.61	394.17
708.94	391.69
709.28	389.74
709.61	387.26
709.94	385.14
710.28	382.95
710.61	380.86
710.95	376.57
711.28	376.00
711.61	373.60
711.95	372.29
712.28	369.88
712.61	367.93
712.95	367.21
713.28	365.88
713.61	363.45
713.95	360.76
714.28	359.45
714.61	357.76
714.95	355.81
715.28	353.81
715.61	352.38
715.95	351.05
716.28	349.14
716.61	347.76
716.95	345.86
717.28	344.02
717.61	342.07
717.94	340.76
718.28	337.50
718.61	335.90
718.94	333.79
719.27	332.29
719.61	331.02
719.94	328.95
720.27	326.24
720.60	324.48
720.94	322.98
721.27	321.64
721.60	320.52
721.93	319.45
722.27	319.05
722.60	317.93
722.93	315.98
723.26	314.76
723.59	313.05
723.93	312.33
724.26	311.48
724.59	310.45
724.92	309.50
725.25	308.88
725.59	308.00
725.92	307.17
726.25	305.93
726.58	304.88
726.91	303.67
727.24	303.10
727.57	302.02
727.91	300.83
728.24	299.93
728.57	298.74
728.90	297.90
729.23	296.31
729.56	296.10
729.89	295.71
730.22	294.55
730.55	293.76
730.89	292.83
731.22	291.40
731.55	290.48
731.88	289.40
732.21	288.31
732.54	286.93
732.87	286.21
733.20	285.69
733.53	284.57
733.86	283.98
734.19	282.83
734.52	282.38
734.85	282.90
735.18	281.83
735.51	281.83
735.84	281.14
736.17	280.69
736.50	279.02
736.83	280.26
737.16	279.98
737.49	279.57
737.82	278.36
738.15	278.33
738.48	277.57
738.81	276.98
739.14	276.19
739.47	275.40
739.80	274.69
740.13	274.17
740.46	273.36
740.79	272.36
741.12	272.00
741.45	270.86
741.78	269.14
742.11	268.93
742.44	267.69
742.77	267.45
743.10	266.64
743.43	266.29
743.75	263.57
744.08	265.24
744.41	264.31
744.74	263.79
745.07	262.50
745.40	262.33
745.73	262.45
746.06	261.62
746.39	261.45
746.71	260.55
747.04	259.76
747.37	259.24
747.70	258.90
748.03	258.21
748.36	258.17
748.68	257.79
749.01	256.64
749.34	255.93
749.67	255.45
750.00	255.21
750.33	256.07
750.65	255.71
750.98	252.98
751.31	252.86
751.64	252.79
751.97	253.57
752.29	252.71
752.62	251.26
752.95	251.07
753.28	250.48
753.60	250.40
753.93	250.45
754.26	250.12
754.59	249.24
754.91	248.52
755.24	248.07
755.57	247.55
755.90	246.95
756.22	246.64
756.55	245.62
756.88	244.83
757.20	243.10
757.53	242.36
757.86	242.02
758.19	241.62
758.51	240.98
758.84	239.38
759.17	239.14
759.49	239.00
759.82	239.33
760.15	238.93
760.47	238.29
760.80	237.33
761.13	237.38
761.45	237.02
761.78	236.83
762.11	236.55
762.43	236.02
762.76	235.86
763.08	235.64
763.41	235.50
763.74	235.26
764.06	234.88
764.39	234.52
764.71	234.05
765.04	233.45
765.37	233.17
765.69	233.19
766.02	232.90
766.34	232.48
766.67	231.71
767.00	232.24
767.32	233.29
767.65	234.14
767.97	233.74
768.30	233.67
768.62	233.48
768.95	233.05
769.27	232.88
769.60	232.93
769.92	232.45
770.25	232.02
770.57	231.45
770.90	231.05
771.22	230.93
771.55	230.79
771.87	230.83
772.20	230.62
772.52	231.95
772.85	234.21
773.17	234.24
773.50	233.79
773.82	233.07
774.15	231.76
774.47	230.24
774.80	229.81
775.12	229.48
775.45	229.36
775.77	229.36
776.09	229.26
776.42	229.21
776.74	229.69
777.07	229.31
777.39	229.40
777.72	229.31
778.04	229.29
778.36	228.98
778.69	228.69
779.01	228.62
779.33	226.79
779.66	224.60
779.98	224.21
780.31	224.29
780.63	225.10
780.95	225.38
781.28	225.45
781.60	225.19
781.92	225.00
782.25	224.95
782.57	224.67
782.89	224.40
783.22	224.17
783.54	223.86
783.86	224.05
784.19	223.93
784.51	224.36
784.83	223.98
785.16	223.86
