SpectraSuite Data File
++++++++++++++++++++++++++++++++++++
Date: Tue Apr 02 18:37:37 EDT 2013
User: group
Dark Spectrum Present: No
Reference Spectrum Present: No
Number of Sampled Component Spectra: 1
Spectrometers: USB2E7196
Integration Time (usec): 580000 (USB2E7196)
Spectra Averaged: 2 (USB2E7196)
Boxcar Smoothing: 10 (USB2E7196)
Correct for Electrical Dark: No (USB2E7196)
Strobe/Lamp Enabled: No (USB2E7196)
Correct for Detector Non-linearity: No (USB2E7196)
Correct for Stray Light: No (USB2E7196)
Number of Pixels in Processed Spectrum: 2048
>>>>>Begin Processed Spectral Data<<<<<
339.09	0.00
339.48	194.50
339.86	195.50
340.24	196.50
340.63	201.50
341.01	228.00
341.39	202.00
341.78	210.00
342.16	211.50
342.54	205.50
342.93	198.64
343.31	208.38
343.69	208.98
344.07	209.48
344.46	210.29
344.84	210.67
345.22	209.71
345.60	210.17
345.99	210.24
346.37	210.31
346.75	210.36
347.13	210.29
347.52	210.36
347.90	211.26
348.28	211.31
348.66	211.86
349.05	211.24
349.43	211.50
349.81	211.64
350.19	211.67
350.57	211.62
350.96	211.79
351.34	212.17
351.72	212.38
352.10	212.50
352.48	212.12
352.87	212.02
353.25	212.17
353.63	212.19
354.01	212.12
354.39	211.95
354.77	212.12
355.15	212.64
355.54	212.40
355.92	211.45
356.30	211.57
356.68	212.55
357.06	212.81
357.44	212.60
357.82	212.55
358.20	213.45
358.58	213.57
358.97	213.81
359.35	214.31
359.73	214.52
360.11	214.71
360.49	214.98
360.87	215.24
361.25	215.48
361.63	215.81
362.01	215.98
362.39	215.88
362.77	216.10
363.15	215.79
363.53	215.93
363.91	216.24
364.29	216.21
364.67	214.24
365.05	214.38
365.43	214.52
365.81	214.83
366.19	215.02
366.57	215.95
366.95	215.93
367.33	215.31
367.71	215.55
368.09	215.76
368.47	216.07
368.85	215.88
369.23	216.10
369.61	215.67
369.99	216.43
370.37	216.83
370.75	217.60
371.13	217.38
371.51	217.17
371.89	217.33
372.27	217.52
372.65	217.93
373.03	217.81
373.41	217.52
373.78	217.36
374.16	216.24
374.54	215.67
374.92	215.45
375.30	215.62
375.68	215.17
376.06	215.40
376.44	215.07
376.82	215.31
377.19	215.45
377.57	215.31
377.95	214.55
378.33	214.33
378.71	213.19
379.09	213.67
379.47	213.98
379.84	213.79
380.22	213.48
380.60	213.24
380.98	213.07
381.36	213.07
381.73	212.90
382.11	213.26
382.49	213.29
382.87	213.26
383.25	213.19
383.62	215.36
384.00	214.79
384.38	214.81
384.76	215.10
385.13	215.67
385.51	215.79
385.89	215.50
386.27	215.69
386.64	216.24
387.02	215.98
387.40	215.69
387.78	215.86
388.15	215.83
388.53	215.57
388.91	215.93
389.29	215.93
389.66	216.36
390.04	216.40
390.42	216.40
390.79	216.52
391.17	216.55
391.55	214.45
391.92	214.38
392.30	214.67
392.68	214.02
393.05	213.95
393.43	214.07
393.81	214.21
394.18	213.98
394.56	214.02
394.94	214.33
395.31	214.40
395.69	214.90
396.06	215.36
396.44	215.57
396.82	215.00
397.19	216.26
397.57	215.90
397.95	216.17
398.32	215.81
398.70	216.05
399.07	216.55
399.45	216.52
399.82	216.88
400.20	216.74
400.58	216.93
400.95	216.14
401.33	216.64
401.70	218.17
402.08	218.50
402.45	218.29
402.83	218.79
403.20	219.12
403.58	218.88
403.95	219.38
404.33	219.83
404.71	220.26
405.08	221.38
405.46	221.79
405.83	222.00
406.21	222.71
406.58	223.14
406.96	223.60
407.33	224.38
407.70	225.14
408.08	227.50
408.45	228.62
408.83	229.67
409.20	229.93
409.58	229.50
409.95	230.76
410.33	232.21
410.70	232.64
411.08	233.81
411.45	235.14
411.82	236.17
412.20	237.95
412.57	240.79
412.95	240.45
413.32	242.60
413.69	244.31
414.07	246.12
414.44	248.21
414.82	250.21
415.19	252.86
415.56	255.50
415.94	256.86
416.31	260.10
416.68	263.40
417.06	267.45
417.43	271.67
417.81	275.74
418.18	279.93
418.55	284.40
418.93	289.05
419.30	293.88
419.67	298.57
420.04	303.38
420.42	308.29
420.79	316.14
421.16	322.55
421.54	330.26
421.91	337.62
422.28	344.69
422.66	352.74
423.03	361.55
423.40	369.57
423.77	377.88
424.15	386.50
424.52	395.12
424.89	404.98
425.26	414.02
425.64	422.62
426.01	432.07
426.38	442.57
426.75	454.10
427.13	465.24
427.50	476.81
427.87	488.62
428.24	500.50
428.61	511.24
428.99	524.36
429.36	536.90
429.73	550.02
430.10	563.62
430.47	577.07
430.85	590.55
431.22	605.21
431.59	623.14
431.96	637.95
432.33	655.29
432.70	671.90
433.08	691.14
433.45	709.31
433.82	727.50
434.19	747.83
434.56	767.69
434.93	786.33
435.30	805.93
435.68	827.29
436.05	847.67
436.42	868.43
436.79	887.98
437.16	908.98
437.53	930.31
437.90	952.10
438.27	973.21
438.64	994.31
439.01	1015.60
439.38	1032.31
439.75	1050.71
440.13	1071.31
440.50	1090.33
440.87	1105.86
441.24	1122.57
441.61	1141.05
441.98	1154.50
442.35	1169.12
442.72	1185.24
443.09	1201.00
443.46	1210.95
443.83	1218.02
444.20	1223.50
444.57	1230.45
444.94	1234.52
445.31	1239.60
445.68	1246.00
446.05	1248.60
446.42	1247.98
446.79	1246.31
447.16	1244.07
447.53	1243.26
447.90	1236.10
448.27	1228.79
448.64	1219.02
449.01	1211.38
449.37	1197.79
449.74	1184.33
450.11	1170.02
450.48	1151.90
450.85	1133.40
451.22	1117.81
451.59	1103.83
451.96	1090.24
452.33	1071.79
452.70	1054.81
453.07	1033.43
453.43	1010.31
453.80	990.50
454.17	971.10
454.54	952.12
454.91	933.00
455.28	913.57
455.65	895.17
456.02	880.33
456.38	864.50
456.75	846.31
457.12	830.79
457.49	815.64
457.86	799.05
458.23	787.45
458.59	773.29
458.96	759.45
459.33	746.50
459.70	733.81
460.07	724.14
460.43	713.02
460.80	702.95
461.17	693.64
461.54	683.55
461.91	674.38
462.27	665.24
462.64	657.24
463.01	648.38
463.38	640.52
463.74	628.40
464.11	620.60
464.48	613.12
464.85	605.26
465.21	600.19
465.58	594.38
465.95	586.88
466.32	581.50
466.68	575.00
467.05	569.12
467.42	562.98
467.78	556.12
468.15	549.71
468.52	545.71
468.88	539.83
469.25	534.50
469.62	530.52
469.98	525.57
470.35	520.76
470.72	516.55
471.08	511.38
471.45	508.24
471.82	505.31
472.18	501.43
472.55	498.79
472.92	494.24
473.28	491.24
473.65	487.98
474.02	484.36
474.38	481.83
474.75	479.36
475.11	477.24
475.48	475.69
475.85	474.05
476.21	472.17
476.58	470.76
476.94	469.90
477.31	468.43
477.67	467.24
478.04	466.64
478.41	465.64
478.77	466.83
479.14	465.64
479.50	464.90
479.87	464.95
480.23	464.38
480.60	463.93
480.96	463.48
481.33	464.07
481.69	464.55
482.06	465.43
482.42	465.86
482.79	466.00
483.15	466.52
483.52	468.00
483.88	468.62
484.25	469.50
484.61	470.64
484.98	471.60
485.34	473.69
485.71	475.31
486.07	476.57
486.44	476.88
486.80	479.12
487.17	481.02
487.53	484.14
487.90	487.29
488.26	491.57
488.62	495.57
488.99	497.95
489.35	501.69
489.72	504.98
490.08	508.90
490.44	512.81
490.81	517.21
491.17	520.95
491.54	525.67
491.90	530.76
492.26	535.33
492.63	540.40
492.99	545.48
493.36	550.67
493.72	556.83
494.08	562.10
494.45	568.69
494.81	575.52
495.17	581.55
495.54	588.14
495.90	594.17
496.26	600.26
496.63	607.71
496.99	613.98
497.35	621.12
497.72	628.55
498.08	636.57
498.44	644.40
498.80	652.98
499.17	660.79
499.53	668.90
499.89	677.71
500.26	686.55
500.62	695.31
500.98	705.29
501.34	714.48
501.71	724.64
502.07	733.57
502.43	742.29
502.79	751.48
503.16	761.10
503.52	770.64
503.88	780.02
504.24	789.74
504.60	799.98
504.97	810.33
505.33	819.86
505.69	830.43
506.05	840.62
506.41	850.33
506.78	860.48
507.14	869.93
507.50	880.31
507.86	890.21
508.22	899.98
508.59	908.69
508.95	919.12
509.31	929.57
509.67	939.67
510.03	950.12
510.39	959.81
510.75	970.10
511.12	980.40
511.48	990.76
511.84	1000.57
512.20	1010.57
512.56	1020.40
512.92	1031.26
513.28	1040.52
513.64	1050.26
514.00	1060.29
514.37	1070.21
514.73	1080.29
515.09	1090.10
515.45	1099.17
515.81	1108.45
516.17	1117.76
516.53	1125.93
516.89	1134.00
517.25	1142.33
517.61	1151.74
517.97	1159.45
518.33	1167.05
518.69	1175.60
519.05	1184.33
519.41	1192.43
519.77	1201.83
520.13	1209.38
520.49	1215.60
520.85	1222.86
521.21	1230.45
521.57	1237.50
521.93	1243.14
522.29	1250.45
522.65	1255.88
523.01	1262.55
523.37	1268.95
523.73	1275.62
524.09	1282.38
524.45	1287.95
524.81	1293.21
525.17	1298.76
525.53	1305.79
525.89	1311.76
526.25	1316.69
526.61	1320.95
526.97	1325.50
527.33	1329.19
527.68	1335.83
528.04	1341.17
528.40	1345.62
528.76	1349.86
529.12	1353.36
529.48	1359.21
529.84	1362.29
530.20	1366.60
530.56	1370.74
530.91	1374.45
531.27	1378.62
531.63	1381.86
531.99	1385.26
532.35	1389.36
532.71	1391.60
533.07	1395.24
533.42	1400.40
533.78	1403.05
534.14	1406.62
534.50	1409.93
534.86	1414.12
535.21	1414.60
535.57	1417.67
535.93	1420.24
536.29	1423.81
536.65	1426.93
537.00	1429.14
537.36	1431.83
537.72	1434.24
538.08	1437.05
538.44	1439.17
538.79	1440.17
539.15	1442.12
539.51	1444.31
539.87	1446.57
540.22	1449.12
540.58	1451.10
540.94	1450.33
541.29	1452.21
541.65	1452.57
542.01	1454.55
542.37	1454.02
542.72	1454.79
543.08	1454.64
543.44	1455.55
543.79	1454.31
544.15	1455.12
544.51	1455.50
544.87	1455.93
545.22	1455.38
545.58	1455.02
545.94	1454.38
546.29	1454.98
546.65	1454.45
547.01	1453.55
547.36	1452.76
547.72	1451.48
548.07	1450.19
548.43	1449.40
548.79	1447.76
549.14	1446.90
549.50	1444.98
549.86	1443.38
550.21	1442.36
550.57	1442.10
550.92	1439.88
551.28	1439.19
551.64	1437.07
551.99	1434.83
552.35	1433.38
552.70	1432.43
553.06	1431.07
553.41	1429.79
553.77	1429.50
554.13	1428.19
554.48	1428.52
554.84	1427.38
555.19	1425.57
555.55	1425.12
555.90	1423.24
556.26	1421.98
556.61	1420.81
556.97	1418.90
557.32	1417.14
557.68	1415.79
558.03	1413.81
558.39	1413.24
558.74	1411.48
559.10	1410.19
559.45	1409.45
559.81	1407.52
560.16	1405.79
560.52	1403.31
560.87	1401.67
561.23	1398.12
561.58	1397.93
561.94	1394.52
562.29	1392.10
562.64	1391.38
563.00	1386.95
563.35	1385.55
563.71	1384.24
564.06	1382.76
564.42	1381.33
564.77	1381.00
565.12	1379.64
565.48	1379.81
565.83	1378.83
566.19	1377.95
566.54	1376.48
566.89	1374.55
567.25	1374.40
567.60	1374.57
567.96	1375.48
568.31	1376.24
568.66	1375.76
569.02	1371.74
569.37	1369.83
569.72	1368.31
570.08	1366.14
570.43	1365.43
570.78	1362.83
571.14	1361.14
571.49	1358.69
571.84	1356.62
572.20	1353.69
572.55	1351.50
572.90	1347.10
573.26	1343.81
573.61	1340.50
573.96	1338.31
574.31	1335.38
574.67	1330.69
575.02	1326.76
575.37	1322.21
575.72	1317.05
576.08	1313.52
576.43	1311.48
576.78	1308.57
577.13	1305.36
577.49	1301.43
577.84	1298.07
578.19	1295.14
578.54	1291.33
578.90	1288.36
579.25	1284.52
579.60	1280.57
579.95	1276.62
580.30	1273.31
580.66	1269.86
581.01	1265.60
581.36	1259.69
581.71	1256.02
582.06	1254.00
582.42	1250.19
582.77	1244.90
583.12	1241.12
583.47	1236.81
583.82	1232.55
584.17	1228.29
584.53	1225.00
584.88	1220.79
585.23	1217.02
585.58	1212.48
585.93	1207.05
586.28	1202.83
586.63	1199.57
586.98	1196.12
587.34	1192.64
587.69	1188.83
588.04	1184.64
588.39	1180.60
588.74	1176.95
589.09	1172.33
589.44	1166.43
589.79	1162.33
590.14	1158.57
590.49	1154.07
590.84	1149.02
591.19	1145.21
591.54	1141.07
591.89	1135.52
592.25	1133.69
592.60	1128.71
592.95	1125.36
593.30	1121.62
593.65	1116.88
594.00	1111.93
594.35	1112.69
594.70	1107.62
595.05	1102.24
595.40	1097.38
595.75	1093.26
596.10	1089.50
596.45	1085.69
596.80	1081.71
597.15	1076.29
597.50	1071.57
597.85	1068.00
598.19	1063.81
598.54	1059.14
598.89	1054.60
599.24	1051.07
599.59	1044.64
599.94	1040.74
600.29	1035.50
600.64	1031.45
600.99	1027.98
601.34	1024.19
601.69	1014.29
602.04	1009.21
602.39	1005.64
602.74	1001.71
603.08	997.10
603.43	993.79
603.78	989.38
604.13	984.67
604.48	980.31
604.83	976.64
605.18	971.95
605.53	968.19
605.87	963.38
606.22	958.93
606.57	954.07
606.92	949.93
607.27	945.55
607.62	941.45
607.96	937.86
608.31	932.57
608.66	927.67
609.01	923.24
609.36	919.64
609.70	914.88
610.05	910.00
610.40	906.19
610.75	900.64
611.10	895.86
611.44	891.93
611.79	887.33
612.14	883.24
612.49	878.10
612.83	873.21
613.18	869.14
613.53	865.07
613.88	860.33
614.22	855.14
614.57	850.45
614.92	846.14
615.27	841.17
615.61	836.19
615.96	832.00
616.31	827.64
616.65	823.45
617.00	818.88
617.35	814.83
617.70	809.81
618.04	806.12
618.39	801.36
618.74	797.10
619.08	792.98
619.43	788.67
619.78	784.74
620.12	781.17
620.47	776.55
620.82	772.43
621.16	768.50
621.51	766.19
621.85	762.02
622.20	758.00
622.55	753.38
622.89	750.00
623.24	746.07
623.59	742.14
623.93	738.74
624.28	734.86
624.62	733.00
624.97	731.12
625.32	727.33
625.66	724.48
626.01	720.48
626.35	717.36
626.70	713.02
627.04	709.93
627.39	705.86
627.73	703.50
628.08	700.17
628.43	696.48
628.77	692.48
629.12	688.95
629.46	685.95
629.81	683.12
630.15	679.48
630.50	675.88
630.84	671.88
631.19	667.93
631.53	665.05
631.88	659.40
632.22	654.45
632.57	651.38
632.91	647.38
633.26	644.40
633.60	640.57
633.95	637.52
634.29	633.69
634.64	630.64
634.98	626.48
635.32	623.52
635.67	620.57
636.01	616.79
636.36	613.31
636.70	610.17
637.05	607.00
637.39	604.05
637.73	601.45
638.08	599.52
638.42	596.76
638.77	593.50
639.11	590.93
639.45	587.71
639.80	584.19
640.14	581.14
640.49	578.12
640.83	575.21
641.17	572.45
641.52	569.50
641.86	566.00
642.20	563.76
642.55	560.24
642.89	556.93
643.23	554.38
643.58	552.29
643.92	548.67
644.26	545.52
644.61	543.10
644.95	539.64
645.29	536.21
645.64	533.31
645.98	530.21
646.32	527.74
646.66	525.02
647.01	521.76
647.35	519.64
647.69	516.79
648.04	514.29
648.38	511.86
648.72	509.90
649.06	507.48
649.41	504.43
649.75	502.00
650.09	500.14
650.43	497.21
650.78	493.93
651.12	491.24
651.46	489.00
651.80	485.93
652.14	483.10
652.49	480.93
652.83	478.29
653.17	476.12
653.51	472.90
653.85	470.31
654.20	468.33
654.54	465.79
654.88	463.21
655.22	461.67
655.56	458.86
655.90	455.98
656.25	453.76
656.59	451.19
656.93	448.98
657.27	446.88
657.61	444.26
657.95	442.69
658.29	440.81
658.64	438.95
658.98	436.62
659.32	434.81
659.66	432.88
660.00	430.55
660.34	428.38
660.68	426.45
661.02	424.76
661.36	422.29
661.70	420.26
662.05	418.90
662.39	416.88
662.73	415.57
663.07	414.86
663.41	413.12
663.75	411.02
664.09	409.02
664.43	406.71
664.77	405.29
665.11	403.02
665.45	401.33
665.79	399.60
666.13	397.95
666.47	396.19
666.81	394.21
667.15	392.24
667.49	390.57
667.83	389.52
668.17	387.60
668.51	386.43
668.85	385.12
669.19	383.90
669.53	381.45
669.87	379.57
670.21	376.93
670.55	375.43
670.89	375.29
671.23	373.43
671.57	371.90
671.91	370.38
672.25	369.33
672.58	368.83
672.92	366.71
673.26	365.64
673.60	364.48
673.94	363.07
674.28	361.76
674.62	360.98
674.96	359.26
675.30	358.33
675.64	357.02
675.97	355.36
676.31	353.38
676.65	351.90
676.99	351.14
677.33	349.79
677.67	348.64
678.01	346.31
678.34	345.74
678.68	345.36
679.02	344.12
679.36	342.67
679.70	340.57
680.04	339.74
680.37	338.55
680.71	337.17
681.05	336.21
681.39	335.33
681.73	333.52
682.06	332.14
682.40	330.76
682.74	330.10
683.08	330.00
683.42	328.62
683.75	328.40
684.09	326.79
684.43	325.62
684.77	324.50
685.10	323.52
685.44	322.24
685.78	320.48
686.12	319.29
686.45	318.24
686.79	317.24
687.13	316.45
687.46	315.52
687.80	315.12
688.14	313.88
688.48	313.26
688.81	312.67
689.15	312.26
689.49	311.36
689.82	310.14
690.16	308.19
690.50	307.52
690.83	305.74
691.17	304.45
691.51	303.74
691.84	302.90
692.18	301.86
692.52	300.98
692.85	300.38
693.19	300.36
693.52	299.31
693.86	298.19
694.20	297.33
694.53	296.48
694.87	295.21
695.21	294.31
695.54	293.17
695.88	291.79
696.21	290.36
696.55	289.43
696.88	288.62
697.22	287.90
697.56	287.50
697.89	286.76
698.23	286.60
698.56	285.43
698.90	284.74
699.23	283.95
699.57	283.26
699.90	282.19
700.24	280.71
700.58	280.21
700.91	280.29
701.25	281.24
701.58	281.17
701.92	281.14
702.25	280.71
702.59	279.93
702.92	279.52
703.26	279.24
703.59	278.67
703.93	279.69
704.26	279.29
704.60	278.79
704.93	278.14
705.26	277.19
705.60	277.24
705.93	276.14
706.27	276.29
706.60	276.02
706.94	276.45
707.27	276.12
707.61	275.88
707.94	274.64
708.27	272.31
708.61	270.81
708.94	270.02
709.28	269.38
709.61	268.90
709.94	268.64
710.28	267.98
710.61	267.69
710.95	265.10
711.28	266.00
711.61	265.26
711.95	265.45
712.28	264.79
712.61	263.93
712.95	264.67
713.28	264.76
713.61	263.83
713.95	262.52
714.28	262.07
714.61	261.33
714.95	260.74
715.28	260.19
715.61	259.86
715.95	259.31
716.28	258.55
716.61	258.48
716.95	257.71
717.28	257.26
717.61	256.55
717.94	256.38
718.28	254.19
718.61	253.67
718.94	252.60
719.27	252.24
719.61	252.05
719.94	250.88
720.27	249.29
720.60	248.86
720.94	248.62
721.27	248.29
721.60	248.10
721.93	247.79
722.27	247.86
722.60	247.48
722.93	246.90
723.26	246.86
723.59	246.24
723.93	246.29
724.26	246.19
724.59	245.86
724.92	245.52
725.25	245.74
725.59	245.33
725.92	245.57
726.25	245.17
726.58	245.00
726.91	244.88
727.24	244.98
727.57	244.79
727.91	244.24
728.24	244.02
728.57	243.50
728.90	243.48
729.23	242.43
729.56	243.31
729.89	242.98
730.22	242.62
730.55	242.12
730.89	241.90
731.22	241.40
731.55	241.02
731.88	240.74
732.21	240.38
732.54	240.05
732.87	239.74
733.20	239.64
733.53	239.38
733.86	238.90
734.19	238.33
734.52	238.40
734.85	239.50
735.18	239.10
735.51	239.62
735.84	239.57
736.17	240.19
736.50	238.86
736.83	240.98
737.16	240.74
737.49	240.60
737.82	240.17
738.15	240.21
738.48	240.21
738.81	239.81
739.14	239.55
739.47	239.21
739.80	238.62
740.13	238.74
740.46	237.93
740.79	237.67
741.12	237.43
741.45	237.00
741.78	235.43
742.11	235.81
742.44	235.14
742.77	235.17
743.10	234.62
743.43	234.48
743.75	232.24
744.08	234.67
744.41	234.45
744.74	234.10
745.07	233.74
745.40	233.71
745.73	234.69
746.06	234.26
746.39	234.36
746.71	234.10
747.04	233.52
747.37	233.64
747.70	233.74
748.03	233.83
748.36	233.86
748.68	233.98
749.01	233.10
749.34	232.79
749.67	232.48
750.00	232.71
750.33	234.00
750.65	234.10
750.98	231.29
751.31	231.31
751.64	231.52
751.97	232.52
752.29	232.26
752.62	231.12
752.95	231.02
753.28	230.64
753.60	230.60
753.93	231.00
754.26	231.00
754.59	230.26
754.91	229.79
755.24	229.45
755.57	229.07
755.90	229.07
756.22	228.62
756.55	228.14
756.88	227.40
757.20	225.81
757.53	225.00
757.86	224.88
758.19	224.86
758.51	224.74
758.84	223.40
759.17	223.07
759.49	223.07
759.82	223.60
760.15	223.62
760.47	223.33
760.80	222.67
761.13	222.88
761.45	222.64
761.78	222.67
762.11	222.50
762.43	222.33
762.76	221.93
763.08	222.24
763.41	222.17
763.74	222.10
764.06	222.10
764.39	222.12
764.71	222.14
765.04	221.71
765.37	221.07
765.69	220.90
766.02	220.81
766.34	220.71
766.67	219.90
767.00	220.31
767.32	221.38
767.65	222.57
767.97	222.14
768.30	222.52
768.62	222.45
768.95	222.36
769.27	222.31
769.60	222.64
769.92	222.33
770.25	222.00
770.57	221.64
770.90	221.52
771.22	221.14
771.55	221.05
771.87	221.31
772.20	221.43
772.52	223.02
772.85	225.36
773.17	225.33
773.50	225.33
773.82	224.79
774.15	223.88
774.47	222.52
774.80	222.12
775.12	221.86
775.45	221.62
775.77	221.60
776.09	221.62
776.42	221.36
776.74	221.79
777.07	221.81
777.39	221.93
777.72	221.62
778.04	222.12
778.36	221.88
778.69	221.62
779.01	221.48
779.33	219.88
779.66	217.60
779.98	217.48
780.31	217.29
780.63	218.24
780.95	218.38
781.28	218.31
781.60	218.29
781.92	218.19
782.25	218.45
782.57	218.36
782.89	218.21
783.22	218.33
783.54	217.83
783.86	217.83
784.19	217.71
784.51	218.40
784.83	217.79
785.16	217.79
785.48	217.83
785.80	217.79
786.12	217.71
786.45	217.76
786.77	217.71
787.09	217.86
787.42	216.98
787.74	217.12
788.06	217.17
