SpectraSuite Data File
++++++++++++++++++++++++++++++++++++
Date: Tue Apr 02 18:40:02 EDT 2013
User: group
Dark Spectrum Present: No
Reference Spectrum Present: No
Number of Sampled Component Spectra: 1
Spectrometers: USB2E7196
Integration Time (usec): 580000 (USB2E7196)
Spectra Averaged: 2 (USB2E7196)
Boxcar Smoothing: 10 (USB2E7196)
Correct for Electrical Dark: No (USB2E7196)
Strobe/Lamp Enabled: No (USB2E7196)
Correct for Detector Non-linearity: No (USB2E7196)
Correct for Stray Light: No (USB2E7196)
Number of Pixels in Processed Spectrum: 2048
>>>>>Begin Processed Spectral Data<<<<<
339.09	0.00
339.48	191.50
339.86	194.50
340.24	195.50
340.63	197.50
341.01	230.50
341.39	200.00
341.78	205.00
342.16	205.50
342.54	202.50
342.93	197.40
343.31	207.40
343.69	208.02
344.07	208.55
344.46	209.33
344.84	210.02
345.22	208.88
345.60	209.57
345.99	209.88
346.37	210.14
346.75	210.57
347.13	210.48
347.52	210.62
347.90	211.17
348.28	211.02
348.66	211.76
349.05	211.26
349.43	211.48
349.81	211.60
350.19	211.29
350.57	211.26
350.96	211.38
351.34	211.55
351.72	211.67
352.10	211.83
352.48	211.71
352.87	211.55
353.25	211.55
353.63	211.48
354.01	211.38
354.39	211.57
354.77	211.71
355.15	212.21
355.54	212.00
355.92	211.60
356.30	211.69
356.68	212.62
357.06	212.60
357.44	212.40
357.82	212.33
358.20	213.52
358.58	213.24
358.97	213.26
359.35	213.55
359.73	213.83
360.11	213.83
360.49	213.76
360.87	213.76
361.25	214.10
361.63	214.62
362.01	214.83
362.39	214.67
362.77	214.64
363.15	214.55
363.53	214.74
363.91	214.86
364.29	214.93
364.67	213.31
365.05	213.36
365.43	213.50
365.81	213.86
366.19	214.12
366.57	215.14
366.95	215.24
367.33	214.81
367.71	215.00
368.09	215.40
368.47	215.62
368.85	215.64
369.23	216.10
369.61	215.21
369.99	215.81
370.37	215.90
370.75	217.00
371.13	216.74
371.51	216.43
371.89	216.50
372.27	216.83
372.65	217.10
373.03	217.12
373.41	217.19
373.78	217.14
374.16	215.95
374.54	215.36
374.92	215.19
375.30	215.17
375.68	214.74
376.06	214.74
376.44	214.69
376.82	214.95
377.19	214.71
377.57	214.86
377.95	214.10
378.33	214.31
378.71	213.17
379.09	213.45
379.47	213.79
379.84	213.67
380.22	213.29
380.60	212.79
380.98	212.86
381.36	212.69
381.73	212.40
382.11	212.95
382.49	213.19
382.87	212.88
383.25	212.93
383.62	215.29
384.00	215.14
384.38	215.14
384.76	215.48
385.13	216.26
385.51	216.36
385.89	216.17
386.27	216.10
386.64	216.43
387.02	216.24
387.40	215.93
387.78	216.38
388.15	216.74
388.53	216.90
388.91	216.90
389.29	216.81
389.66	217.02
390.04	216.67
390.42	216.95
390.79	217.26
391.17	217.21
391.55	215.17
391.92	215.02
392.30	215.29
392.68	214.86
393.05	214.74
393.43	214.90
393.81	215.14
394.18	214.71
394.56	214.60
394.94	215.02
395.31	214.90
395.69	215.31
396.06	215.43
396.44	215.60
396.82	215.29
397.19	216.45
397.57	216.43
397.95	216.57
398.32	215.79
398.70	215.81
399.07	216.45
399.45	216.48
399.82	216.31
400.20	216.00
400.58	215.93
400.95	215.02
401.33	215.29
401.70	216.79
402.08	217.19
402.45	217.10
402.83	217.50
403.20	217.86
403.58	217.52
403.95	218.21
404.33	218.57
404.71	219.07
405.08	220.26
405.46	220.40
405.83	221.14
406.21	221.50
406.58	222.19
406.96	222.45
407.33	223.02
407.70	224.02
408.08	226.29
408.45	227.60
408.83	228.79
409.20	229.19
409.58	228.69
409.95	229.88
410.33	231.02
410.70	231.36
411.08	232.79
411.45	233.76
411.82	234.33
412.20	236.02
412.57	238.55
412.95	238.21
413.32	240.05
413.69	241.57
414.07	243.76
414.44	245.52
414.82	247.43
415.19	249.76
415.56	251.86
415.94	253.50
416.31	256.38
416.68	259.48
417.06	263.26
417.43	267.48
417.81	271.21
418.18	275.02
418.55	279.12
418.93	283.31
419.30	288.10
419.67	293.00
420.04	297.74
420.42	302.24
420.79	309.83
421.16	316.02
421.54	323.14
421.91	330.02
422.28	337.00
422.66	344.67
423.03	353.36
423.40	360.81
423.77	368.21
424.15	376.00
424.52	384.29
424.89	393.17
425.26	401.02
425.64	409.07
426.01	418.19
426.38	427.88
426.75	437.93
427.13	448.05
427.50	458.52
427.87	469.14
428.24	479.88
428.61	489.02
428.99	501.31
429.36	513.07
429.73	524.71
430.10	536.83
430.47	549.19
430.85	560.81
431.22	574.76
431.59	590.79
431.96	604.64
432.33	619.17
432.70	634.45
433.08	652.12
433.45	668.38
433.82	684.83
434.19	703.14
434.56	721.12
434.93	737.90
435.30	755.79
435.68	774.62
436.05	792.98
436.42	811.48
436.79	828.36
437.16	847.05
437.53	866.64
437.90	886.36
438.27	905.81
438.64	925.36
439.01	943.19
439.38	958.24
439.75	973.88
440.13	992.60
440.50	1008.90
440.87	1022.33
441.24	1036.86
441.61	1052.02
441.98	1063.55
442.35	1076.14
442.72	1090.31
443.09	1104.36
443.46	1112.67
443.83	1118.81
444.20	1123.88
444.57	1130.40
444.94	1133.26
445.31	1136.90
445.68	1142.60
446.05	1143.76
446.42	1142.14
446.79	1141.05
447.16	1138.79
447.53	1137.98
447.90	1131.05
448.27	1123.98
448.64	1115.02
449.01	1108.21
449.37	1096.88
449.74	1085.12
450.11	1073.88
450.48	1057.29
450.85	1039.69
451.22	1025.79
451.59	1012.48
451.96	999.93
452.33	983.48
452.70	968.48
453.07	950.31
453.43	928.98
453.80	910.57
454.17	893.69
454.54	876.88
454.91	859.60
455.28	841.90
455.65	826.12
456.02	813.38
456.38	799.48
456.75	782.95
457.12	768.50
457.49	754.64
457.86	738.60
458.23	728.29
458.59	715.50
458.96	703.43
459.33	692.50
459.70	680.74
460.07	671.36
460.43	660.81
460.80	651.02
461.17	643.07
461.54	634.45
461.91	625.45
462.27	616.76
462.64	608.88
463.01	600.69
463.38	593.19
463.74	582.14
464.11	575.10
464.48	568.55
464.85	561.71
465.21	556.67
465.58	551.52
465.95	544.60
466.32	539.12
466.68	533.07
467.05	527.33
467.42	522.14
467.78	516.12
468.15	510.45
468.52	506.48
468.88	500.43
469.25	495.48
469.62	492.10
469.98	487.88
470.35	483.93
470.72	480.12
471.08	474.83
471.45	471.93
471.82	469.10
472.18	465.38
472.55	462.74
472.92	459.24
473.28	456.02
473.65	452.71
474.02	450.00
474.38	447.74
474.75	445.36
475.11	442.79
475.48	441.19
475.85	439.69
476.21	437.50
476.58	436.24
476.94	435.31
477.31	433.83
477.67	432.79
478.04	431.90
478.41	430.98
478.77	432.83
479.14	431.38
479.50	430.38
479.87	430.10
480.23	430.07
480.60	429.62
480.96	429.14
481.33	430.43
481.69	430.26
482.06	430.26
482.42	430.95
482.79	431.74
483.15	432.21
483.52	433.12
483.88	433.57
484.25	434.05
484.61	434.88
484.98	435.48
485.34	437.55
485.71	438.88
486.07	440.40
486.44	440.19
486.80	442.26
487.17	443.74
487.53	446.40
487.90	448.74
488.26	451.81
488.62	455.31
488.99	456.88
489.35	459.90
489.72	462.69
490.08	465.55
490.44	468.21
490.81	471.79
491.17	474.86
491.54	478.57
491.90	482.64
492.26	486.81
492.63	490.76
492.99	494.14
493.36	498.90
493.72	503.74
494.08	508.17
494.45	513.62
494.81	519.48
495.17	524.21
495.54	529.50
495.90	534.60
496.26	539.81
496.63	545.45
496.99	551.55
497.35	557.69
497.72	564.19
498.08	570.50
498.44	577.40
498.80	584.90
499.17	591.74
499.53	598.88
499.89	605.79
500.26	613.02
500.62	620.40
500.98	628.33
501.34	635.76
501.71	644.36
502.07	651.55
502.43	659.24
502.79	666.83
503.16	674.40
503.52	682.57
503.88	690.50
504.24	699.31
504.60	707.81
504.97	716.52
505.33	724.79
505.69	734.93
506.05	743.43
506.41	751.81
506.78	760.33
507.14	768.81
507.50	777.36
507.86	786.90
508.22	795.79
508.59	803.52
508.95	812.81
509.31	821.45
509.67	830.05
510.03	838.31
510.39	846.76
510.75	855.52
511.12	863.79
511.48	872.19
511.84	880.40
512.20	888.76
512.56	897.36
512.92	906.33
513.28	914.45
513.64	922.29
514.00	930.26
514.37	939.17
514.73	947.71
515.09	956.40
515.45	963.50
515.81	971.33
516.17	979.55
516.53	987.02
516.89	994.10
517.25	1001.90
517.61	1010.55
517.97	1018.95
518.33	1026.17
518.69	1033.57
519.05	1041.29
519.41	1048.88
519.77	1056.79
520.13	1063.71
520.49	1069.40
520.85	1076.17
521.21	1083.74
521.57	1090.40
521.93	1096.36
522.29	1103.07
522.65	1109.07
523.01	1115.71
523.37	1122.07
523.73	1128.07
524.09	1134.26
524.45	1140.69
524.81	1146.52
525.17	1151.88
525.53	1157.79
525.89	1163.38
526.25	1169.69
526.61	1174.45
526.97	1179.95
527.33	1185.14
527.68	1191.90
528.04	1197.90
528.40	1203.14
528.76	1207.62
529.12	1213.36
529.48	1219.50
529.84	1224.26
530.20	1229.69
530.56	1235.67
530.91	1240.86
531.27	1246.48
531.63	1250.95
531.99	1255.81
532.35	1260.86
532.71	1265.81
533.07	1270.93
533.42	1278.74
533.78	1283.83
534.14	1290.50
534.50	1295.29
534.86	1301.00
535.21	1305.19
535.57	1311.10
535.93	1315.74
536.29	1321.98
536.65	1326.88
537.00	1331.48
537.36	1335.90
537.72	1339.88
538.08	1344.36
538.44	1348.05
538.79	1352.90
539.15	1357.48
539.51	1362.48
539.87	1367.29
540.22	1372.07
540.58	1376.74
540.94	1378.60
541.29	1382.83
541.65	1385.50
542.01	1390.02
542.37	1393.07
542.72	1396.02
543.08	1398.64
543.44	1402.29
543.79	1404.69
544.15	1409.05
544.51	1413.83
544.87	1418.55
545.22	1423.33
545.58	1427.24
545.94	1431.29
546.29	1435.48
546.65	1440.45
547.01	1443.60
547.36	1447.71
547.72	1450.95
548.07	1454.40
548.43	1458.45
548.79	1461.10
549.14	1465.62
549.50	1469.29
549.86	1472.81
550.21	1477.02
550.57	1481.45
550.92	1484.36
551.28	1488.57
551.64	1492.00
551.99	1494.60
552.35	1498.83
552.70	1502.36
553.06	1505.83
553.41	1510.05
553.77	1514.76
554.13	1518.07
554.48	1523.33
554.84	1528.45
555.19	1532.69
555.55	1538.12
555.90	1542.29
556.26	1547.19
556.61	1550.79
556.97	1554.26
557.32	1558.38
557.68	1562.10
558.03	1566.00
558.39	1570.86
558.74	1576.29
559.10	1580.26
559.45	1585.07
559.81	1588.31
560.16	1592.07
560.52	1597.10
560.87	1602.00
561.23	1605.24
561.58	1611.10
561.94	1615.67
562.29	1618.95
562.64	1624.21
563.00	1627.62
563.35	1632.07
563.71	1637.10
564.06	1642.69
564.42	1648.33
564.77	1654.00
565.12	1660.12
565.48	1667.55
565.83	1673.14
566.19	1677.83
566.54	1682.95
566.89	1687.98
567.25	1694.79
567.60	1701.26
567.96	1708.62
568.31	1714.14
568.66	1719.26
569.02	1722.48
569.37	1725.60
569.72	1730.52
570.08	1734.00
570.43	1738.48
570.78	1742.60
571.14	1746.55
571.49	1750.31
571.84	1754.19
572.20	1758.12
572.55	1762.33
572.90	1763.93
573.26	1767.29
573.61	1769.90
573.96	1773.21
574.31	1776.00
574.67	1777.43
575.02	1779.38
575.37	1779.64
575.72	1781.40
576.08	1784.12
576.43	1785.90
576.78	1789.00
577.13	1790.74
577.49	1793.10
577.84	1795.33
578.19	1796.90
578.54	1799.88
578.90	1802.17
579.25	1804.43
579.60	1806.38
579.95	1805.90
580.30	1807.14
580.66	1809.05
581.01	1810.60
581.36	1810.57
581.71	1811.79
582.06	1814.07
582.42	1815.55
582.77	1815.81
583.12	1816.31
583.47	1817.69
583.82	1819.50
584.17	1820.79
584.53	1821.93
584.88	1822.79
585.23	1823.24
585.58	1824.02
585.93	1822.90
586.28	1823.43
586.63	1823.50
586.98	1822.48
587.34	1824.52
587.69	1824.00
588.04	1823.90
588.39	1823.81
588.74	1823.40
589.09	1822.88
589.44	1820.81
589.79	1820.55
590.14	1820.40
590.49	1819.62
590.84	1817.76
591.19	1817.05
591.54	1815.45
591.89	1813.74
592.25	1814.31
592.60	1811.79
592.95	1810.43
593.30	1809.79
593.65	1807.19
594.00	1805.52
594.35	1809.19
594.70	1805.62
595.05	1804.19
595.40	1801.26
595.75	1799.36
596.10	1799.62
596.45	1798.07
596.80	1797.36
597.15	1794.83
597.50	1792.50
597.85	1791.45
598.19	1789.33
598.54	1786.93
598.89	1784.40
599.24	1783.43
599.59	1779.40
599.94	1778.36
600.29	1777.05
600.64	1775.12
600.99	1774.57
601.34	1773.24
601.69	1766.21
602.04	1764.98
602.39	1763.43
602.74	1762.14
603.08	1759.02
603.43	1756.29
603.78	1753.76
604.13	1751.00
604.48	1748.26
604.83	1746.48
605.18	1744.50
605.53	1742.33
605.87	1738.98
606.22	1736.67
606.57	1732.95
606.92	1729.90
607.27	1726.64
607.62	1723.83
607.96	1720.83
608.31	1716.81
608.66	1712.36
609.01	1708.62
609.36	1705.36
609.70	1701.00
610.05	1696.60
610.40	1693.43
610.75	1688.36
611.10	1684.52
611.44	1679.45
611.79	1674.48
612.14	1669.55
612.49	1663.79
612.83	1658.50
613.18	1654.69
613.53	1649.19
613.88	1643.64
614.22	1637.83
614.57	1631.83
614.92	1625.79
615.27	1620.07
615.61	1614.00
615.96	1608.43
616.31	1602.60
616.65	1598.02
617.00	1592.45
617.35	1587.48
617.70	1581.86
618.04	1576.60
618.39	1570.21
618.74	1564.83
619.08	1559.93
619.43	1554.45
619.78	1549.12
620.12	1544.33
620.47	1538.81
620.82	1532.45
621.16	1526.71
621.51	1522.05
621.85	1516.62
622.20	1511.21
622.55	1504.86
622.89	1499.10
623.24	1493.81
623.59	1488.05
623.93	1481.21
624.28	1477.19
624.62	1473.67
624.97	1468.95
625.32	1463.50
625.66	1459.17
626.01	1453.88
626.35	1449.05
626.70	1443.81
627.04	1439.29
627.39	1433.38
627.73	1428.36
628.08	1424.00
628.43	1418.57
628.77	1413.17
629.12	1408.19
629.46	1402.31
629.81	1396.81
630.15	1390.88
630.50	1385.17
630.84	1379.81
631.19	1373.38
631.53	1366.21
631.88	1358.12
632.22	1350.60
632.57	1345.67
632.91	1338.71
633.26	1332.57
633.60	1325.10
633.95	1318.38
634.29	1311.55
634.64	1304.74
634.98	1297.14
635.32	1292.43
635.67	1287.33
636.01	1280.86
636.36	1274.48
636.70	1269.98
637.05	1264.62
637.39	1259.24
637.73	1253.71
638.08	1248.48
638.42	1243.57
638.77	1238.40
639.11	1232.52
639.45	1226.95
639.80	1220.10
640.14	1214.24
640.49	1208.48
640.83	1203.29
641.17	1197.29
641.52	1190.90
641.86	1185.17
642.20	1180.33
642.55	1172.40
642.89	1165.90
643.23	1159.60
643.58	1154.36
643.92	1146.64
644.26	1139.83
644.61	1133.10
644.95	1125.81
645.29	1118.69
645.64	1112.69
645.98	1105.48
646.32	1099.12
646.66	1091.90
647.01	1085.36
647.35	1078.93
647.69	1072.07
648.04	1066.31
648.38	1060.17
648.72	1054.00
649.06	1047.76
649.41	1041.14
649.75	1035.29
650.09	1028.64
650.43	1021.83
650.78	1014.10
651.12	1007.29
651.46	1001.07
651.80	995.05
652.14	988.93
652.49	982.93
652.83	975.74
653.17	969.29
653.51	962.24
653.85	956.62
654.20	950.26
654.54	943.64
654.88	936.95
655.22	930.55
655.56	923.74
655.90	917.05
656.25	910.93
656.59	904.07
656.93	898.12
657.27	892.60
657.61	886.69
657.95	881.40
658.29	875.62
658.64	869.50
658.98	862.98
659.32	856.98
659.66	851.26
660.00	845.88
660.34	839.93
660.68	834.17
661.02	828.38
661.36	822.21
661.70	816.88
662.05	811.71
662.39	806.52
662.73	802.05
663.07	797.64
663.41	792.33
663.75	786.90
664.09	780.95
664.43	774.71
664.77	769.52
665.11	763.64
665.45	758.38
665.79	753.31
666.13	748.12
666.47	742.71
666.81	737.29
667.15	731.45
667.49	726.90
667.83	722.83
668.17	717.93
668.51	713.33
668.85	708.69
669.19	704.67
669.53	698.69
669.87	692.83
670.21	687.24
670.55	681.60
670.89	677.79
671.23	672.69
671.57	668.48
671.91	664.38
672.25	660.02
672.58	656.00
672.92	651.45
673.26	647.00
673.60	642.40
673.94	637.55
674.28	633.43
674.62	629.45
674.96	624.81
675.30	620.60
675.64	616.26
675.97	611.83
676.31	607.21
676.65	602.98
676.99	599.86
677.33	595.71
677.67	591.83
678.01	586.95
678.34	583.71
678.68	579.90
679.02	575.29
679.36	571.74
679.70	567.40
680.04	563.02
680.37	559.45
680.71	555.79
681.05	552.50
681.39	548.71
681.73	544.31
682.06	539.98
682.40	536.45
682.74	532.93
683.08	530.12
683.42	526.00
683.75	522.76
684.09	518.19
684.43	514.36
684.77	510.67
685.10	507.14
685.44	503.24
685.78	499.45
686.12	496.02
686.45	492.69
686.79	489.10
687.13	486.40
687.46	482.55
687.80	479.50
688.14	476.21
688.48	473.29
688.81	470.40
689.15	468.24
689.49	464.86
689.82	462.05
690.16	457.95
690.50	454.98
690.83	451.55
691.17	448.38
691.51	445.38
691.84	443.02
692.18	440.17
692.52	437.12
692.85	434.60
693.19	432.69
693.52	429.48
693.86	426.79
694.20	423.67
694.53	421.57
694.87	418.98
695.21	416.00
695.54	413.17
695.88	410.45
696.21	406.64
696.55	404.07
696.88	401.74
697.22	399.02
697.56	396.69
697.89	394.33
698.23	392.45
698.56	390.17
698.90	387.74
699.23	385.43
699.57	383.38
699.90	380.90
700.24	378.48
700.58	375.98
700.91	374.52
701.25	374.07
701.58	372.43
701.92	370.52
702.25	368.76
702.59	366.76
702.92	364.95
703.26	363.40
703.59	361.62
703.93	361.10
704.26	359.88
704.60	358.40
704.93	356.48
705.26	354.60
705.60	353.29
705.93	351.29
706.27	350.00
706.60	348.88
706.94	348.52
707.27	346.48
707.61	345.62
707.94	343.83
708.27	340.79
708.61	338.67
708.94	337.26
709.28	335.90
709.61	334.14
709.94	332.36
710.28	330.93
710.61	329.50
710.95	326.31
711.28	326.02
711.61	324.26
711.95	323.52
712.28	322.14
712.61	320.60
712.95	320.29
713.28	319.76
713.61	318.10
713.95	315.83
714.28	314.83
714.61	313.05
714.95	311.43
715.28	309.76
715.61	308.62
715.95	307.07
716.28	305.50
716.61	304.74
716.95	303.62
717.28	302.62
717.61	301.19
717.94	300.07
718.28	297.31
718.61	296.26
718.94	294.71
719.27	293.36
719.61	292.50
719.94	290.57
720.27	288.57
720.60	287.33
720.94	286.24
721.27	285.38
721.60	284.93
721.93	283.90
722.27	284.19
722.60	283.38
722.93	282.36
723.26	281.98
723.59	280.57
723.93	279.86
724.26	279.10
724.59	278.38
724.92	277.76
725.25	277.76
725.59	277.00
725.92	276.31
726.25	275.88
726.58	275.10
726.91	274.62
727.24	274.00
727.57	273.67
727.91	272.81
728.24	272.05
728.57	271.00
728.90	270.88
729.23	269.29
729.56	269.40
729.89	268.88
730.22	267.76
730.55	267.33
730.89	266.60
731.22	265.79
731.55	265.21
731.88	264.64
732.21	263.48
732.54	262.74
732.87	262.29
733.20	261.62
733.53	261.02
733.86	260.48
734.19	259.74
734.52	259.17
734.85	259.76
735.18	258.98
735.51	259.19
735.84	258.50
736.17	258.50
736.50	257.26
736.83	259.02
737.16	258.76
737.49	258.50
737.82	257.86
738.15	257.90
738.48	257.48
738.81	257.07
739.14	256.67
739.47	256.31
739.80	255.83
740.13	255.67
740.46	255.10
740.79	254.26
741.12	254.00
741.45	253.14
741.78	251.71
742.11	252.00
742.44	251.00
742.77	251.14
743.10	250.60
743.43	250.10
743.75	247.69
744.08	249.98
744.41	249.43
744.74	248.86
745.07	247.93
745.40	247.74
745.73	247.93
746.06	247.40
746.39	247.14
746.71	246.57
747.04	245.86
747.37	245.31
747.70	245.57
748.03	245.26
748.36	245.26
748.68	244.95
749.01	243.83
749.34	243.69
749.67	243.24
750.00	243.17
750.33	244.40
750.65	244.07
750.98	241.31
751.31	241.19
751.64	241.40
751.97	242.45
752.29	242.10
752.62	241.14
752.95	241.19
753.28	240.86
753.60	240.48
753.93	240.71
754.26	240.67
754.59	239.74
754.91	239.05
755.24	238.60
755.57	238.40
755.90	238.14
756.22	237.60
756.55	236.79
756.88	236.14
757.20	234.43
757.53	233.55
757.86	233.21
758.19	232.90
758.51	232.48
758.84	230.95
759.17	230.50
759.49	230.07
759.82	230.57
760.15	230.38
760.47	230.38
760.80	229.50
761.13	229.71
761.45	229.50
761.78	229.43
762.11	229.33
762.43	228.93
762.76	228.67
763.08	228.71
763.41	228.74
763.74	228.71
764.06	228.60
764.39	228.81
764.71	228.48
765.04	228.07
765.37	227.88
765.69	227.74
766.02	227.74
766.34	227.57
766.67	226.62
767.00	226.88
767.32	227.69
767.65	228.93
767.97	228.38
768.30	228.64
768.62	228.43
768.95	228.00
769.27	227.88
769.60	228.12
769.92	227.52
770.25	226.86
770.57	226.29
770.90	226.00
771.22	225.45
771.55	225.57
771.87	225.64
772.20	225.43
772.52	226.76
772.85	228.79
773.17	228.62
773.50	228.45
773.82	227.74
774.15	226.67
774.47	225.48
774.80	225.12
775.12	224.88
775.45	224.81
775.77	224.74
776.09	224.81
776.42	224.57
776.74	225.17
777.07	225.19
777.39	225.26
777.72	225.02
778.04	225.26
778.36	224.79
778.69	224.81
779.01	224.69
779.33	223.17
779.66	221.05
779.98	220.86
780.31	220.76
780.63	221.62
780.95	221.98
781.28	221.83
781.60	221.74
781.92	221.60
782.25	221.45
782.57	221.57
782.89	221.40
783.22	221.45
783.54	220.83
783.86	221.07
784.19	220.88
784.51	221.24
784.83	220.69
785.16	220.62
785.48	220.55
