SpectraSuite Data File
++++++++++++++++++++++++++++++++++++
Date: Tue Apr 02 18:44:25 EDT 2013
User: group
Dark Spectrum Present: No
Reference Spectrum Present: No
Number of Sampled Component Spectra: 1
Spectrometers: USB2E7196
Integration Time (usec): 580000 (USB2E7196)
Spectra Averaged: 2 (USB2E7196)
Boxcar Smoothing: 10 (USB2E7196)
Correct for Electrical Dark: No (USB2E7196)
Strobe/Lamp Enabled: No (USB2E7196)
Correct for Detector Non-linearity: No (USB2E7196)
Correct for Stray Light: No (USB2E7196)
Number of Pixels in Processed Spectrum: 2048
>>>>>Begin Processed Spectral Data<<<<<
339.09	0.00
339.48	189.50
339.86	197.00
340.24	197.00
340.63	200.00
341.01	233.50
341.39	203.00
341.78	207.00
342.16	212.00
342.54	206.00
342.93	198.26
343.31	208.07
343.69	208.93
344.07	209.29
344.46	210.07
344.84	210.50
345.22	209.36
345.60	209.67
345.99	209.90
346.37	209.74
346.75	210.05
347.13	209.90
347.52	210.00
347.90	210.88
348.28	210.90
348.66	211.45
349.05	211.19
349.43	211.62
349.81	211.88
350.19	212.00
350.57	212.33
350.96	212.60
351.34	212.90
351.72	212.95
352.10	213.05
352.48	212.98
352.87	212.95
353.25	212.74
353.63	212.76
354.01	212.67
354.39	213.05
354.77	212.83
355.15	213.69
355.54	213.62
355.92	213.00
356.30	213.19
356.68	214.29
357.06	214.17
357.44	213.81
357.82	213.74
358.20	214.79
358.58	214.67
358.97	214.86
359.35	215.26
359.73	215.86
360.11	216.05
360.49	216.17
360.87	216.48
361.25	217.07
361.63	217.83
362.01	217.69
362.39	217.48
362.77	217.86
363.15	217.55
363.53	217.64
363.91	217.79
364.29	217.64
364.67	215.74
365.05	215.83
365.43	216.00
365.81	216.31
366.19	216.29
366.57	217.00
366.95	216.86
367.33	216.48
367.71	216.36
368.09	216.69
368.47	216.62
368.85	216.67
369.23	217.07
369.61	216.17
369.99	217.29
370.37	217.60
370.75	218.38
371.13	217.90
371.51	217.79
371.89	217.88
372.27	217.83
372.65	217.98
373.03	218.00
373.41	217.76
373.78	217.45
374.16	216.29
374.54	215.86
374.92	215.71
375.30	215.67
375.68	215.43
376.06	215.52
376.44	215.26
376.82	215.14
377.19	214.95
377.57	214.88
377.95	213.90
378.33	213.69
378.71	212.67
379.09	213.12
379.47	213.38
379.84	213.02
380.22	212.81
380.60	212.55
380.98	212.50
381.36	212.40
381.73	212.33
382.11	212.43
382.49	212.29
382.87	212.24
383.25	212.24
383.62	214.31
384.00	213.98
384.38	214.05
384.76	214.26
385.13	214.90
385.51	215.21
385.89	214.95
386.27	215.00
386.64	215.29
387.02	215.05
387.40	214.67
387.78	214.98
388.15	215.36
388.53	215.31
388.91	215.40
389.29	215.40
389.66	215.60
390.04	215.69
390.42	216.02
390.79	215.98
391.17	215.90
391.55	213.90
391.92	213.71
392.30	214.00
392.68	213.71
393.05	213.43
393.43	213.45
393.81	213.57
394.18	213.26
394.56	213.33
394.94	213.95
395.31	213.88
395.69	214.55
396.06	214.52
396.44	214.81
396.82	214.57
397.19	215.76
397.57	215.79
397.95	216.05
398.32	215.67
398.70	215.95
399.07	216.40
399.45	216.07
399.82	216.36
400.20	216.10
400.58	216.29
400.95	215.55
401.33	215.95
401.70	217.64
402.08	217.86
402.45	217.64
402.83	217.52
403.20	218.10
403.58	217.71
403.95	218.48
404.33	218.86
404.71	219.31
405.08	220.40
405.46	220.64
405.83	220.95
406.21	221.36
406.58	221.83
406.96	221.90
407.33	223.10
407.70	223.52
408.08	225.88
408.45	226.69
408.83	227.95
409.20	228.36
409.58	227.93
409.95	229.12
410.33	230.19
410.70	230.79
411.08	232.14
411.45	233.29
411.82	233.90
412.20	235.43
412.57	237.88
412.95	237.45
413.32	239.19
413.69	240.67
414.07	242.19
414.44	244.02
414.82	246.36
415.19	248.45
415.56	250.79
415.94	251.88
416.31	254.81
416.68	257.12
417.06	260.38
417.43	263.95
417.81	267.45
418.18	271.05
418.55	274.88
418.93	278.36
419.30	282.50
419.67	286.81
420.04	291.00
420.42	295.31
420.79	302.31
421.16	307.83
421.54	314.50
421.91	320.71
422.28	326.88
422.66	333.36
423.03	341.17
423.40	348.07
423.77	355.24
424.15	361.98
424.52	369.88
424.89	377.98
425.26	385.36
425.64	392.62
426.01	400.76
426.38	409.67
426.75	419.21
427.13	428.50
427.50	438.10
427.87	448.26
428.24	457.95
428.61	466.24
428.99	477.55
429.36	488.14
429.73	499.26
430.10	510.90
430.47	522.95
430.85	532.81
431.22	545.33
431.59	560.14
431.96	572.69
432.33	586.86
432.70	601.26
433.08	617.83
433.45	633.07
433.82	648.69
434.19	665.36
434.56	681.95
434.93	697.31
435.30	713.67
435.68	731.45
436.05	748.55
436.42	765.83
436.79	781.83
437.16	799.12
437.53	817.43
437.90	835.05
438.27	851.86
438.64	870.45
439.01	887.64
439.38	901.12
439.75	916.07
440.13	932.57
440.50	948.00
440.87	960.74
441.24	974.00
441.61	987.74
441.98	998.55
442.35	1010.83
442.72	1023.88
443.09	1037.00
443.46	1044.21
443.83	1049.67
444.20	1053.98
444.57	1059.29
444.94	1062.86
445.31	1065.71
445.68	1071.02
446.05	1072.48
446.42	1071.07
446.79	1069.88
447.16	1068.69
447.53	1066.93
447.90	1060.48
448.27	1054.14
448.64	1045.48
449.01	1039.88
449.37	1029.24
449.74	1018.45
450.11	1006.67
450.48	992.26
450.85	976.50
451.22	964.00
451.59	952.05
451.96	941.12
452.33	926.21
452.70	911.98
453.07	895.14
453.43	875.79
453.80	860.55
454.17	845.45
454.54	830.02
454.91	813.60
455.28	798.38
455.65	783.93
456.02	772.33
456.38	759.69
456.75	743.69
457.12	730.71
457.49	717.67
457.86	703.74
458.23	693.81
458.59	681.64
458.96	669.71
459.33	659.02
459.70	648.17
460.07	639.43
460.43	629.14
460.80	620.88
461.17	613.79
461.54	604.83
461.91	596.29
462.27	588.05
462.64	580.83
463.01	573.88
463.38	567.31
463.74	556.57
464.11	549.26
464.48	543.81
464.85	537.74
465.21	533.90
465.58	529.05
465.95	522.36
466.32	517.62
466.68	512.48
467.05	507.81
467.42	502.81
467.78	497.74
468.15	492.95
468.52	488.83
468.88	482.79
469.25	477.67
469.62	474.38
469.98	470.38
470.35	466.98
470.72	463.12
471.08	458.62
471.45	455.62
471.82	453.31
472.18	449.81
472.55	446.98
472.92	442.88
473.28	439.74
473.65	436.69
474.02	434.12
474.38	432.00
474.75	429.33
475.11	427.24
475.48	425.26
475.85	423.50
476.21	421.40
476.58	420.43
476.94	419.93
477.31	418.71
477.67	417.48
478.04	416.31
478.41	415.55
478.77	416.50
479.14	415.55
479.50	414.64
479.87	414.43
480.23	414.21
480.60	414.17
480.96	413.93
481.33	414.79
481.69	414.93
482.06	415.00
482.42	415.74
482.79	415.88
483.15	416.40
483.52	417.81
483.88	418.60
484.25	419.19
484.61	419.71
484.98	420.26
485.34	422.12
485.71	423.55
486.07	424.71
486.44	424.43
486.80	426.17
487.17	427.71
487.53	429.48
487.90	431.83
488.26	434.90
488.62	437.83
488.99	439.57
489.35	442.05
489.72	444.38
490.08	446.81
490.44	449.57
490.81	452.62
491.17	455.12
491.54	458.48
491.90	462.26
492.26	465.71
492.63	469.48
492.99	472.93
493.36	477.21
493.72	482.24
494.08	486.86
494.45	491.40
494.81	496.69
495.17	501.50
495.54	506.26
495.90	510.29
496.26	514.95
496.63	520.90
496.99	526.43
497.35	532.21
497.72	538.38
498.08	544.43
498.44	550.48
498.80	557.33
499.17	563.10
499.53	569.31
499.89	576.76
500.26	583.86
500.62	590.24
500.98	597.36
501.34	603.43
501.71	610.29
502.07	617.55
502.43	623.98
502.79	631.17
503.16	638.19
503.52	645.40
503.88	652.26
504.24	659.43
504.60	667.05
504.97	675.14
505.33	682.31
505.69	691.05
506.05	698.74
506.41	706.67
506.78	714.67
507.14	722.36
507.50	729.83
507.86	737.17
508.22	745.26
508.59	752.43
508.95	760.50
509.31	769.60
509.67	777.12
510.03	785.43
510.39	793.07
510.75	801.33
511.12	808.83
511.48	817.48
511.84	825.10
512.20	832.60
512.56	839.93
512.92	847.74
513.28	854.12
513.64	861.81
514.00	868.57
514.37	875.90
514.73	883.14
515.09	890.86
515.45	898.12
515.81	904.98
516.17	911.69
516.53	917.60
516.89	923.12
517.25	929.64
517.61	936.69
517.97	943.10
518.33	949.02
518.69	956.57
519.05	962.71
519.41	968.67
519.77	975.88
520.13	981.98
520.49	987.95
520.85	993.90
521.21	1000.38
521.57	1006.86
521.93	1012.07
522.29	1017.67
522.65	1021.43
523.01	1027.00
523.37	1032.00
523.73	1037.31
524.09	1042.86
524.45	1047.40
524.81	1051.69
525.17	1055.98
525.53	1060.45
525.89	1065.17
526.25	1069.40
526.61	1073.02
526.97	1077.19
527.33	1080.74
527.68	1086.62
528.04	1090.33
528.40	1094.38
528.76	1098.17
529.12	1101.64
529.48	1106.98
529.84	1111.00
530.20	1116.05
530.56	1120.62
530.91	1125.05
531.27	1129.50
531.63	1134.10
531.99	1138.14
532.35	1142.69
532.71	1146.02
533.07	1150.43
533.42	1156.60
533.78	1160.48
534.14	1165.64
534.50	1170.00
534.86	1174.00
535.21	1175.81
535.57	1180.69
535.93	1184.45
536.29	1188.88
536.65	1193.10
537.00	1196.07
537.36	1199.81
537.72	1203.55
538.08	1206.43
538.44	1210.29
538.79	1213.74
539.15	1216.12
539.51	1220.43
539.87	1224.07
540.22	1227.83
540.58	1231.43
540.94	1232.55
541.29	1235.45
541.65	1236.79
542.01	1239.38
542.37	1242.60
542.72	1244.88
543.08	1246.79
543.44	1250.14
543.79	1250.69
544.15	1252.93
544.51	1256.71
544.87	1259.90
545.22	1262.29
545.58	1264.64
545.94	1266.64
546.29	1269.12
546.65	1272.45
547.01	1273.86
547.36	1275.52
547.72	1277.52
548.07	1280.31
548.43	1282.93
548.79	1285.26
549.14	1288.57
549.50	1291.86
549.86	1293.02
550.21	1296.52
550.57	1299.88
550.92	1301.98
551.28	1306.64
551.64	1309.64
551.99	1311.81
552.35	1313.60
552.70	1316.64
553.06	1320.69
553.41	1323.10
553.77	1327.45
554.13	1330.57
554.48	1335.62
554.84	1341.17
555.19	1346.00
555.55	1350.71
555.90	1354.43
556.26	1358.40
556.61	1362.26
556.97	1365.62
557.32	1370.31
557.68	1374.50
558.03	1378.38
558.39	1382.55
558.74	1385.12
559.10	1389.45
559.45	1393.43
559.81	1397.95
560.16	1401.29
560.52	1405.00
560.87	1411.26
561.23	1413.64
561.58	1419.83
561.94	1422.81
562.29	1425.81
562.64	1429.83
563.00	1433.48
563.35	1438.36
563.71	1443.36
564.06	1448.71
564.42	1453.95
564.77	1459.90
565.12	1466.21
565.48	1473.71
565.83	1479.64
566.19	1486.62
566.54	1491.83
566.89	1497.69
567.25	1504.26
567.60	1512.29
567.96	1520.26
568.31	1526.45
568.66	1533.26
569.02	1537.81
569.37	1544.43
569.72	1550.02
570.08	1555.93
570.43	1561.26
570.78	1566.43
571.14	1572.62
571.49	1577.10
571.84	1582.62
572.20	1587.07
572.55	1591.31
572.90	1593.50
573.26	1598.74
573.61	1602.62
573.96	1607.81
574.31	1612.62
574.67	1615.88
575.02	1618.14
575.37	1619.57
575.72	1621.83
576.08	1625.21
576.43	1628.76
576.78	1631.43
577.13	1635.45
577.49	1639.17
577.84	1642.76
578.19	1647.12
578.54	1650.19
578.90	1655.10
579.25	1658.07
579.60	1660.83
579.95	1663.90
580.30	1668.14
580.66	1671.69
581.01	1675.14
581.36	1677.31
581.71	1679.95
582.06	1685.21
582.42	1689.24
582.77	1693.36
583.12	1696.86
583.47	1701.29
583.82	1704.05
584.17	1708.05
584.53	1711.79
584.88	1715.17
585.23	1719.02
585.58	1721.33
585.93	1724.02
586.28	1727.07
586.63	1730.67
586.98	1734.86
587.34	1737.93
587.69	1739.95
588.04	1742.48
588.39	1745.29
588.74	1746.17
589.09	1748.93
589.44	1749.50
589.79	1751.62
590.14	1753.57
590.49	1754.64
590.84	1755.33
591.19	1757.31
591.54	1759.50
591.89	1760.45
592.25	1763.43
592.60	1763.90
592.95	1765.17
593.30	1766.81
593.65	1767.29
594.00	1767.57
594.35	1773.93
594.70	1773.79
595.05	1775.00
595.40	1775.10
595.75	1775.24
596.10	1777.93
596.45	1779.07
596.80	1779.62
597.15	1779.95
597.50	1780.21
597.85	1781.90
598.19	1782.69
598.54	1783.43
598.89	1782.26
599.24	1783.26
599.59	1781.69
599.94	1782.10
600.29	1782.71
600.64	1782.24
600.99	1782.50
601.34	1783.02
601.69	1777.21
602.04	1777.74
602.39	1777.67
602.74	1777.52
603.08	1776.95
603.43	1777.50
603.78	1775.79
604.13	1776.36
604.48	1776.90
604.83	1776.74
605.18	1775.81
605.53	1775.38
605.87	1774.86
606.22	1774.17
606.57	1773.36
606.92	1772.10
607.27	1771.05
607.62	1770.33
607.96	1769.36
608.31	1768.95
608.66	1767.93
609.01	1766.67
609.36	1765.76
609.70	1764.69
610.05	1762.88
610.40	1762.00
610.75	1759.29
611.10	1758.95
611.44	1756.55
611.79	1753.83
612.14	1751.05
612.49	1748.14
612.83	1745.50
613.18	1742.76
613.53	1740.86
613.88	1737.00
614.22	1734.07
614.57	1730.21
614.92	1726.17
615.27	1723.43
615.61	1718.26
615.96	1713.67
616.31	1709.33
616.65	1706.26
617.00	1702.43
617.35	1698.83
617.70	1695.21
618.04	1691.10
618.39	1686.88
618.74	1683.29
619.08	1679.31
619.43	1675.67
619.78	1673.00
620.12	1668.95
620.47	1665.57
620.82	1661.14
621.16	1657.31
621.51	1654.45
621.85	1650.76
622.20	1646.00
622.55	1641.36
622.89	1639.00
623.24	1636.83
623.59	1633.48
623.93	1629.45
624.28	1625.26
624.62	1623.21
624.97	1619.19
625.32	1615.29
625.66	1611.69
626.01	1607.10
626.35	1603.62
626.70	1599.60
627.04	1595.95
627.39	1592.38
627.73	1589.24
628.08	1586.38
628.43	1582.86
628.77	1578.02
629.12	1574.60
629.46	1571.81
629.81	1568.14
630.15	1562.67
630.50	1556.67
630.84	1552.24
631.19	1546.83
631.53	1542.50
631.88	1535.48
632.22	1530.14
632.57	1526.60
632.91	1520.00
633.26	1515.45
633.60	1510.57
633.95	1505.55
634.29	1499.98
634.64	1495.55
634.98	1489.38
635.32	1485.05
635.67	1481.00
636.01	1476.95
636.36	1471.45
636.70	1467.76
637.05	1462.60
637.39	1458.43
637.73	1454.76
638.08	1451.10
638.42	1447.50
638.77	1443.24
639.11	1439.60
639.45	1434.98
639.80	1430.12
640.14	1427.17
640.49	1421.81
640.83	1415.52
641.17	1411.10
641.52	1405.79
641.86	1400.52
642.20	1396.29
642.55	1389.50
642.89	1383.50
643.23	1377.88
643.58	1374.05
643.92	1366.55
644.26	1361.00
644.61	1356.50
644.95	1351.14
645.29	1344.36
645.64	1338.98
645.98	1333.45
646.32	1328.36
646.66	1323.12
647.01	1316.26
647.35	1309.43
647.69	1303.21
648.04	1298.69
648.38	1293.07
648.72	1287.71
649.06	1281.86
649.41	1275.12
649.75	1269.21
650.09	1263.26
650.43	1256.50
650.78	1248.88
651.12	1243.69
651.46	1237.57
651.80	1230.17
652.14	1224.05
652.49	1218.81
652.83	1211.67
653.17	1204.17
653.51	1196.62
653.85	1190.43
654.20	1184.48
654.54	1177.05
654.88	1171.57
655.22	1165.76
655.56	1159.02
655.90	1152.48
656.25	1145.95
656.59	1140.26
656.93	1134.14
657.27	1128.10
657.61	1122.19
657.95	1116.71
658.29	1110.26
658.64	1104.55
658.98	1098.19
659.32	1091.10
659.66	1083.95
660.00	1077.57
660.34	1071.31
660.68	1064.33
661.02	1058.17
661.36	1052.07
661.70	1047.64
662.05	1041.83
662.39	1035.76
662.73	1029.64
663.07	1024.45
663.41	1018.36
663.75	1011.64
664.09	1006.12
664.43	999.60
664.77	993.07
665.11	986.05
665.45	980.36
665.79	974.71
666.13	969.14
666.47	963.43
666.81	957.38
667.15	951.81
667.49	946.45
667.83	942.24
668.17	936.07
668.51	930.33
668.85	924.71
669.19	919.38
669.53	912.57
669.87	906.50
670.21	900.45
670.55	894.93
670.89	890.12
671.23	884.55
671.57	879.29
671.91	874.21
672.25	868.81
672.58	863.88
672.92	857.64
673.26	851.64
673.60	846.12
673.94	840.98
674.28	835.67
674.62	830.50
674.96	824.90
675.30	819.79
675.64	814.45
675.97	808.71
676.31	803.14
676.65	797.71
676.99	793.95
677.33	788.83
677.67	783.48
678.01	778.05
678.34	773.10
678.68	768.81
679.02	763.60
679.36	759.29
679.70	753.40
680.04	748.60
680.37	743.64
680.71	739.00
681.05	734.69
681.39	730.02
681.73	725.67
682.06	720.98
682.40	716.57
682.74	712.69
683.08	708.60
683.42	703.10
683.75	698.71
684.09	693.12
684.43	687.90
684.77	683.14
685.10	678.33
685.44	673.21
685.78	668.26
686.12	663.74
686.45	659.38
686.79	655.10
687.13	651.40
687.46	647.50
687.80	643.83
688.14	639.12
688.48	634.88
688.81	630.40
689.15	626.88
689.49	622.36
689.82	617.21
690.16	612.38
690.50	608.52
690.83	604.36
691.17	599.69
691.51	595.55
691.84	591.98
692.18	587.71
692.52	584.17
692.85	580.48
693.19	577.33
693.52	573.26
693.86	568.67
694.20	563.76
694.53	559.71
694.87	555.14
695.21	550.79
695.54	546.60
695.88	542.07
696.21	537.00
696.55	533.43
696.88	530.26
697.22	526.48
697.56	523.33
697.89	519.76
698.23	516.71
698.56	513.17
698.90	509.33
699.23	505.40
699.57	501.67
699.90	497.60
700.24	493.52
700.58	489.76
700.91	487.31
701.25	486.05
701.58	483.81
701.92	481.14
702.25	478.38
702.59	475.21
702.92	472.62
703.26	470.17
703.59	466.86
703.93	465.24
704.26	462.26
704.60	459.10
704.93	455.98
705.26	452.88
705.60	450.62
705.93	447.50
706.27	445.38
706.60	443.17
706.94	441.19
707.27	438.45
707.61	436.26
707.94	433.24
708.27	428.52
708.61	424.81
708.94	421.93
709.28	419.67
709.61	417.02
709.94	414.57
710.28	412.17
710.61	409.88
710.95	405.50
711.28	405.07
711.61	402.69
711.95	400.86
712.28	398.21
712.61	395.57
712.95	394.48
713.28	393.14
713.61	390.48
713.95	387.60
714.28	385.71
714.61	383.38
714.95	381.40
715.28	379.76
715.61	377.86
715.95	376.05
716.28	373.81
716.61	372.31
716.95	370.10
717.28	367.90
717.61	365.86
717.94	364.33
718.28	360.43
718.61	358.79
718.94	356.71
719.27	355.19
719.61	353.45
719.94	350.93
720.27	347.79
720.60	345.69
720.94	344.07
721.27	342.38
721.60	341.12
721.93	339.52
722.27	338.71
722.60	337.50
722.93	335.71
723.26	334.43
723.59	332.29
723.93	330.93
724.26	329.71
724.59	328.26
724.92	326.71
725.25	326.07
725.59	324.62
725.92	323.79
726.25	322.52
726.58	321.55
726.91	320.40
727.24	319.86
727.57	318.98
727.91	317.48
728.24	316.52
728.57	314.90
728.90	313.76
729.23	311.64
729.56	311.40
729.89	310.24
730.22	309.12
730.55	307.88
730.89	306.74
731.22	305.81
731.55	304.67
731.88	303.98
732.21	302.71
732.54	301.36
732.87	300.19
733.20	299.38
733.53	298.19
733.86	297.12
734.19	295.76
734.52	295.07
734.85	295.88
735.18	294.60
735.51	294.52
735.84	294.10
736.17	294.00
736.50	291.93
736.83	293.31
737.16	292.17
737.49	291.64
737.82	290.81
738.15	290.19
738.48	289.55
738.81	288.52
739.14	287.29
739.47	286.38
739.80	285.38
740.13	284.71
740.46	283.62
740.79	282.79
741.12	281.90
741.45	280.83
741.78	278.55
742.11	278.19
742.44	276.74
742.77	275.86
743.10	274.69
743.43	273.83
743.75	271.24
744.08	273.43
744.41	272.62
744.74	271.93
745.07	270.52
745.40	270.19
745.73	270.43
746.06	270.07
746.39	269.71
746.71	268.71
747.04	267.64
747.37	266.93
747.70	266.60
748.03	265.95
748.36	265.79
748.68	265.12
749.01	264.10
749.34	263.57
749.67	263.31
750.00	263.00
750.33	264.07
750.65	263.62
750.98	260.19
751.31	259.86
751.64	259.45
751.97	260.29
752.29	259.26
752.62	257.76
752.95	257.02
753.28	256.38
753.60	255.88
753.93	256.12
754.26	255.88
754.59	254.74
754.91	254.36
755.24	253.31
755.57	253.19
755.90	252.40
756.22	251.93
756.55	250.95
756.88	250.02
757.20	248.31
757.53	247.12
757.86	246.74
758.19	246.40
758.51	245.83
758.84	244.14
759.17	243.79
759.49	243.50
759.82	244.19
760.15	244.02
760.47	243.81
760.80	242.71
761.13	242.67
761.45	242.33
761.78	241.93
762.11	241.62
762.43	241.02
762.76	240.52
763.08	240.26
763.41	240.17
763.74	240.02
764.06	239.21
764.39	238.95
764.71	238.48
765.04	237.71
765.37	237.19
765.69	236.81
766.02	236.45
766.34	235.69
766.67	234.83
767.00	234.79
767.32	235.71
767.65	236.79
767.97	236.21
768.30	236.29
768.62	236.02
768.95	235.88
769.27	235.62
769.60	235.95
769.92	235.33
770.25	234.45
770.57	233.79
770.90	233.93
771.22	233.45
771.55	233.43
771.87	233.52
772.20	233.36
772.52	234.76
772.85	236.98
773.17	237.21
773.50	236.48
773.82	235.93
774.15	234.67
774.47	233.02
774.80	232.69
775.12	232.12
775.45	231.83
775.77	231.40
776.09	231.38
776.42	231.14
776.74	231.26
777.07	231.29
777.39	231.21
777.72	230.83
778.04	231.12
778.36	230.88
778.69	230.79
779.01	230.79
779.33	228.98
779.66	226.62
779.98	226.19
780.31	226.29
780.63	227.00
780.95	227.26
781.28	227.31
781.60	227.00
781.92	227.05
782.25	226.88
782.57	226.83
782.89	226.12
783.22	225.95
783.54	225.69
783.86	225.76
784.19	225.64
784.51	226.24
784.83	225.88
785.16	225.62
