SpectraSuite Data File
++++++++++++++++++++++++++++++++++++
Date: Tue Apr 02 18:45:41 EDT 2013
User: group
Dark Spectrum Present: No
Reference Spectrum Present: No
Number of Sampled Component Spectra: 1
Spectrometers: USB2E7196
Integration Time (usec): 580000 (USB2E7196)
Spectra Averaged: 2 (USB2E7196)
Boxcar Smoothing: 10 (USB2E7196)
Correct for Electrical Dark: No (USB2E7196)
Strobe/Lamp Enabled: No (USB2E7196)
Correct for Detector Non-linearity: No (USB2E7196)
Correct for Stray Light: No (USB2E7196)
Number of Pixels in Processed Spectrum: 2048
>>>>>Begin Processed Spectral Data<<<<<
339.09	0.00
339.48	193.50
339.86	190.00
340.24	195.00
340.63	197.50
341.01	233.50
341.39	203.50
341.78	205.50
342.16	208.50
342.54	206.00
342.93	197.52
343.31	207.36
343.69	207.88
344.07	208.57
344.46	209.52
344.84	210.12
345.22	208.98
345.60	209.45
345.99	209.52
346.37	209.55
346.75	209.76
347.13	209.88
347.52	210.24
347.90	210.86
348.28	210.88
348.66	211.40
349.05	210.86
349.43	211.05
349.81	211.19
350.19	211.10
350.57	211.38
350.96	211.43
351.34	211.62
351.72	211.86
352.10	212.17
352.48	212.00
352.87	211.98
353.25	211.90
353.63	211.60
354.01	211.71
354.39	211.79
354.77	211.76
355.15	212.38
355.54	212.05
355.92	211.50
356.30	211.69
356.68	212.86
357.06	213.05
357.44	212.62
357.82	212.57
358.20	213.64
358.58	213.55
358.97	213.57
359.35	213.88
359.73	214.14
360.11	214.12
360.49	214.07
360.87	214.21
361.25	214.67
361.63	215.43
362.01	215.45
362.39	215.55
362.77	215.79
363.15	215.64
363.53	215.76
363.91	215.93
364.29	215.79
364.67	213.93
365.05	213.90
365.43	214.19
365.81	214.57
366.19	214.67
366.57	215.40
366.95	215.36
367.33	214.95
367.71	214.76
368.09	215.05
368.47	215.29
368.85	215.26
369.23	215.55
369.61	214.83
369.99	215.69
370.37	215.86
370.75	216.86
371.13	216.45
371.51	216.12
371.89	216.40
372.27	216.71
372.65	217.12
373.03	217.14
373.41	216.98
373.78	216.88
374.16	215.71
374.54	215.24
374.92	215.26
375.30	215.38
375.68	215.17
376.06	215.33
376.44	215.02
376.82	214.88
377.19	214.62
377.57	214.50
377.95	213.64
378.33	213.48
378.71	212.24
379.09	212.69
379.47	213.12
379.84	212.69
380.22	212.43
380.60	211.93
380.98	211.90
381.36	212.02
381.73	211.81
382.11	212.24
382.49	212.33
382.87	212.17
383.25	212.21
383.62	214.88
384.00	214.26
384.38	214.36
384.76	214.95
385.13	215.67
385.51	215.88
385.89	215.71
386.27	215.71
386.64	215.90
387.02	215.50
387.40	215.24
387.78	215.48
388.15	215.60
388.53	215.55
388.91	215.45
389.29	215.12
389.66	215.19
390.04	214.93
390.42	215.19
390.79	215.24
391.17	215.24
391.55	212.76
391.92	212.98
392.30	213.21
392.68	212.86
393.05	212.69
393.43	212.79
393.81	212.95
394.18	212.76
394.56	213.07
394.94	213.52
395.31	213.52
395.69	214.02
396.06	214.19
396.44	214.52
396.82	214.76
397.19	215.95
397.57	215.90
397.95	216.40
398.32	215.76
398.70	215.90
399.07	216.52
399.45	216.74
399.82	216.86
400.20	216.74
400.58	216.74
400.95	215.95
401.33	216.33
401.70	218.00
402.08	218.10
402.45	218.00
402.83	218.45
403.20	218.74
403.58	218.86
403.95	219.31
404.33	219.74
404.71	219.81
405.08	221.19
405.46	221.48
405.83	221.83
406.21	222.24
406.58	222.83
406.96	222.79
407.33	223.45
407.70	224.02
408.08	226.14
408.45	226.81
408.83	228.10
409.20	228.55
409.58	228.02
409.95	229.26
410.33	230.05
410.70	230.36
411.08	231.45
411.45	232.52
411.82	233.48
412.20	234.98
412.57	237.26
412.95	236.86
413.32	238.86
413.69	240.17
414.07	241.67
414.44	243.31
414.82	245.57
415.19	247.71
415.56	249.90
415.94	250.93
416.31	253.79
416.68	256.60
417.06	259.74
417.43	263.31
417.81	266.71
418.18	270.45
418.55	274.40
418.93	278.21
419.30	282.19
419.67	286.48
420.04	290.79
420.42	294.93
420.79	302.12
421.16	307.81
421.54	314.57
421.91	320.90
422.28	327.29
422.66	333.90
423.03	341.33
423.40	348.14
423.77	355.43
424.15	362.40
424.52	369.79
424.89	378.36
425.26	386.05
425.64	393.48
426.01	401.88
426.38	410.60
426.75	420.48
427.13	429.95
427.50	439.21
427.87	449.10
428.24	459.31
428.61	467.64
428.99	478.31
429.36	488.64
429.73	499.98
430.10	511.21
430.47	522.74
430.85	533.74
431.22	546.31
431.59	561.45
431.96	574.69
432.33	588.83
432.70	602.45
433.08	618.62
433.45	633.69
433.82	648.93
434.19	666.40
434.56	682.83
434.93	698.10
435.30	713.90
435.68	731.48
436.05	748.17
436.42	765.36
436.79	781.45
437.16	798.93
437.53	817.40
437.90	834.38
438.27	851.98
438.64	870.45
439.01	887.24
439.38	900.36
439.75	915.07
440.13	931.33
440.50	946.86
440.87	959.55
441.24	972.57
441.61	986.50
441.98	996.81
442.35	1008.50
442.72	1021.86
443.09	1035.24
443.46	1042.38
443.83	1047.67
444.20	1051.95
444.57	1057.57
444.94	1060.07
445.31	1062.95
445.68	1069.50
446.05	1070.38
446.42	1068.76
446.79	1067.74
447.16	1065.98
447.53	1064.64
447.90	1058.67
448.27	1052.26
448.64	1043.76
449.01	1037.83
449.37	1027.43
449.74	1016.64
450.11	1005.52
450.48	990.76
450.85	975.05
451.22	962.62
451.59	951.07
451.96	939.90
452.33	924.64
452.70	910.83
453.07	893.52
453.43	873.81
453.80	857.67
454.17	841.19
454.54	826.17
454.91	809.79
455.28	793.31
455.65	778.29
456.02	766.69
456.38	753.98
456.75	738.93
457.12	725.48
457.49	712.29
457.86	698.17
458.23	688.48
458.59	677.19
458.96	665.52
459.33	654.64
459.70	643.60
460.07	635.26
460.43	625.76
460.80	617.21
461.17	609.93
461.54	601.90
461.91	594.48
462.27	585.57
462.64	578.81
463.01	572.00
463.38	565.64
463.74	555.14
464.11	547.93
464.48	542.14
464.85	536.12
465.21	532.10
465.58	526.93
465.95	520.14
466.32	514.98
466.68	509.90
467.05	505.07
467.42	500.57
467.78	495.29
468.15	490.36
468.52	486.79
468.88	481.57
469.25	476.76
469.62	473.36
469.98	470.00
470.35	466.69
470.72	463.24
471.08	458.81
471.45	456.31
471.82	453.98
472.18	450.33
472.55	447.71
472.92	443.93
473.28	441.05
473.65	437.69
474.02	435.38
474.38	433.29
474.75	431.29
475.11	428.62
475.48	427.02
475.85	425.10
476.21	423.05
476.58	421.33
476.94	420.50
477.31	419.14
477.67	418.00
478.04	417.05
478.41	416.21
478.77	417.36
479.14	416.24
479.50	415.86
479.87	416.19
480.23	415.33
480.60	415.14
480.96	415.29
481.33	416.02
481.69	416.02
482.06	416.33
482.42	416.83
482.79	417.33
483.15	417.43
483.52	418.48
483.88	419.36
484.25	419.83
484.61	420.33
484.98	421.17
485.34	423.00
485.71	424.21
486.07	425.36
486.44	425.00
486.80	426.60
487.17	427.50
487.53	429.60
487.90	432.43
488.26	435.17
488.62	438.14
488.99	440.12
489.35	442.69
489.72	445.21
490.08	447.88
490.44	450.76
490.81	454.29
491.17	457.50
491.54	460.93
491.90	465.02
492.26	468.55
492.63	472.31
492.99	475.07
493.36	478.93
493.72	483.55
494.08	488.12
494.45	492.64
494.81	497.81
495.17	501.81
495.54	506.52
495.90	510.71
496.26	515.24
496.63	521.17
496.99	526.83
497.35	532.00
497.72	537.93
498.08	543.81
498.44	550.07
498.80	556.55
499.17	562.40
499.53	568.38
499.89	575.74
500.26	582.55
500.62	589.38
500.98	596.60
501.34	603.17
501.71	610.52
502.07	617.62
502.43	624.67
502.79	632.02
503.16	639.17
503.52	646.07
503.88	652.81
504.24	660.19
504.60	667.24
504.97	675.48
505.33	682.36
505.69	691.07
506.05	698.86
506.41	706.38
506.78	713.88
507.14	721.64
507.50	728.81
507.86	736.95
508.22	745.19
508.59	752.14
508.95	759.90
509.31	768.81
509.67	776.52
510.03	784.43
510.39	792.48
510.75	800.40
511.12	809.21
511.48	817.36
511.84	824.83
512.20	832.02
512.56	840.02
512.92	848.12
513.28	854.55
513.64	861.29
514.00	868.67
514.37	876.26
514.73	883.67
515.09	891.14
515.45	897.31
515.81	903.43
516.17	911.14
516.53	917.60
516.89	922.76
517.25	929.67
517.61	935.93
517.97	941.40
518.33	947.36
518.69	953.76
519.05	960.33
519.41	966.45
519.77	974.07
520.13	979.55
520.49	984.76
520.85	990.19
521.21	997.10
521.57	1002.86
521.93	1007.74
522.29	1012.86
522.65	1018.19
523.01	1024.60
523.37	1030.14
523.73	1034.74
524.09	1040.19
524.45	1045.07
524.81	1049.60
525.17	1054.64
525.53	1060.07
525.89	1065.00
526.25	1070.19
526.61	1074.19
526.97	1078.31
527.33	1082.62
527.68	1088.50
528.04	1093.00
528.40	1097.55
528.76	1100.93
529.12	1104.55
529.48	1110.07
529.84	1114.40
530.20	1119.21
530.56	1123.02
530.91	1127.71
531.27	1131.90
531.63	1136.10
531.99	1140.26
532.35	1143.93
532.71	1147.60
533.07	1151.81
533.42	1158.31
533.78	1161.12
534.14	1165.90
534.50	1169.74
534.86	1173.67
535.21	1176.19
535.57	1181.26
535.93	1185.31
536.29	1189.88
536.65	1194.26
537.00	1196.26
537.36	1199.98
537.72	1202.48
538.08	1205.90
538.44	1208.21
538.79	1212.67
539.15	1216.02
539.51	1220.29
539.87	1223.55
540.22	1227.55
540.58	1231.33
540.94	1232.29
541.29	1235.45
541.65	1237.26
542.01	1240.64
542.37	1243.14
542.72	1245.00
543.08	1246.45
543.44	1249.31
543.79	1250.90
544.15	1253.33
544.51	1257.60
544.87	1260.17
545.22	1263.40
545.58	1265.52
545.94	1269.05
546.29	1271.24
546.65	1273.93
547.01	1275.31
547.36	1278.19
547.72	1280.07
548.07	1282.17
548.43	1284.02
548.79	1285.74
549.14	1288.19
549.50	1291.69
549.86	1293.26
550.21	1296.40
550.57	1300.36
550.92	1302.76
551.28	1305.45
551.64	1308.67
551.99	1310.88
552.35	1313.93
552.70	1316.43
553.06	1319.88
553.41	1322.57
553.77	1326.62
554.13	1329.69
554.48	1333.40
554.84	1337.38
555.19	1341.10
555.55	1345.67
555.90	1349.55
556.26	1354.12
556.61	1358.02
556.97	1359.60
557.32	1363.88
557.68	1367.45
558.03	1370.17
558.39	1374.31
558.74	1378.48
559.10	1381.93
559.45	1386.24
559.81	1391.00
560.16	1394.62
560.52	1398.57
560.87	1403.57
561.23	1405.93
561.58	1411.67
561.94	1415.36
562.29	1418.95
562.64	1424.31
563.00	1427.71
563.35	1432.12
563.71	1437.10
564.06	1442.52
564.42	1448.69
564.77	1453.57
565.12	1459.67
565.48	1467.07
565.83	1472.67
566.19	1477.88
566.54	1483.71
566.89	1488.67
567.25	1494.07
567.60	1501.79
567.96	1509.71
568.31	1516.38
568.66	1523.21
569.02	1527.38
569.37	1533.43
569.72	1539.62
570.08	1543.60
570.43	1548.12
570.78	1554.50
571.14	1559.71
571.49	1564.55
571.84	1569.86
572.20	1574.43
572.55	1578.98
572.90	1582.17
573.26	1586.98
573.61	1591.79
573.96	1596.31
574.31	1600.00
574.67	1603.69
575.02	1606.48
575.37	1608.69
575.72	1611.29
576.08	1615.38
576.43	1618.74
576.78	1622.98
577.13	1626.31
577.49	1630.81
577.84	1635.55
578.19	1638.52
578.54	1643.50
578.90	1647.98
579.25	1651.55
579.60	1654.74
579.95	1657.76
580.30	1661.50
580.66	1664.57
581.01	1668.67
581.36	1671.21
581.71	1675.83
582.06	1680.93
582.42	1684.64
582.77	1687.26
583.12	1690.31
583.47	1693.55
583.82	1697.52
584.17	1699.40
584.53	1703.17
584.88	1706.21
585.23	1710.26
585.58	1713.12
585.93	1715.05
586.28	1717.24
586.63	1720.83
586.98	1724.88
587.34	1728.33
587.69	1729.98
588.04	1732.50
588.39	1734.05
588.74	1735.55
589.09	1737.90
589.44	1737.45
589.79	1739.60
590.14	1742.26
590.49	1743.57
590.84	1743.71
591.19	1746.57
591.54	1749.69
591.89	1749.81
592.25	1752.74
592.60	1753.19
592.95	1754.86
593.30	1756.98
593.65	1758.24
594.00	1758.33
594.35	1764.98
594.70	1764.36
595.05	1766.43
595.40	1767.48
595.75	1768.33
596.10	1771.10
596.45	1772.60
596.80	1774.88
597.15	1774.93
597.50	1775.38
597.85	1777.43
598.19	1778.62
598.54	1777.67
598.89	1777.50
599.24	1779.60
599.59	1779.07
599.94	1779.05
600.29	1779.83
600.64	1779.00
600.99	1779.86
601.34	1780.90
601.69	1775.02
602.04	1775.55
602.39	1775.33
602.74	1775.21
603.08	1775.26
603.43	1775.69
603.78	1774.52
604.13	1774.07
604.48	1774.21
604.83	1774.21
605.18	1773.76
605.53	1774.07
605.87	1774.21
606.22	1773.98
606.57	1772.48
606.92	1771.50
607.27	1771.31
607.62	1770.83
607.96	1770.10
608.31	1768.69
608.66	1767.48
609.01	1765.74
609.36	1765.57
609.70	1764.21
610.05	1762.36
610.40	1761.10
610.75	1758.33
611.10	1757.10
611.44	1755.02
611.79	1752.48
612.14	1750.02
612.49	1746.55
612.83	1743.36
613.18	1739.52
613.53	1736.26
613.88	1732.95
614.22	1729.93
614.57	1726.26
614.92	1722.52
615.27	1719.71
615.61	1716.02
615.96	1711.83
616.31	1709.83
616.65	1707.02
617.00	1703.79
617.35	1701.40
617.70	1698.48
618.04	1694.67
618.39	1690.50
618.74	1687.21
619.08	1683.55
619.43	1679.98
619.78	1676.45
620.12	1673.93
620.47	1670.76
620.82	1667.21
621.16	1663.40
621.51	1660.43
621.85	1656.86
622.20	1652.95
622.55	1649.12
622.89	1646.24
623.24	1644.62
623.59	1640.90
623.93	1637.90
624.28	1633.69
624.62	1631.10
624.97	1627.93
625.32	1623.81
625.66	1620.36
626.01	1616.31
626.35	1613.55
626.70	1609.90
627.04	1607.43
627.39	1602.38
627.73	1600.07
628.08	1596.64
628.43	1593.07
628.77	1588.69
629.12	1585.24
629.46	1581.57
629.81	1577.64
630.15	1573.00
630.50	1566.55
630.84	1561.21
631.19	1554.81
631.53	1549.64
631.88	1542.64
632.22	1536.05
632.57	1532.88
632.91	1527.90
633.26	1523.17
633.60	1517.55
633.95	1512.50
634.29	1507.21
634.64	1503.36
634.98	1497.38
635.32	1494.17
635.67	1491.14
636.01	1486.21
636.36	1480.64
636.70	1476.60
637.05	1472.64
637.39	1467.14
637.73	1462.90
638.08	1459.14
638.42	1455.40
638.77	1451.67
639.11	1447.90
639.45	1443.50
639.80	1437.81
640.14	1432.43
640.49	1427.26
640.83	1422.79
641.17	1418.33
641.52	1413.50
641.86	1409.02
642.20	1404.76
642.55	1398.19
642.89	1391.64
643.23	1386.38
643.58	1382.50
643.92	1375.45
644.26	1368.79
644.61	1364.52
644.95	1359.24
645.29	1352.74
645.64	1347.33
645.98	1342.00
646.32	1336.69
646.66	1331.07
647.01	1325.10
647.35	1320.60
647.69	1315.26
648.04	1309.95
648.38	1304.00
648.72	1297.48
649.06	1291.17
649.41	1285.24
649.75	1278.67
650.09	1273.29
650.43	1267.74
650.78	1260.55
651.12	1255.10
651.46	1248.90
651.80	1242.36
652.14	1236.62
652.49	1231.29
652.83	1224.71
653.17	1218.14
653.51	1211.00
653.85	1205.57
654.20	1199.52
654.54	1192.55
654.88	1186.00
655.22	1180.07
655.56	1173.93
655.90	1168.71
656.25	1162.33
656.59	1155.48
656.93	1149.79
657.27	1144.40
657.61	1137.33
657.95	1132.19
658.29	1126.38
658.64	1120.52
658.98	1113.98
659.32	1107.00
659.66	1099.95
660.00	1093.79
660.34	1087.40
660.68	1082.02
661.02	1075.38
661.36	1069.17
661.70	1064.07
662.05	1058.02
662.39	1052.24
662.73	1046.45
663.07	1041.14
663.41	1035.00
663.75	1028.90
664.09	1023.48
664.43	1016.29
664.77	1010.60
665.11	1003.52
665.45	998.02
665.79	992.55
666.13	986.90
666.47	981.38
666.81	976.64
667.15	970.81
667.49	965.95
667.83	960.45
668.17	954.76
668.51	949.93
668.85	944.07
669.19	939.88
669.53	933.14
669.87	927.48
670.21	920.98
670.55	915.45
670.89	911.55
671.23	906.19
671.57	901.43
671.91	896.24
672.25	891.48
672.58	886.33
672.92	880.62
673.26	876.05
673.60	870.86
673.94	865.17
674.28	860.21
674.62	855.62
674.96	850.79
675.30	846.10
675.64	840.83
675.97	835.76
676.31	830.07
676.65	825.29
676.99	821.36
677.33	816.14
677.67	811.79
678.01	805.76
678.34	800.21
678.68	795.29
679.02	790.17
679.36	785.36
679.70	780.17
680.04	775.19
680.37	769.76
680.71	764.71
681.05	760.57
681.39	756.29
681.73	750.95
682.06	745.57
682.40	740.88
682.74	736.88
683.08	732.55
683.42	726.86
683.75	722.38
684.09	716.48
684.43	712.05
684.77	706.69
685.10	701.76
685.44	697.81
685.78	693.10
686.12	689.12
686.45	684.38
686.79	679.45
687.13	675.31
687.46	671.14
687.80	667.31
688.14	662.57
688.48	658.07
688.81	653.50
689.15	649.55
689.49	644.93
689.82	639.76
690.16	634.67
690.50	630.83
690.83	626.14
691.17	621.48
691.51	616.79
691.84	613.24
692.18	609.12
692.52	604.74
692.85	600.69
693.19	597.24
693.52	592.79
693.86	588.19
694.20	583.90
694.53	579.83
694.87	575.33
695.21	571.19
695.54	566.90
695.88	562.29
696.21	557.81
696.55	554.29
696.88	550.62
697.22	546.95
697.56	543.43
697.89	539.74
698.23	536.60
698.56	533.19
698.90	529.62
699.23	525.90
699.57	522.00
699.90	518.05
700.24	513.52
700.58	510.31
700.91	507.57
701.25	505.45
701.58	502.55
701.92	500.21
702.25	496.83
702.59	493.19
702.92	490.17
703.26	486.90
703.59	483.69
703.93	482.36
704.26	479.62
704.60	476.38
704.93	473.31
705.26	470.07
705.60	467.31
705.93	463.67
706.27	461.24
706.60	458.83
706.94	456.98
707.27	454.02
707.61	451.21
707.94	448.17
708.27	444.02
708.61	440.83
708.94	437.76
709.28	435.50
709.61	432.81
709.94	430.43
710.28	427.79
710.61	424.86
710.95	420.45
711.28	419.07
711.61	416.64
711.95	414.81
712.28	412.45
712.61	410.12
712.95	408.69
713.28	407.07
713.61	404.19
713.95	401.62
714.28	399.36
714.61	396.81
714.95	394.60
715.28	392.21
715.61	389.83
715.95	387.52
716.28	384.86
716.61	383.17
716.95	380.76
717.28	379.02
717.61	376.79
717.94	374.60
718.28	370.83
718.61	368.60
718.94	365.83
719.27	363.67
719.61	361.86
719.94	359.45
720.27	356.48
720.60	354.45
720.94	352.26
721.27	350.71
721.60	349.83
721.93	348.05
722.27	347.02
722.60	345.60
722.93	343.69
723.26	342.26
723.59	340.19
723.93	339.19
724.26	337.45
724.59	335.76
724.92	334.33
725.25	333.52
725.59	332.43
725.92	331.36
726.25	329.98
726.58	328.45
726.91	327.10
727.24	326.10
727.57	325.05
727.91	323.50
728.24	322.26
728.57	320.55
728.90	319.60
729.23	317.60
729.56	317.14
729.89	315.90
730.22	314.48
730.55	313.40
730.89	312.02
731.22	311.02
731.55	310.17
731.88	309.57
732.21	308.12
732.54	307.02
732.87	305.64
733.20	304.69
733.53	303.79
733.86	302.83
734.19	301.55
734.52	300.76
734.85	301.17
735.18	299.86
735.51	299.31
735.84	298.21
736.17	298.00
736.50	296.07
736.83	297.60
737.16	296.98
737.49	296.29
737.82	295.40
738.15	294.57
738.48	293.69
738.81	292.36
739.14	291.43
739.47	290.52
739.80	290.12
740.13	289.40
740.46	288.10
740.79	286.88
741.12	286.00
741.45	284.71
741.78	282.79
742.11	282.74
742.44	281.50
742.77	281.17
743.10	280.00
743.43	279.40
743.75	276.38
744.08	278.33
744.41	277.38
744.74	276.45
745.07	275.45
745.40	275.05
745.73	275.38
746.06	274.79
746.39	274.12
746.71	273.02
747.04	271.95
747.37	271.43
747.70	271.19
748.03	270.67
748.36	270.52
748.68	269.98
749.01	268.67
749.34	267.98
749.67	267.52
750.00	267.05
750.33	267.83
750.65	267.43
750.98	264.14
751.31	263.64
751.64	263.24
751.97	263.74
752.29	262.83
752.62	261.24
752.95	260.64
753.28	259.83
753.60	259.45
753.93	259.48
754.26	259.14
754.59	258.02
754.91	257.29
755.24	256.50
755.57	255.83
755.90	255.07
756.22	254.33
756.55	253.40
756.88	252.86
757.20	250.67
757.53	249.52
757.86	248.95
758.19	248.45
758.51	247.86
758.84	246.07
759.17	245.52
759.49	245.19
759.82	245.67
760.15	245.26
760.47	244.67
760.80	243.62
761.13	243.36
761.45	242.76
761.78	242.38
762.11	242.07
762.43	241.50
762.76	241.21
763.08	241.05
763.41	240.50
763.74	240.02
764.06	239.93
764.39	239.81
764.71	239.62
765.04	239.00
765.37	238.36
765.69	238.12
766.02	237.95
766.34	237.14
766.67	235.90
767.00	236.14
767.32	236.98
767.65	238.02
767.97	237.48
768.30	237.62
768.62	237.17
768.95	236.62
769.27	236.43
769.60	236.40
769.92	236.10
770.25	235.60
770.57	235.00
770.90	234.55
771.22	234.17
771.55	233.76
771.87	233.76
772.20	233.52
772.52	235.19
772.85	237.21
773.17	237.52
773.50	237.33
773.82	236.69
774.15	235.76
774.47	234.52
774.80	234.00
775.12	233.71
775.45	233.71
775.77	233.64
776.09	233.52
776.42	233.29
776.74	233.50
777.07	233.07
777.39	233.05
777.72	232.62
778.04	232.79
778.36	232.31
778.69	232.05
779.01	232.12
779.33	230.14
779.66	227.86
779.98	227.24
780.31	227.00
780.63	227.71
780.95	227.74
781.28	227.43
781.60	227.31
781.92	226.90
782.25	226.74
782.57	226.57
782.89	226.21
783.22	225.79
783.54	225.29
783.86	225.57
784.19	225.43
784.51	226.02
784.83	225.43
