SpectraSuite Data File
++++++++++++++++++++++++++++++++++++
Date: Tue Apr 02 18:41:55 EDT 2013
User: group
Dark Spectrum Present: No
Reference Spectrum Present: No
Number of Sampled Component Spectra: 1
Spectrometers: USB2E7196
Integration Time (usec): 580000 (USB2E7196)
Spectra Averaged: 2 (USB2E7196)
Boxcar Smoothing: 10 (USB2E7196)
Correct for Electrical Dark: No (USB2E7196)
Strobe/Lamp Enabled: No (USB2E7196)
Correct for Detector Non-linearity: No (USB2E7196)
Correct for Stray Light: No (USB2E7196)
Number of Pixels in Processed Spectrum: 2048
>>>>>Begin Processed Spectral Data<<<<<
339.09	0.00
339.48	192.50
339.86	195.50
340.24	197.50
340.63	199.50
341.01	233.00
341.39	203.50
341.78	207.00
342.16	215.00
342.54	204.50
342.93	197.90
343.31	207.83
343.69	208.57
344.07	209.10
344.46	209.86
344.84	210.45
345.22	209.31
345.60	209.69
345.99	210.07
346.37	210.07
346.75	210.33
347.13	210.57
347.52	210.67
347.90	211.57
348.28	211.60
348.66	212.00
349.05	211.67
349.43	212.07
349.81	212.45
350.19	212.64
350.57	212.71
350.96	213.05
351.34	213.21
351.72	213.19
352.10	213.29
352.48	212.95
352.87	212.90
353.25	212.86
353.63	212.88
354.01	212.76
354.39	212.52
354.77	212.50
355.15	212.86
355.54	212.79
355.92	212.14
356.30	212.26
356.68	213.64
357.06	213.76
357.44	213.19
357.82	213.17
358.20	214.12
358.58	214.17
358.97	214.02
359.35	214.40
359.73	214.88
360.11	214.90
360.49	215.05
360.87	214.81
361.25	215.05
361.63	215.55
362.01	215.60
362.39	215.64
362.77	215.93
363.15	215.57
363.53	215.62
363.91	215.74
364.29	215.48
364.67	213.40
365.05	213.17
365.43	213.60
365.81	213.76
366.19	213.95
366.57	214.76
366.95	214.88
367.33	214.33
367.71	214.36
368.09	214.71
368.47	214.79
368.85	214.86
369.23	215.45
369.61	214.90
369.99	215.50
370.37	215.76
370.75	216.60
371.13	216.45
371.51	216.21
371.89	216.43
372.27	216.81
372.65	216.90
373.03	217.24
373.41	217.05
373.78	217.12
374.16	216.00
374.54	215.14
374.92	214.98
375.30	215.05
375.68	214.57
376.06	214.69
376.44	214.64
376.82	215.02
377.19	214.86
377.57	214.57
377.95	213.83
378.33	213.67
378.71	212.31
379.09	212.50
379.47	212.93
379.84	212.57
380.22	212.21
380.60	211.81
380.98	211.52
381.36	211.33
381.73	210.90
382.11	211.48
382.49	211.64
382.87	211.31
383.25	211.38
383.62	213.74
384.00	213.17
384.38	213.14
384.76	213.48
385.13	214.24
385.51	214.74
385.89	214.48
386.27	214.60
386.64	215.29
387.02	215.33
387.40	215.26
387.78	215.50
388.15	215.69
388.53	215.86
388.91	216.07
389.29	216.17
389.66	216.67
390.04	216.29
390.42	216.81
390.79	217.12
391.17	217.00
391.55	214.93
391.92	215.07
392.30	215.31
392.68	214.86
393.05	214.52
393.43	214.17
393.81	214.64
394.18	214.50
394.56	214.52
394.94	214.74
395.31	214.33
395.69	214.86
396.06	215.40
396.44	215.67
396.82	215.36
397.19	216.48
397.57	216.19
397.95	216.43
398.32	215.67
398.70	215.95
399.07	216.50
399.45	216.45
399.82	216.45
400.20	216.26
400.58	216.02
400.95	215.43
401.33	216.14
401.70	217.67
402.08	217.57
402.45	217.40
402.83	217.88
403.20	218.36
403.58	218.29
403.95	218.43
404.33	219.10
404.71	219.69
405.08	220.88
405.46	221.36
405.83	221.81
406.21	222.17
406.58	222.62
406.96	223.00
407.33	223.52
407.70	224.40
408.08	226.52
408.45	227.74
408.83	228.48
409.20	228.67
409.58	227.81
409.95	228.93
410.33	229.93
410.70	230.31
411.08	231.50
411.45	232.50
411.82	233.40
412.20	234.55
412.57	236.79
412.95	236.33
413.32	238.00
413.69	239.21
414.07	241.26
414.44	243.00
414.82	244.98
415.19	247.43
415.56	249.67
415.94	250.81
416.31	253.64
416.68	256.52
417.06	259.88
417.43	263.83
417.81	267.36
418.18	271.14
418.55	274.93
418.93	279.36
419.30	283.33
419.67	287.81
420.04	292.43
420.42	296.74
420.79	303.83
421.16	309.33
421.54	316.64
421.91	322.69
422.28	329.02
422.66	335.69
423.03	343.64
423.40	350.64
423.77	358.33
424.15	365.45
424.52	373.40
424.89	382.17
425.26	389.67
425.64	397.38
426.01	405.60
426.38	414.45
426.75	423.86
427.13	432.93
427.50	442.74
427.87	452.74
428.24	462.88
428.61	471.21
428.99	482.62
429.36	492.90
429.73	504.38
430.10	516.33
430.47	528.52
430.85	538.95
431.22	552.00
431.59	566.52
431.96	580.14
432.33	594.33
432.70	608.45
433.08	625.29
433.45	640.76
433.82	656.29
434.19	673.88
434.56	690.90
434.93	707.86
435.30	724.12
435.68	741.79
436.05	759.52
436.42	777.31
436.79	793.55
437.16	811.45
437.53	829.76
437.90	847.60
438.27	865.57
438.64	884.21
439.01	902.10
439.38	916.36
439.75	930.86
440.13	948.29
440.50	964.24
440.87	977.26
441.24	991.29
441.61	1006.71
441.98	1017.26
442.35	1029.05
442.72	1042.10
443.09	1056.19
443.46	1064.14
443.83	1068.90
444.20	1073.83
444.57	1080.07
444.94	1083.21
445.31	1086.38
445.68	1091.76
446.05	1093.10
446.42	1092.21
446.79	1090.62
447.16	1088.74
447.53	1087.90
447.90	1081.17
448.27	1074.43
448.64	1065.86
449.01	1059.29
449.37	1048.02
449.74	1037.40
450.11	1026.33
450.48	1011.24
450.85	994.76
451.22	981.71
451.59	969.69
451.96	957.57
452.33	941.57
452.70	927.02
453.07	910.26
453.43	891.19
453.80	874.10
454.17	857.90
454.54	842.00
454.91	825.86
455.28	809.10
455.65	793.81
456.02	781.79
456.38	768.17
456.75	752.62
457.12	738.79
457.49	725.79
457.86	711.36
458.23	701.07
458.59	688.67
458.96	676.81
459.33	666.21
459.70	655.93
460.07	647.57
460.43	637.43
460.80	628.43
461.17	620.21
461.54	611.90
461.91	603.60
462.27	594.86
462.64	587.57
463.01	580.21
463.38	573.45
463.74	562.62
464.11	555.74
464.48	549.33
464.85	542.79
465.21	538.00
465.58	532.52
465.95	525.40
466.32	520.60
466.68	515.10
467.05	509.71
467.42	504.45
467.78	498.90
468.15	494.64
468.52	490.67
468.88	485.24
469.25	480.79
469.62	477.29
469.98	473.43
470.35	469.31
470.72	465.71
471.08	461.38
471.45	458.86
471.82	456.52
472.18	453.36
472.55	450.93
472.92	447.00
473.28	444.38
473.65	442.05
474.02	439.71
474.38	438.05
474.75	436.36
475.11	433.81
475.48	432.26
475.85	430.02
476.21	428.29
476.58	426.90
476.94	425.45
477.31	423.74
477.67	422.64
478.04	421.95
478.41	421.12
478.77	422.17
479.14	420.81
479.50	420.02
479.87	419.71
480.23	419.45
480.60	419.40
480.96	418.81
481.33	419.90
481.69	419.76
482.06	419.64
482.42	419.83
482.79	420.14
483.15	420.52
483.52	421.57
483.88	421.86
484.25	422.40
484.61	423.12
484.98	424.07
485.34	425.62
485.71	427.26
486.07	428.21
486.44	428.00
486.80	429.62
487.17	431.14
487.53	433.38
487.90	435.43
488.26	438.40
488.62	441.12
488.99	442.48
489.35	445.00
489.72	447.52
490.08	450.26
490.44	453.14
490.81	456.38
491.17	459.31
491.54	462.76
491.90	466.57
492.26	470.43
492.63	474.40
492.99	477.88
493.36	481.81
493.72	486.52
494.08	491.00
494.45	495.81
494.81	500.55
495.17	504.83
495.54	510.24
495.90	514.33
496.26	519.79
496.63	524.95
496.99	530.33
497.35	536.05
497.72	541.81
498.08	548.02
498.44	554.07
498.80	560.86
499.17	567.07
499.53	573.19
499.89	579.98
500.26	586.81
500.62	593.52
500.98	600.74
501.34	607.57
501.71	614.98
502.07	622.05
502.43	629.07
502.79	636.74
503.16	643.43
503.52	651.29
503.88	658.31
504.24	666.67
504.60	674.69
504.97	682.52
505.33	690.76
505.69	699.31
506.05	707.17
506.41	714.71
506.78	722.24
507.14	730.21
507.50	738.00
507.86	745.12
508.22	753.71
508.59	760.55
508.95	769.14
509.31	777.74
509.67	786.33
510.03	794.24
510.39	801.64
510.75	809.12
511.12	817.19
511.48	824.69
511.84	831.69
512.20	839.12
512.56	847.07
512.92	854.83
513.28	862.12
513.64	869.17
514.00	875.90
514.37	883.64
514.73	891.57
515.09	899.48
515.45	906.86
515.81	913.62
516.17	920.93
516.53	926.86
516.89	932.38
517.25	939.02
517.61	945.52
517.97	952.48
518.33	960.00
518.69	966.93
519.05	973.88
519.41	980.81
519.77	988.76
520.13	994.50
520.49	999.50
520.85	1005.12
521.21	1012.76
521.57	1019.71
521.93	1025.40
522.29	1031.07
522.65	1036.00
523.01	1042.33
523.37	1047.64
523.73	1053.12
524.09	1058.45
524.45	1063.69
524.81	1068.21
525.17	1074.14
525.53	1079.43
525.89	1084.14
526.25	1088.93
526.61	1093.14
526.97	1097.21
527.33	1100.95
527.68	1107.83
528.04	1113.24
528.40	1117.88
528.76	1120.86
529.12	1124.64
529.48	1129.93
529.84	1133.55
530.20	1138.71
530.56	1143.76
530.91	1147.95
531.27	1151.98
531.63	1156.98
531.99	1161.88
532.35	1166.45
532.71	1170.02
533.07	1174.43
533.42	1181.36
533.78	1185.07
534.14	1190.24
534.50	1194.43
534.86	1199.60
535.21	1201.83
535.57	1206.64
535.93	1210.07
536.29	1215.45
536.65	1220.31
537.00	1224.00
537.36	1228.33
537.72	1231.60
538.08	1234.12
538.44	1237.71
538.79	1242.29
539.15	1245.40
539.51	1248.62
539.87	1252.05
540.22	1256.07
540.58	1259.43
540.94	1260.76
541.29	1264.21
541.65	1266.12
542.01	1269.81
542.37	1271.21
542.72	1273.48
543.08	1275.29
543.44	1278.52
543.79	1279.36
544.15	1282.48
544.51	1285.71
544.87	1289.07
545.22	1292.36
545.58	1296.24
545.94	1299.60
546.29	1302.62
546.65	1305.64
547.01	1309.21
547.36	1312.57
547.72	1315.26
548.07	1318.24
548.43	1319.62
548.79	1322.07
549.14	1325.74
549.50	1329.31
549.86	1332.31
550.21	1335.40
550.57	1338.93
550.92	1342.64
551.28	1346.95
551.64	1349.64
551.99	1352.71
552.35	1355.60
552.70	1358.57
553.06	1362.21
553.41	1365.95
553.77	1370.83
554.13	1375.00
554.48	1378.36
554.84	1382.14
555.19	1385.79
555.55	1390.45
555.90	1394.64
556.26	1399.12
556.61	1403.14
556.97	1406.93
557.32	1411.21
557.68	1416.52
558.03	1420.36
558.39	1424.83
558.74	1428.62
559.10	1433.07
559.45	1437.48
559.81	1441.76
560.16	1446.45
560.52	1451.00
560.87	1455.62
561.23	1458.81
561.58	1465.10
561.94	1470.26
562.29	1474.19
562.64	1479.36
563.00	1483.38
563.35	1488.98
563.71	1494.48
564.06	1499.95
564.42	1504.93
564.77	1510.62
565.12	1516.29
565.48	1523.29
565.83	1529.40
566.19	1535.57
566.54	1540.64
566.89	1545.86
567.25	1551.90
567.60	1558.67
567.96	1566.05
568.31	1571.71
568.66	1577.79
569.02	1581.21
569.37	1585.62
569.72	1591.52
570.08	1596.50
570.43	1602.05
570.78	1607.17
571.14	1612.71
571.49	1617.81
571.84	1624.12
572.20	1628.95
572.55	1634.05
572.90	1638.07
573.26	1641.62
573.61	1645.88
573.96	1651.21
574.31	1655.71
574.67	1659.67
575.02	1662.40
575.37	1664.17
575.72	1666.86
576.08	1670.76
576.43	1674.14
576.78	1678.71
577.13	1682.33
577.49	1686.05
577.84	1689.93
578.19	1693.19
578.54	1696.55
578.90	1700.29
579.25	1702.36
579.60	1704.48
579.95	1706.07
580.30	1709.10
580.66	1712.40
581.01	1715.71
581.36	1717.38
581.71	1721.19
582.06	1725.48
582.42	1728.52
582.77	1730.45
583.12	1734.05
583.47	1736.98
583.82	1740.26
584.17	1743.45
584.53	1746.48
584.88	1749.52
585.23	1751.81
585.58	1754.33
585.93	1756.67
586.28	1758.21
586.63	1760.83
586.98	1764.21
587.34	1767.98
587.69	1769.98
588.04	1771.60
588.39	1773.19
588.74	1774.98
589.09	1775.02
589.44	1774.93
589.79	1776.17
590.14	1778.67
590.49	1780.57
590.84	1780.14
591.19	1781.17
591.54	1781.48
591.89	1782.52
592.25	1784.00
592.60	1783.86
592.95	1785.31
593.30	1785.62
593.65	1786.48
594.00	1785.57
594.35	1790.52
594.70	1788.67
595.05	1788.45
595.40	1788.79
595.75	1788.67
596.10	1790.14
596.45	1791.12
596.80	1791.48
597.15	1792.55
597.50	1791.88
597.85	1792.07
598.19	1793.00
598.54	1793.90
598.89	1793.74
599.24	1793.43
599.59	1792.40
599.94	1792.62
600.29	1791.36
600.64	1791.64
600.99	1791.07
601.34	1791.71
601.69	1786.86
602.04	1786.69
602.39	1786.48
602.74	1786.10
603.08	1785.24
603.43	1784.81
603.78	1783.05
604.13	1781.95
604.48	1779.69
604.83	1779.29
605.18	1777.64
605.53	1776.10
605.87	1773.07
606.22	1771.45
606.57	1769.40
606.92	1768.40
607.27	1766.90
607.62	1766.90
607.96	1765.02
608.31	1763.69
608.66	1761.07
609.01	1757.86
609.36	1757.50
609.70	1754.67
610.05	1751.76
610.40	1749.83
610.75	1746.17
611.10	1744.76
611.44	1741.55
611.79	1739.07
612.14	1735.62
612.49	1731.50
612.83	1728.62
613.18	1725.76
613.53	1722.69
613.88	1719.52
614.22	1715.55
614.57	1711.24
614.92	1705.93
615.27	1701.43
615.61	1696.40
615.96	1693.45
616.31	1689.26
616.65	1685.38
617.00	1682.07
617.35	1678.69
617.70	1674.26
618.04	1669.83
618.39	1664.93
618.74	1661.62
619.08	1656.95
619.43	1652.48
619.78	1648.36
620.12	1643.33
620.47	1639.29
620.82	1633.48
621.16	1628.71
621.51	1624.38
621.85	1619.95
622.20	1615.00
622.55	1609.19
622.89	1604.88
623.24	1600.26
623.59	1596.38
623.93	1590.86
624.28	1585.83
624.62	1582.60
624.97	1580.19
625.32	1575.86
625.66	1572.10
626.01	1567.67
626.35	1564.74
626.70	1560.36
627.04	1556.62
627.39	1552.67
627.73	1549.57
628.08	1546.31
628.43	1542.57
628.77	1537.57
629.12	1533.62
629.46	1530.29
629.81	1527.31
630.15	1522.50
630.50	1517.24
630.84	1511.76
631.19	1506.79
631.53	1501.55
631.88	1494.43
632.22	1486.69
632.57	1482.31
632.91	1476.33
633.26	1470.83
633.60	1464.71
633.95	1459.40
634.29	1453.17
634.64	1447.69
634.98	1441.05
635.32	1437.07
635.67	1432.43
636.01	1427.76
636.36	1422.12
636.70	1417.79
637.05	1411.79
637.39	1406.95
637.73	1401.86
638.08	1398.10
638.42	1393.26
638.77	1389.12
639.11	1383.83
639.45	1379.26
639.80	1372.69
640.14	1366.98
640.49	1361.02
640.83	1354.71
641.17	1349.67
641.52	1344.74
641.86	1339.64
642.20	1335.50
642.55	1328.40
642.89	1321.38
643.23	1315.57
643.58	1310.62
643.92	1303.05
644.26	1296.79
644.61	1290.71
644.95	1284.43
645.29	1277.14
645.64	1271.69
645.98	1264.69
646.32	1259.48
646.66	1252.07
647.01	1246.29
647.35	1240.74
647.69	1234.83
648.04	1229.19
648.38	1223.38
648.72	1217.10
649.06	1209.81
649.41	1201.79
649.75	1194.71
650.09	1187.90
650.43	1180.48
650.78	1172.69
651.12	1165.98
651.46	1159.83
651.80	1153.24
652.14	1147.24
652.49	1141.83
652.83	1134.17
653.17	1127.45
653.51	1120.24
653.85	1114.57
654.20	1107.64
654.54	1100.40
654.88	1093.24
655.22	1086.98
655.56	1079.67
655.90	1073.26
656.25	1067.19
656.59	1060.88
656.93	1054.83
657.27	1049.48
657.61	1043.24
657.95	1037.74
658.29	1031.60
658.64	1025.83
658.98	1019.60
659.32	1012.12
659.66	1005.93
660.00	1000.48
660.34	994.33
660.68	988.48
661.02	981.98
661.36	975.69
661.70	969.86
662.05	964.14
662.39	958.64
662.73	953.26
663.07	948.02
663.41	942.60
663.75	936.26
664.09	930.31
664.43	923.31
664.77	917.81
665.11	911.07
665.45	905.17
665.79	898.45
666.13	892.19
666.47	886.83
666.81	880.19
667.15	873.36
667.49	867.76
667.83	862.57
668.17	857.05
668.51	852.05
668.85	847.14
669.19	842.76
669.53	836.26
669.87	830.07
670.21	823.79
670.55	817.36
670.89	813.31
671.23	808.48
671.57	803.31
671.91	797.60
672.25	793.07
672.58	788.88
672.92	783.88
673.26	779.40
673.60	774.45
673.94	769.60
674.28	765.07
674.62	760.48
674.96	754.98
675.30	750.45
675.64	745.50
675.97	740.24
676.31	734.76
676.65	729.98
676.99	726.79
677.33	722.40
677.67	718.24
678.01	712.52
678.34	707.14
678.68	703.21
679.02	698.38
679.36	693.52
679.70	687.88
680.04	683.07
680.37	678.50
680.71	674.12
681.05	670.07
681.39	665.74
681.73	661.00
682.06	656.14
682.40	651.67
682.74	647.45
683.08	643.50
683.42	638.48
683.75	634.33
684.09	628.29
684.43	623.36
684.77	618.79
685.10	614.43
685.44	610.67
685.78	606.36
686.12	602.24
686.45	597.90
686.79	593.71
687.13	589.88
687.46	585.55
687.80	581.95
688.14	577.79
688.48	573.83
688.81	569.98
689.15	566.86
689.49	562.52
689.82	558.26
690.16	553.50
690.50	550.00
690.83	545.76
691.17	541.64
691.51	537.31
691.84	534.07
692.18	530.48
692.52	526.67
692.85	522.90
693.19	520.43
693.52	516.55
693.86	512.88
694.20	509.36
694.53	505.64
694.87	501.79
695.21	497.60
695.54	494.10
695.88	490.00
696.21	485.45
696.55	482.38
696.88	479.43
697.22	476.24
697.56	473.10
697.89	469.98
698.23	467.79
698.56	465.24
698.90	462.02
699.23	458.57
699.57	455.31
699.90	451.90
700.24	448.19
700.58	445.67
700.91	443.45
701.25	442.14
701.58	440.14
701.92	437.57
702.25	435.07
702.59	431.71
702.92	429.21
703.26	426.98
703.59	424.33
703.93	423.31
704.26	421.24
704.60	418.57
704.93	415.83
705.26	412.57
705.60	410.57
705.93	407.69
706.27	406.05
706.60	404.24
706.94	403.05
707.27	400.31
707.61	397.86
707.94	395.38
708.27	391.45
708.61	388.52
708.94	386.31
709.28	384.26
709.61	382.10
709.94	380.17
710.28	378.29
710.61	376.50
710.95	372.38
711.28	371.48
711.61	369.74
711.95	368.36
712.28	366.67
712.61	364.43
712.95	363.95
713.28	362.74
713.61	360.40
713.95	357.81
714.28	356.24
714.61	354.29
714.95	352.36
715.28	350.31
715.61	348.45
715.95	346.40
716.28	344.60
716.61	343.45
716.95	341.69
717.28	339.48
717.61	337.71
717.94	336.36
718.28	333.21
718.61	331.43
718.94	329.36
719.27	327.67
719.61	326.24
719.94	324.00
720.27	321.40
720.60	319.95
720.94	318.67
721.27	317.64
721.60	316.60
721.93	314.98
722.27	314.64
722.60	313.83
722.93	312.64
723.26	311.52
723.59	310.00
723.93	309.10
724.26	308.36
724.59	307.07
724.92	306.17
725.25	305.90
725.59	304.57
725.92	303.74
726.25	302.67
726.58	301.64
726.91	300.48
727.24	299.86
727.57	298.76
727.91	297.45
728.24	296.29
728.57	294.90
728.90	294.50
729.23	292.79
729.56	292.64
729.89	291.71
730.22	290.60
730.55	289.79
730.89	288.64
731.22	287.52
731.55	286.71
731.88	285.95
732.21	284.57
732.54	284.07
732.87	283.26
733.20	282.71
733.53	281.86
733.86	281.14
734.19	280.05
734.52	279.71
734.85	280.31
735.18	279.24
735.51	279.38
735.84	278.57
736.17	278.64
736.50	276.76
736.83	278.33
737.16	277.57
737.49	276.86
737.82	276.14
738.15	275.81
738.48	274.95
738.81	273.95
739.14	273.07
739.47	272.24
739.80	271.36
740.13	270.71
740.46	269.81
740.79	268.74
741.12	268.00
741.45	266.95
741.78	265.17
742.11	265.33
742.44	264.14
742.77	264.00
743.10	263.05
743.43	262.57
743.75	259.83
744.08	261.71
744.41	260.81
744.74	260.26
745.07	259.38
745.40	259.10
745.73	259.12
746.06	258.55
746.39	258.19
746.71	257.71
747.04	256.74
747.37	256.26
747.70	256.38
748.03	256.19
748.36	256.05
748.68	255.67
749.01	254.55
749.34	254.29
749.67	253.55
750.00	253.21
750.33	254.33
750.65	254.10
750.98	251.50
751.31	251.26
751.64	250.79
751.97	251.52
752.29	251.12
752.62	250.02
752.95	249.57
753.28	249.12
753.60	248.57
753.93	248.86
754.26	248.57
754.59	247.43
754.91	246.76
755.24	246.21
755.57	245.57
755.90	245.36
756.22	244.62
756.55	244.07
756.88	243.29
757.20	241.48
757.53	240.45
757.86	240.07
758.19	239.90
758.51	239.67
758.84	238.33
759.17	237.88
759.49	237.79
759.82	238.62
760.15	238.24
760.47	237.74
760.80	236.76
761.13	236.57
761.45	236.29
761.78	236.26
762.11	236.10
762.43	235.64
762.76	234.98
763.08	235.02
763.41	234.71
763.74	234.62
764.06	234.14
764.39	234.00
764.71	233.71
765.04	233.21
765.37	233.10
765.69	232.79
766.02	232.31
766.34	231.90
766.67	230.60
767.00	230.52
767.32	231.60
767.65	232.86
767.97	232.76
768.30	232.67
768.62	232.12
768.95	231.64
769.27	231.48
769.60	231.93
769.92	231.40
770.25	230.62
770.57	230.02
770.90	230.02
771.22	229.83
771.55	229.64
771.87	229.43
772.20	228.76
772.52	230.00
772.85	232.40
773.17	232.38
773.50	232.26
773.82	232.02
774.15	230.81
774.47	229.31
774.80	229.00
775.12	228.83
775.45	228.86
775.77	228.64
776.09	228.79
776.42	228.57
776.74	228.98
777.07	228.93
777.39	228.90
777.72	228.71
778.04	228.83
778.36	228.55
778.69	228.57
779.01	228.74
779.33	227.19
779.66	224.60
779.98	224.33
780.31	224.29
780.63	225.00
780.95	225.50
781.28	225.33
781.60	224.98
781.92	224.81
782.25	224.33
782.57	224.43
782.89	223.88
783.22	223.62
783.54	223.02
783.86	223.19
784.19	222.98
784.51	223.31
784.83	222.93
785.16	222.79
