SpectraSuite Data File
++++++++++++++++++++++++++++++++++++
Date: Tue Apr 02 18:37:33 EDT 2013
User: group
Dark Spectrum Present: No
Reference Spectrum Present: No
Number of Sampled Component Spectra: 1
Spectrometers: USB2E7196
Integration Time (usec): 580000 (USB2E7196)
Spectra Averaged: 2 (USB2E7196)
Boxcar Smoothing: 10 (USB2E7196)
Correct for Electrical Dark: No (USB2E7196)
Strobe/Lamp Enabled: No (USB2E7196)
Correct for Detector Non-linearity: No (USB2E7196)
Correct for Stray Light: No (USB2E7196)
Number of Pixels in Processed Spectrum: 2048
>>>>>Begin Processed Spectral Data<<<<<
339.09	0.00
339.48	197.00
339.86	196.50
340.24	193.50
340.63	198.50
341.01	231.00
341.39	204.00
341.78	209.00
342.16	215.50
342.54	206.50
342.93	199.17
343.31	209.21
343.69	209.57
344.07	209.98
344.46	210.86
344.84	211.24
345.22	210.17
345.60	210.52
345.99	210.79
346.37	210.64
346.75	210.71
347.13	210.55
347.52	210.74
347.90	211.26
348.28	211.24
348.66	211.90
349.05	211.05
349.43	211.07
349.81	211.24
350.19	211.33
350.57	211.52
350.96	211.74
351.34	211.95
351.72	212.21
352.10	212.40
352.48	212.33
352.87	212.45
353.25	212.45
353.63	212.36
354.01	212.14
354.39	212.26
354.77	212.29
355.15	213.02
355.54	212.71
355.92	212.10
356.30	212.12
356.68	213.29
357.06	213.64
357.44	213.29
357.82	212.93
358.20	213.81
358.58	213.79
358.97	213.81
359.35	214.00
359.73	214.40
360.11	214.12
360.49	214.17
360.87	214.14
361.25	214.40
361.63	214.98
362.01	215.29
362.39	215.33
362.77	215.48
363.15	215.31
363.53	215.40
363.91	215.81
364.29	215.76
364.67	213.95
365.05	214.05
365.43	214.48
365.81	215.19
366.19	215.50
366.57	216.21
366.95	216.29
367.33	215.98
367.71	215.90
368.09	216.57
368.47	216.62
368.85	216.79
369.23	217.21
369.61	216.50
369.99	217.00
370.37	217.10
370.75	218.12
371.13	217.83
371.51	217.38
371.89	217.52
372.27	217.86
372.65	218.05
373.03	217.88
373.41	217.55
373.78	217.05
374.16	215.74
374.54	215.17
374.92	215.07
375.30	215.12
375.68	214.76
376.06	214.81
376.44	214.57
376.82	214.55
377.19	214.43
377.57	214.57
377.95	213.81
378.33	213.45
378.71	212.17
379.09	212.43
379.47	212.76
379.84	212.40
380.22	211.90
380.60	211.64
380.98	211.64
381.36	211.95
381.73	211.90
382.11	212.45
382.49	212.67
382.87	212.36
383.25	212.14
383.62	214.71
384.00	214.43
384.38	214.55
384.76	215.14
385.13	215.95
385.51	216.02
385.89	215.83
386.27	216.05
386.64	216.62
387.02	216.29
387.40	216.17
387.78	216.31
388.15	216.67
388.53	216.43
388.91	216.50
389.29	216.14
389.66	216.24
390.04	215.71
390.42	215.83
390.79	216.10
391.17	216.26
391.55	213.79
391.92	213.86
392.30	214.26
392.68	213.76
393.05	213.38
393.43	213.31
393.81	213.52
394.18	213.29
394.56	213.19
394.94	213.74
395.31	213.76
395.69	214.57
396.06	215.02
396.44	215.45
396.82	215.17
397.19	216.17
397.57	216.12
397.95	216.64
398.32	216.14
398.70	216.38
399.07	216.69
399.45	216.52
399.82	216.62
400.20	216.38
400.58	216.33
400.95	215.69
401.33	216.26
401.70	217.76
402.08	217.81
402.45	218.05
402.83	218.64
403.20	219.00
403.58	218.71
403.95	218.86
404.33	219.07
404.71	219.60
405.08	221.00
405.46	221.40
405.83	221.86
406.21	222.33
406.58	222.79
406.96	223.02
407.33	223.81
407.70	224.62
408.08	226.74
408.45	227.71
408.83	228.88
409.20	229.40
409.58	229.19
409.95	230.67
410.33	231.76
410.70	232.07
411.08	233.43
411.45	234.76
411.82	235.81
412.20	237.88
412.57	240.62
412.95	240.33
413.32	242.38
413.69	243.95
414.07	245.95
414.44	248.10
414.82	250.74
415.19	253.69
415.56	255.98
415.94	257.88
416.31	261.05
416.68	264.29
417.06	267.90
417.43	272.00
417.81	275.93
418.18	279.98
418.55	284.48
418.93	288.98
419.30	293.81
419.67	299.14
420.04	304.05
420.42	308.88
420.79	317.02
421.16	323.50
421.54	331.10
421.91	338.10
422.28	345.21
422.66	352.79
423.03	361.93
423.40	370.00
423.77	378.21
424.15	386.74
424.52	395.83
424.89	405.64
425.26	414.88
425.64	423.33
426.01	433.31
426.38	443.90
426.75	455.26
427.13	465.98
427.50	477.19
427.87	489.12
428.24	500.93
428.61	510.90
428.99	524.05
429.36	537.07
429.73	550.69
430.10	564.31
430.47	578.02
430.85	590.64
431.22	605.48
431.59	622.76
431.96	637.98
432.33	655.02
432.70	671.86
433.08	690.57
433.45	709.14
433.82	727.74
434.19	747.26
434.56	767.29
434.93	786.14
435.30	805.33
435.68	826.62
436.05	847.48
436.42	868.07
436.79	887.64
437.16	908.40
437.53	929.64
437.90	951.33
438.27	972.60
438.64	994.45
439.01	1016.14
439.38	1033.79
439.75	1051.62
440.13	1072.38
440.50	1091.74
440.87	1107.29
441.24	1124.31
441.61	1142.17
441.98	1155.76
442.35	1170.21
442.72	1186.86
443.09	1202.95
443.46	1212.12
443.83	1218.45
444.20	1224.81
444.57	1231.64
444.94	1235.31
445.31	1240.21
445.68	1246.43
446.05	1248.86
446.42	1248.07
446.79	1246.48
447.16	1244.02
447.53	1243.00
447.90	1235.79
448.27	1227.62
448.64	1217.79
449.01	1210.29
449.37	1196.50
449.74	1183.90
450.11	1169.60
450.48	1151.60
450.85	1133.21
451.22	1118.29
451.59	1104.29
451.96	1090.43
452.33	1071.95
452.70	1056.12
453.07	1035.50
453.43	1012.98
453.80	993.71
454.17	974.29
454.54	955.33
454.91	935.95
455.28	917.05
455.65	898.14
456.02	884.19
456.38	869.21
456.75	850.64
457.12	834.45
457.49	818.93
457.86	803.12
458.23	790.69
458.59	776.64
458.96	762.36
459.33	749.64
459.70	736.69
460.07	726.98
460.43	714.93
460.80	704.71
461.17	695.60
461.54	685.24
461.91	675.83
462.27	666.05
462.64	657.79
463.01	648.62
463.38	640.86
463.74	628.76
464.11	620.48
464.48	613.57
464.85	606.67
465.21	601.74
465.58	595.69
465.95	588.10
466.32	582.05
466.68	575.71
467.05	569.95
467.42	564.02
467.78	557.52
468.15	551.36
468.52	547.02
468.88	540.36
469.25	534.76
469.62	530.81
469.98	526.38
470.35	522.10
470.72	518.31
471.08	512.83
471.45	509.12
471.82	505.93
472.18	501.76
472.55	498.98
472.92	494.52
473.28	491.19
473.65	488.17
474.02	484.95
474.38	482.74
474.75	480.71
475.11	478.17
475.48	476.07
475.85	474.43
476.21	472.33
476.58	471.31
476.94	470.31
477.31	468.93
477.67	467.55
478.04	466.24
478.41	465.05
478.77	466.36
479.14	465.19
479.50	464.71
479.87	464.33
480.23	464.19
480.60	463.71
480.96	463.29
481.33	464.14
481.69	464.38
482.06	464.60
482.42	464.74
482.79	465.29
483.15	466.45
483.52	467.52
483.88	468.14
484.25	469.19
484.61	470.40
484.98	471.12
485.34	473.12
485.71	475.12
486.07	477.29
486.44	478.05
486.80	480.57
487.17	482.26
487.53	485.55
487.90	488.05
488.26	491.81
488.62	495.52
488.99	498.29
489.35	501.93
489.72	505.64
490.08	508.98
490.44	512.86
490.81	516.52
491.17	520.38
491.54	525.43
491.90	529.64
492.26	534.07
492.63	539.62
492.99	544.55
493.36	550.19
493.72	555.57
494.08	560.90
494.45	567.14
494.81	574.07
495.17	579.69
495.54	586.64
495.90	592.88
496.26	599.86
496.63	606.67
496.99	613.69
497.35	620.69
497.72	628.62
498.08	636.31
498.44	644.62
498.80	653.17
499.17	660.69
499.53	669.71
499.89	678.79
500.26	687.24
500.62	695.79
500.98	704.74
501.34	713.81
501.71	723.67
502.07	732.38
502.43	741.26
502.79	750.67
503.16	759.79
503.52	769.38
503.88	778.00
504.24	788.24
504.60	797.95
504.97	808.64
505.33	818.07
505.69	829.14
506.05	839.33
506.41	849.31
506.78	859.17
507.14	868.55
507.50	878.57
507.86	888.38
508.22	899.05
508.59	908.83
508.95	919.29
509.31	930.36
509.67	941.21
510.03	951.67
510.39	962.33
510.75	972.38
511.12	982.76
511.48	993.88
511.84	1003.88
512.20	1013.48
512.56	1022.81
512.92	1033.26
513.28	1042.57
513.64	1051.36
514.00	1061.19
514.37	1071.00
514.73	1081.19
515.09	1091.02
515.45	1100.38
515.81	1109.07
516.17	1118.38
516.53	1126.69
516.89	1134.57
517.25	1143.24
517.61	1152.29
517.97	1160.74
518.33	1168.86
518.69	1176.69
519.05	1183.83
519.41	1191.64
519.77	1201.07
520.13	1209.10
520.49	1216.19
520.85	1223.17
521.21	1231.64
521.57	1238.74
521.93	1244.95
522.29	1252.05
522.65	1257.60
523.01	1264.83
523.37	1271.12
523.73	1277.60
524.09	1284.31
524.45	1290.21
524.81	1295.26
525.17	1301.26
525.53	1306.17
525.89	1311.48
526.25	1316.43
526.61	1321.71
526.97	1326.52
527.33	1331.33
527.68	1337.38
528.04	1341.74
528.40	1345.98
528.76	1350.24
529.12	1354.02
529.48	1359.71
529.84	1362.98
530.20	1367.26
530.56	1370.69
530.91	1374.79
531.27	1377.95
531.63	1381.81
531.99	1384.33
532.35	1387.52
532.71	1390.33
533.07	1394.67
533.42	1400.24
533.78	1403.95
534.14	1407.14
534.50	1410.26
534.86	1412.88
535.21	1413.93
535.57	1418.24
535.93	1420.40
536.29	1423.67
536.65	1426.05
537.00	1427.86
537.36	1430.14
537.72	1432.64
538.08	1435.83
538.44	1437.40
538.79	1439.48
539.15	1440.38
539.51	1442.67
539.87	1444.98
540.22	1446.93
540.58	1447.64
540.94	1447.24
541.29	1449.14
541.65	1449.86
542.01	1450.33
542.37	1450.05
542.72	1450.79
543.08	1449.81
543.44	1451.19
543.79	1449.36
544.15	1450.64
544.51	1451.76
544.87	1451.74
545.22	1451.93
545.58	1450.67
545.94	1450.50
546.29	1450.43
546.65	1450.62
547.01	1450.05
547.36	1449.83
547.72	1447.64
548.07	1446.98
548.43	1445.83
548.79	1443.71
549.14	1442.36
549.50	1442.14
549.86	1440.67
550.21	1440.07
550.57	1439.86
550.92	1438.50
551.28	1437.90
551.64	1435.60
551.99	1433.64
552.35	1431.33
552.70	1429.17
553.06	1428.21
553.41	1427.29
553.77	1426.95
554.13	1425.60
554.48	1424.88
554.84	1423.40
555.19	1422.48
555.55	1421.93
555.90	1421.00
556.26	1419.29
556.61	1417.83
556.97	1415.67
557.32	1414.60
557.68	1412.05
558.03	1410.00
558.39	1408.43
558.74	1407.33
559.10	1406.14
559.45	1403.67
559.81	1403.17
560.16	1401.90
560.52	1400.67
560.87	1399.19
561.23	1396.00
561.58	1395.43
561.94	1393.05
562.29	1391.00
562.64	1389.69
563.00	1386.64
563.35	1383.88
563.71	1382.62
564.06	1382.31
564.42	1380.81
564.77	1379.71
565.12	1380.36
565.48	1380.88
565.83	1380.24
566.19	1378.71
566.54	1377.29
566.89	1376.21
567.25	1375.83
567.60	1375.95
567.96	1375.50
568.31	1375.17
568.66	1375.40
569.02	1372.26
569.37	1369.93
569.72	1368.81
570.08	1366.55
570.43	1364.62
570.78	1363.52
571.14	1361.88
571.49	1359.05
571.84	1357.10
572.20	1354.95
572.55	1351.14
572.90	1346.48
573.26	1343.52
573.61	1341.29
573.96	1337.95
574.31	1335.69
574.67	1332.33
575.02	1328.69
575.37	1324.33
575.72	1319.69
576.08	1315.17
576.43	1312.33
576.78	1309.88
577.13	1306.07
577.49	1302.74
577.84	1299.74
578.19	1295.90
578.54	1292.48
578.90	1289.17
579.25	1285.19
579.60	1280.88
579.95	1277.14
580.30	1274.48
580.66	1271.10
581.01	1267.19
581.36	1263.50
581.71	1259.31
582.06	1255.88
582.42	1251.52
582.77	1246.86
583.12	1242.81
583.47	1238.52
583.82	1235.14
584.17	1230.45
584.53	1227.48
584.88	1223.38
585.23	1220.33
585.58	1216.19
585.93	1211.50
586.28	1207.67
586.63	1204.29
586.98	1201.17
587.34	1197.69
587.69	1192.00
588.04	1186.60
588.39	1182.71
588.74	1177.64
589.09	1173.79
589.44	1167.98
589.79	1163.48
590.14	1159.26
590.49	1155.36
590.84	1150.33
591.19	1145.02
591.54	1140.81
591.89	1134.95
592.25	1133.19
592.60	1127.79
592.95	1123.81
593.30	1119.57
593.65	1115.17
594.00	1109.36
594.35	1109.93
594.70	1104.95
595.05	1101.69
595.40	1097.45
595.75	1092.02
596.10	1089.40
596.45	1085.45
596.80	1081.71
597.15	1077.38
597.50	1072.81
597.85	1068.67
598.19	1065.07
598.54	1060.88
598.89	1056.74
599.24	1053.17
599.59	1047.02
599.94	1042.43
600.29	1037.95
600.64	1033.76
600.99	1029.57
601.34	1026.69
601.69	1016.88
602.04	1011.86
602.39	1007.19
602.74	1003.64
603.08	999.71
603.43	995.74
603.78	990.98
604.13	985.98
604.48	980.57
604.83	977.17
605.18	972.67
605.53	968.81
605.87	964.05
606.22	959.86
606.57	954.60
606.92	949.93
607.27	945.67
607.62	941.17
607.96	937.12
608.31	932.36
608.66	927.88
609.01	923.81
609.36	920.10
609.70	915.50
610.05	910.55
610.40	906.48
610.75	901.21
611.10	896.24
611.44	892.36
611.79	888.52
612.14	883.64
612.49	878.43
612.83	873.38
613.18	868.98
613.53	864.24
613.88	859.69
614.22	854.60
614.57	850.02
614.92	845.48
615.27	841.57
615.61	837.00
615.96	831.43
616.31	826.07
616.65	822.14
617.00	818.17
617.35	813.45
617.70	809.00
618.04	804.45
618.39	799.81
618.74	795.38
619.08	791.48
619.43	787.69
619.78	784.02
620.12	779.95
620.47	776.57
620.82	772.48
621.16	768.52
621.51	766.07
621.85	762.05
622.20	757.88
622.55	752.88
622.89	748.40
623.24	745.67
623.59	742.19
623.93	738.67
624.28	735.10
624.62	734.10
624.97	731.05
625.32	727.79
625.66	724.50
626.01	721.48
626.35	717.48
626.70	713.45
627.04	710.31
627.39	706.52
627.73	703.45
628.08	700.29
628.43	696.76
628.77	692.00
629.12	688.69
629.46	685.90
629.81	682.52
630.15	679.24
630.50	675.10
630.84	671.31
631.19	666.98
631.53	662.93
631.88	657.00
632.22	652.36
632.57	649.05
632.91	645.69
633.26	642.12
633.60	638.86
633.95	635.81
634.29	631.55
634.64	628.21
634.98	624.07
635.32	621.29
635.67	618.50
636.01	615.31
636.36	612.02
636.70	609.00
637.05	605.67
637.39	602.83
637.73	600.50
638.08	598.45
638.42	595.33
638.77	592.67
639.11	589.95
639.45	587.17
639.80	583.95
640.14	580.90
640.49	577.62
640.83	574.60
641.17	571.50
641.52	568.81
641.86	566.38
642.20	563.98
642.55	560.17
642.89	557.40
643.23	554.90
643.58	552.38
643.92	548.95
644.26	546.24
644.61	543.79
644.95	540.36
645.29	536.86
645.64	534.81
645.98	531.57
646.32	529.33
646.66	526.55
647.01	523.45
647.35	521.00
647.69	518.60
648.04	516.10
648.38	513.29
648.72	511.00
649.06	508.05
649.41	504.79
649.75	502.81
650.09	500.36
650.43	497.19
650.78	494.00
651.12	491.12
651.46	488.74
651.80	486.00
652.14	483.43
652.49	481.60
652.83	478.69
653.17	476.40
653.51	472.86
653.85	470.12
654.20	467.69
654.54	464.98
654.88	461.81
655.22	460.31
655.56	457.60
655.90	455.00
656.25	452.62
656.59	450.36
656.93	447.86
657.27	446.00
657.61	443.98
657.95	442.31
658.29	440.67
658.64	438.93
658.98	436.48
659.32	433.93
659.66	431.55
660.00	429.86
660.34	427.71
660.68	425.90
661.02	424.24
661.36	422.43
661.70	420.74
662.05	419.07
662.39	416.95
662.73	415.71
663.07	414.90
663.41	413.10
663.75	411.19
664.09	409.52
664.43	407.00
664.77	405.24
665.11	403.12
665.45	401.33
665.79	399.76
666.13	397.86
666.47	396.43
666.81	394.83
667.15	392.57
667.49	391.26
667.83	390.52
668.17	388.81
668.51	387.26
668.85	385.48
669.19	384.98
669.53	382.48
669.87	380.52
670.21	378.07
670.55	376.93
670.89	376.31
671.23	374.36
671.57	373.12
671.91	371.90
672.25	370.79
672.58	369.93
672.92	367.86
673.26	366.60
673.60	365.71
673.94	364.36
674.28	363.29
674.62	362.14
674.96	360.21
675.30	359.00
675.64	357.81
675.97	356.81
676.31	355.02
676.65	354.10
676.99	353.67
677.33	352.10
677.67	350.60
678.01	348.55
678.34	347.76
678.68	346.48
679.02	344.90
679.36	343.33
679.70	341.50
680.04	340.36
680.37	339.52
680.71	338.07
681.05	336.88
681.39	335.64
681.73	334.21
682.06	333.12
682.40	331.98
682.74	331.10
683.08	330.57
683.42	329.33
683.75	328.43
684.09	326.43
684.43	325.62
684.77	324.38
685.10	323.57
685.44	322.62
685.78	321.81
686.12	320.98
686.45	320.12
686.79	318.83
687.13	318.14
687.46	316.83
687.80	316.12
688.14	315.00
688.48	314.19
688.81	313.45
689.15	312.95
689.49	311.86
689.82	310.69
690.16	308.76
690.50	307.64
690.83	306.43
691.17	305.21
691.51	304.24
691.84	303.48
692.18	302.64
692.52	301.76
692.85	300.71
693.19	300.48
693.52	299.60
693.86	298.52
694.20	297.48
694.53	296.93
694.87	295.69
695.21	294.76
695.54	293.81
695.88	292.26
696.21	290.64
696.55	289.95
696.88	288.95
697.22	288.33
697.56	288.00
697.89	287.33
698.23	287.10
698.56	286.33
698.90	285.79
699.23	284.64
699.57	283.76
699.90	282.81
700.24	281.33
700.58	280.60
700.91	280.55
701.25	281.55
701.58	281.24
701.92	280.86
702.25	280.10
702.59	279.38
702.92	279.19
703.26	278.90
703.59	278.31
703.93	279.38
704.26	278.98
704.60	278.07
704.93	277.10
705.26	276.19
705.60	275.81
705.93	274.69
706.27	274.62
706.60	274.45
706.94	274.90
707.27	274.43
707.61	274.00
707.94	273.29
708.27	271.14
708.61	270.02
708.94	269.67
709.28	269.33
709.61	268.52
709.94	268.24
710.28	267.26
710.61	266.69
710.95	264.40
711.28	265.19
711.61	264.64
711.95	264.81
712.28	264.40
712.61	263.79
712.95	264.74
713.28	265.02
713.61	264.14
713.95	262.81
714.28	262.55
714.61	261.98
714.95	261.45
715.28	260.55
715.61	260.00
715.95	259.79
716.28	259.29
716.61	259.31
716.95	258.26
717.28	258.36
717.61	257.74
717.94	257.40
718.28	255.48
718.61	254.86
718.94	254.07
719.27	253.33
719.61	253.07
719.94	251.71
720.27	250.24
720.60	249.64
720.94	249.36
721.27	248.95
721.60	248.64
721.93	247.90
722.27	248.55
722.60	248.50
722.93	247.43
723.26	247.12
723.59	246.14
723.93	246.31
724.26	245.90
724.59	245.57
724.92	245.38
725.25	245.83
725.59	245.57
725.92	245.40
726.25	245.29
726.58	244.93
726.91	244.76
727.24	244.95
727.57	244.57
727.91	244.10
728.24	243.90
728.57	243.43
728.90	243.55
729.23	242.38
729.56	243.19
729.89	243.07
730.22	242.52
730.55	242.45
730.89	241.98
731.22	241.64
731.55	241.50
731.88	241.36
732.21	240.55
732.54	240.10
732.87	240.05
733.20	239.81
733.53	239.62
733.86	239.67
734.19	239.21
734.52	239.40
734.85	240.60
735.18	239.98
735.51	240.62
735.84	240.50
736.17	240.90
736.50	239.33
736.83	241.64
737.16	241.48
737.49	241.45
737.82	241.31
738.15	241.29
738.48	240.83
738.81	240.40
739.14	239.88
739.47	239.67
739.80	239.10
740.13	239.31
740.46	238.76
740.79	238.12
741.12	237.67
741.45	236.95
741.78	235.52
742.11	235.90
742.44	235.10
742.77	235.10
743.10	234.60
743.43	234.29
743.75	231.60
744.08	234.05
744.41	233.43
744.74	233.10
745.07	232.64
745.40	232.76
745.73	233.43
746.06	233.29
746.39	233.17
746.71	233.00
747.04	232.29
747.37	232.05
747.70	232.26
748.03	232.21
748.36	232.57
748.68	232.48
749.01	231.76
749.34	231.67
749.67	231.55
750.00	231.76
750.33	233.12
750.65	233.24
750.98	230.52
751.31	230.69
751.64	230.57
751.97	231.62
752.29	231.62
752.62	230.45
752.95	230.21
753.28	230.21
753.60	229.90
753.93	230.57
754.26	230.69
754.59	230.00
754.91	229.86
755.24	229.29
755.57	229.00
755.90	228.79
756.22	228.24
756.55	227.71
756.88	227.17
757.20	225.69
757.53	225.29
757.86	225.24
758.19	225.19
758.51	225.02
758.84	223.69
759.17	223.31
759.49	223.31
759.82	224.33
760.15	224.40
760.47	224.38
760.80	223.48
761.13	223.52
761.45	223.12
761.78	222.81
762.11	223.00
762.43	222.71
762.76	222.52
763.08	222.71
763.41	222.74
763.74	222.67
764.06	222.83
764.39	222.67
764.71	222.40
765.04	222.17
765.37	221.76
765.69	221.67
766.02	221.71
766.34	221.43
766.67	220.62
767.00	221.02
767.32	222.10
767.65	223.45
767.97	223.29
768.30	223.55
768.62	223.76
768.95	223.31
769.27	223.33
769.60	223.69
769.92	223.38
770.25	222.98
770.57	222.50
770.90	222.19
771.22	221.90
771.55	221.98
771.87	222.19
772.20	222.36
772.52	224.07
772.85	226.55
773.17	226.69
773.50	226.38
773.82	225.62
774.15	224.52
774.47	223.02
774.80	222.74
775.12	222.69
775.45	222.17
775.77	222.31
776.09	222.48
776.42	222.43
776.74	222.79
777.07	222.62
777.39	222.62
777.72	222.48
778.04	222.64
778.36	222.55
778.69	222.12
779.01	222.24
779.33	220.36
779.66	217.64
779.98	217.38
780.31	217.38
780.63	217.95
780.95	218.21
781.28	218.43
781.60	218.19
781.92	218.07
782.25	218.21
782.57	218.17
782.89	217.83
783.22	217.43
783.54	217.10
783.86	217.21
784.19	217.29
784.51	217.86
784.83	217.67
785.16	217.55
785.48	217.71
785.80	217.36
786.12	217.81
786.45	217.79
786.77	217.88
787.09	217.98
787.42	217.55
787.74	217.50
788.06	217.40
