SpectraSuite Data File
++++++++++++++++++++++++++++++++++++
Date: Tue Apr 02 18:43:17 EDT 2013
User: group
Dark Spectrum Present: No
Reference Spectrum Present: No
Number of Sampled Component Spectra: 1
Spectrometers: USB2E7196
Integration Time (usec): 580000 (USB2E7196)
Spectra Averaged: 2 (USB2E7196)
Boxcar Smoothing: 10 (USB2E7196)
Correct for Electrical Dark: No (USB2E7196)
Strobe/Lamp Enabled: No (USB2E7196)
Correct for Detector Non-linearity: No (USB2E7196)
Correct for Stray Light: No (USB2E7196)
Number of Pixels in Processed Spectrum: 2048
>>>>>Begin Processed Spectral Data<<<<<
339.09	0.00
339.48	193.50
339.86	197.50
340.24	192.00
340.63	197.00
341.01	231.50
341.39	203.50
341.78	205.00
342.16	211.50
342.54	205.00
342.93	197.48
343.31	207.43
343.69	208.17
344.07	208.55
344.46	209.38
344.84	209.83
345.22	208.48
345.60	208.83
345.99	209.14
346.37	209.19
346.75	209.29
347.13	209.45
347.52	209.48
347.90	209.93
348.28	209.88
348.66	210.21
349.05	209.57
349.43	209.93
349.81	210.07
350.19	210.17
350.57	210.43
350.96	210.48
351.34	210.62
351.72	210.45
352.10	210.62
352.48	210.48
352.87	210.45
353.25	210.62
353.63	210.43
354.01	210.29
354.39	210.48
354.77	210.55
355.15	211.29
355.54	211.21
355.92	210.83
356.30	211.17
356.68	212.55
357.06	212.62
357.44	211.93
357.82	212.05
358.20	212.90
358.58	212.69
358.97	212.64
359.35	212.98
359.73	213.40
360.11	213.31
360.49	213.50
360.87	213.74
361.25	214.05
361.63	214.88
362.01	215.10
362.39	214.76
362.77	215.10
363.15	214.64
363.53	214.71
363.91	215.05
364.29	215.00
364.67	212.81
365.05	213.10
365.43	213.62
365.81	213.74
366.19	213.81
366.57	214.69
366.95	214.79
367.33	214.19
367.71	214.17
368.09	214.71
368.47	214.83
368.85	214.62
369.23	215.10
369.61	214.40
369.99	215.00
370.37	215.31
370.75	216.26
371.13	215.95
371.51	215.45
371.89	215.60
372.27	215.86
372.65	216.12
373.03	216.02
373.41	215.93
373.78	216.00
374.16	215.31
374.54	214.67
374.92	214.45
375.30	214.62
375.68	214.40
376.06	214.29
376.44	214.14
376.82	214.26
377.19	214.12
377.57	214.10
377.95	213.43
378.33	213.29
378.71	211.95
379.09	212.31
379.47	212.71
379.84	212.36
380.22	211.90
380.60	211.79
380.98	211.86
381.36	211.86
381.73	211.43
382.11	211.67
382.49	211.93
382.87	211.98
383.25	212.05
383.62	214.62
384.00	214.50
384.38	214.71
384.76	215.31
385.13	216.07
385.51	216.17
385.89	216.05
386.27	216.07
386.64	216.52
387.02	216.17
387.40	216.02
387.78	216.21
388.15	216.31
388.53	216.17
388.91	216.14
389.29	216.00
389.66	216.24
390.04	215.81
390.42	216.10
390.79	216.36
391.17	216.19
391.55	213.74
391.92	213.60
392.30	213.79
392.68	213.45
393.05	213.12
393.43	213.33
393.81	213.52
394.18	213.50
394.56	213.52
394.94	214.17
395.31	214.02
395.69	214.79
396.06	215.24
396.44	215.60
396.82	215.45
397.19	216.81
397.57	216.60
397.95	217.02
398.32	216.57
398.70	216.64
399.07	217.12
399.45	216.98
399.82	217.21
400.20	216.83
400.58	216.64
400.95	215.95
401.33	216.29
401.70	217.79
402.08	217.60
402.45	217.64
402.83	218.14
403.20	218.48
403.58	218.14
403.95	218.45
404.33	218.81
404.71	219.29
405.08	220.12
405.46	220.62
405.83	220.90
406.21	221.10
406.58	221.60
406.96	221.93
407.33	222.71
407.70	223.19
408.08	225.48
408.45	226.31
408.83	227.55
409.20	227.83
409.58	227.24
409.95	228.57
410.33	229.57
410.70	229.69
411.08	230.76
411.45	231.86
411.82	232.88
412.20	234.40
412.57	236.60
412.95	236.17
413.32	237.98
413.69	239.36
414.07	241.17
414.44	242.81
414.82	244.83
415.19	247.24
415.56	249.33
415.94	250.40
416.31	253.36
416.68	255.86
417.06	258.98
417.43	262.19
417.81	265.48
418.18	268.90
418.55	272.76
418.93	276.62
419.30	280.74
419.67	285.00
420.04	289.14
420.42	293.21
420.79	300.71
421.16	306.17
421.54	313.10
421.91	319.19
422.28	325.50
422.66	332.21
423.03	339.93
423.40	346.98
423.77	354.43
424.15	361.26
424.52	369.45
424.89	378.29
425.26	386.38
425.64	394.38
426.01	402.62
426.38	411.29
426.75	421.19
427.13	430.48
427.50	440.36
427.87	450.79
428.24	460.90
428.61	469.19
428.99	480.57
429.36	491.55
429.73	502.76
430.10	513.79
430.47	525.43
430.85	536.29
431.22	548.69
431.59	563.57
431.96	576.69
432.33	590.12
432.70	603.45
433.08	619.62
433.45	634.17
433.82	649.76
434.19	666.79
434.56	683.48
434.93	699.00
435.30	714.74
435.68	731.95
436.05	749.45
436.42	766.57
436.79	782.76
437.16	799.67
437.53	818.12
437.90	836.43
438.27	854.05
438.64	871.55
439.01	889.19
439.38	902.52
439.75	917.33
440.13	934.31
440.50	949.83
440.87	962.86
441.24	976.67
441.61	991.19
441.98	1002.26
442.35	1013.90
442.72	1026.86
443.09	1040.55
443.46	1048.07
443.83	1053.45
444.20	1058.24
444.57	1064.10
444.94	1067.19
445.31	1070.69
445.68	1076.45
446.05	1078.21
446.42	1077.57
446.79	1076.36
447.16	1074.55
447.53	1073.86
447.90	1067.38
448.27	1061.40
448.64	1052.50
449.01	1046.74
449.37	1035.52
449.74	1024.74
450.11	1013.64
450.48	999.31
450.85	983.50
451.22	970.60
451.59	958.31
451.96	946.81
452.33	930.86
452.70	917.00
453.07	899.64
453.43	879.64
453.80	862.95
454.17	847.24
454.54	831.67
454.91	815.74
455.28	799.55
455.65	784.48
456.02	773.00
456.38	760.81
456.75	745.02
457.12	731.62
457.49	718.33
457.86	704.14
458.23	694.17
458.59	682.10
458.96	670.98
459.33	660.40
459.70	649.12
460.07	641.29
460.43	631.29
460.80	622.40
461.17	615.29
461.54	607.26
461.91	599.19
462.27	590.71
462.64	583.33
463.01	575.76
463.38	569.79
463.74	559.02
464.11	551.48
464.48	545.52
464.85	539.45
465.21	534.93
465.58	530.02
465.95	523.38
466.32	518.62
466.68	513.02
467.05	507.69
467.42	503.36
467.78	497.40
468.15	492.12
468.52	488.64
468.88	482.98
469.25	477.98
469.62	474.50
469.98	470.57
470.35	467.43
470.72	463.60
471.08	458.60
471.45	455.86
471.82	453.40
472.18	450.12
472.55	447.83
472.92	444.55
473.28	441.36
473.65	438.24
474.02	435.69
474.38	433.48
474.75	431.83
475.11	429.26
475.48	427.98
475.85	426.55
476.21	424.69
476.58	423.26
476.94	422.19
477.31	420.98
477.67	420.19
478.04	419.00
478.41	418.62
478.77	420.26
479.14	419.00
479.50	418.55
479.87	418.19
480.23	417.29
480.60	416.76
480.96	416.90
481.33	417.98
481.69	417.33
482.06	417.86
482.42	418.24
482.79	418.81
483.15	419.12
483.52	419.95
483.88	420.21
484.25	421.12
484.61	421.98
484.98	422.62
485.34	423.98
485.71	425.38
486.07	426.64
486.44	426.38
486.80	427.90
487.17	429.40
487.53	431.74
487.90	434.12
488.26	437.26
488.62	439.93
488.99	441.52
489.35	444.74
489.72	447.10
490.08	449.79
490.44	452.36
490.81	455.40
491.17	458.45
491.54	461.93
491.90	465.40
492.26	468.90
492.63	472.67
492.99	475.93
493.36	480.00
493.72	484.07
494.08	487.88
494.45	493.02
494.81	498.10
495.17	502.43
495.54	508.05
495.90	512.48
496.26	517.12
496.63	522.86
496.99	527.98
497.35	534.17
497.72	540.00
498.08	546.07
498.44	551.98
498.80	558.40
499.17	564.45
499.53	570.81
499.89	578.24
500.26	584.83
500.62	591.52
500.98	598.50
501.34	605.36
501.71	613.12
502.07	619.52
502.43	625.76
502.79	632.67
503.16	639.33
503.52	647.17
503.88	654.07
504.24	661.40
504.60	668.95
504.97	676.64
505.33	684.43
505.69	693.07
506.05	700.98
506.41	708.38
506.78	715.60
507.14	722.93
507.50	730.36
507.86	738.17
508.22	746.07
508.59	753.29
508.95	761.52
509.31	769.88
509.67	778.17
510.03	786.50
510.39	794.26
510.75	801.74
511.12	808.95
511.48	817.07
511.84	824.36
512.20	831.79
512.56	838.95
512.92	846.55
513.28	853.57
513.64	860.62
514.00	868.26
514.37	876.40
514.73	883.90
515.09	890.64
515.45	896.83
515.81	903.67
516.17	910.21
516.53	916.52
516.89	922.90
517.25	929.19
517.61	936.05
517.97	942.74
518.33	949.60
518.69	955.71
519.05	962.12
519.41	968.55
519.77	976.40
520.13	981.93
520.49	987.67
520.85	993.26
521.21	1000.71
521.57	1006.69
521.93	1011.36
522.29	1017.45
522.65	1022.98
523.01	1029.57
523.37	1035.31
523.73	1041.38
524.09	1045.79
524.45	1050.10
524.81	1055.10
525.17	1059.79
525.53	1064.71
525.89	1069.21
526.25	1074.33
526.61	1079.64
526.97	1083.55
527.33	1086.81
527.68	1093.07
528.04	1097.10
528.40	1101.52
528.76	1104.21
529.12	1108.17
529.48	1114.19
529.84	1117.45
530.20	1121.69
530.56	1125.81
530.91	1130.50
531.27	1134.57
531.63	1139.45
531.99	1142.40
532.35	1146.07
532.71	1149.81
533.07	1155.14
533.42	1161.31
533.78	1165.60
534.14	1169.43
534.50	1174.43
534.86	1179.10
535.21	1181.45
535.57	1185.48
535.93	1188.45
536.29	1193.40
536.65	1197.07
537.00	1199.43
537.36	1203.90
537.72	1207.36
538.08	1211.05
538.44	1214.12
538.79	1217.69
539.15	1220.93
539.51	1225.55
539.87	1229.95
540.22	1233.02
540.58	1235.17
540.94	1236.95
541.29	1239.50
541.65	1241.07
542.01	1244.19
542.37	1247.00
542.72	1249.12
543.08	1252.07
543.44	1255.83
543.79	1257.19
544.15	1260.14
544.51	1263.93
544.87	1266.71
545.22	1269.50
545.58	1272.40
545.94	1275.00
546.29	1277.71
546.65	1281.12
547.01	1283.95
547.36	1286.76
547.72	1289.79
548.07	1293.60
548.43	1295.21
548.79	1297.88
549.14	1301.05
549.50	1304.36
549.86	1306.21
550.21	1309.93
550.57	1312.57
550.92	1315.60
551.28	1318.95
551.64	1322.21
551.99	1325.17
552.35	1328.12
552.70	1331.50
553.06	1333.95
553.41	1336.57
553.77	1341.17
554.13	1344.52
554.48	1348.64
554.84	1351.90
555.19	1356.02
555.55	1360.24
555.90	1364.48
556.26	1369.52
556.61	1373.05
556.97	1375.43
557.32	1379.36
557.68	1383.10
558.03	1386.69
558.39	1390.29
558.74	1393.79
559.10	1397.83
559.45	1402.00
559.81	1406.24
560.16	1410.21
560.52	1414.67
560.87	1418.90
561.23	1421.50
561.58	1427.33
561.94	1430.48
562.29	1433.95
562.64	1438.88
563.00	1441.74
563.35	1446.95
563.71	1450.50
564.06	1456.21
564.42	1462.10
564.77	1468.21
565.12	1474.12
565.48	1481.69
565.83	1487.60
566.19	1493.86
566.54	1499.24
566.89	1504.48
567.25	1510.95
567.60	1518.33
567.96	1526.17
568.31	1533.19
568.66	1540.48
569.02	1544.62
569.37	1550.69
569.72	1557.29
570.08	1561.95
570.43	1566.90
570.78	1572.60
571.14	1579.07
571.49	1584.62
571.84	1590.62
572.20	1594.57
572.55	1599.33
572.90	1602.52
573.26	1607.02
573.61	1611.24
573.96	1616.29
574.31	1620.38
574.67	1624.14
575.02	1627.00
575.37	1628.88
575.72	1632.50
576.08	1635.57
576.43	1639.83
576.78	1644.31
577.13	1647.55
577.49	1650.74
577.84	1655.79
578.19	1659.48
578.54	1662.79
578.90	1667.33
579.25	1669.76
579.60	1672.64
579.95	1676.60
580.30	1680.67
580.66	1684.45
581.01	1688.36
581.36	1691.26
581.71	1694.64
582.06	1698.62
582.42	1702.52
582.77	1704.81
583.12	1707.86
583.47	1711.00
583.82	1713.76
584.17	1716.48
584.53	1720.57
584.88	1723.31
585.23	1726.36
585.58	1728.10
585.93	1730.52
586.28	1731.67
586.63	1734.24
586.98	1737.50
587.34	1739.88
587.69	1741.67
588.04	1744.29
588.39	1746.86
588.74	1748.12
589.09	1750.52
589.44	1750.67
589.79	1752.02
590.14	1755.24
590.49	1756.55
590.84	1757.88
591.19	1759.62
591.54	1760.98
591.89	1761.40
592.25	1766.05
592.60	1765.33
592.95	1766.62
593.30	1767.57
593.65	1769.05
594.00	1769.14
594.35	1776.36
594.70	1776.02
595.05	1776.90
595.40	1777.67
595.75	1778.43
596.10	1780.48
596.45	1780.98
596.80	1782.71
597.15	1782.21
597.50	1782.10
597.85	1782.86
598.19	1782.55
598.54	1782.02
598.89	1782.12
599.24	1783.64
599.59	1781.98
599.94	1783.40
600.29	1784.38
600.64	1784.21
600.99	1784.17
601.34	1785.60
601.69	1778.76
602.04	1778.71
602.39	1778.33
602.74	1778.07
603.08	1776.81
603.43	1776.07
603.78	1775.98
604.13	1775.05
604.48	1775.52
604.83	1775.31
605.18	1775.57
605.53	1776.24
605.87	1775.64
606.22	1775.05
606.57	1772.76
606.92	1771.57
607.27	1770.52
607.62	1769.02
607.96	1768.10
608.31	1767.33
608.66	1765.31
609.01	1764.81
609.36	1764.38
609.70	1763.29
610.05	1760.62
610.40	1759.36
610.75	1757.29
611.10	1755.52
611.44	1753.48
611.79	1750.52
612.14	1748.45
612.49	1743.62
612.83	1740.21
613.18	1736.98
613.53	1733.55
613.88	1731.31
614.22	1727.31
614.57	1723.69
614.92	1719.69
615.27	1716.05
615.61	1711.88
615.96	1708.48
616.31	1704.17
616.65	1701.74
617.00	1698.10
617.35	1694.52
617.70	1691.12
618.04	1687.05
618.39	1681.93
618.74	1677.71
619.08	1673.83
619.43	1669.76
619.78	1668.05
620.12	1664.45
620.47	1661.55
620.82	1657.52
621.16	1652.48
621.51	1650.21
621.85	1646.00
622.20	1642.14
622.55	1638.00
622.89	1634.52
623.24	1631.02
623.59	1627.24
623.93	1621.62
624.28	1617.29
624.62	1615.19
624.97	1612.26
625.32	1608.67
625.66	1605.64
626.01	1601.64
626.35	1598.33
626.70	1594.67
627.04	1590.62
627.39	1586.17
627.73	1583.00
628.08	1579.79
628.43	1575.95
628.77	1570.31
629.12	1566.67
629.46	1563.40
629.81	1559.81
630.15	1554.52
630.50	1549.67
630.84	1545.40
631.19	1540.88
631.53	1536.12
631.88	1528.64
632.22	1522.10
632.57	1517.57
632.91	1511.57
633.26	1507.14
633.60	1501.40
633.95	1494.95
634.29	1488.93
634.64	1484.90
634.98	1479.14
635.32	1474.88
635.67	1471.52
636.01	1467.83
636.36	1462.19
636.70	1457.10
637.05	1452.21
637.39	1448.00
637.73	1443.29
638.08	1439.07
638.42	1434.26
638.77	1430.02
639.11	1425.26
639.45	1420.19
639.80	1414.19
640.14	1409.64
640.49	1403.57
640.83	1398.48
641.17	1394.24
641.52	1388.67
641.86	1382.81
642.20	1378.26
642.55	1372.07
642.89	1365.26
643.23	1358.88
643.58	1354.79
643.92	1348.02
644.26	1341.05
644.61	1335.67
644.95	1330.14
645.29	1323.50
645.64	1317.81
645.98	1311.00
646.32	1306.45
646.66	1300.05
647.01	1293.71
647.35	1288.07
647.69	1282.79
648.04	1277.57
648.38	1271.74
648.72	1266.33
649.06	1260.45
649.41	1253.26
649.75	1246.93
650.09	1240.17
650.43	1234.29
650.78	1227.64
651.12	1222.17
651.46	1216.40
651.80	1209.24
652.14	1202.76
652.49	1197.24
652.83	1190.17
653.17	1183.31
653.51	1175.40
653.85	1169.33
654.20	1163.98
654.54	1156.50
654.88	1149.90
655.22	1143.64
655.56	1137.21
655.90	1130.29
656.25	1123.10
656.59	1117.00
656.93	1111.10
657.27	1106.43
657.61	1099.93
657.95	1092.95
658.29	1086.33
658.64	1080.81
658.98	1074.17
659.32	1066.98
659.66	1060.64
660.00	1054.50
660.34	1048.90
660.68	1043.29
661.02	1037.36
661.36	1030.43
661.70	1024.88
662.05	1018.81
662.39	1012.55
662.73	1006.88
663.07	1001.86
663.41	996.48
663.75	989.67
664.09	983.07
664.43	976.17
664.77	969.62
665.11	963.38
665.45	957.19
665.79	950.43
666.13	945.14
666.47	939.55
666.81	933.00
667.15	927.26
667.49	921.67
667.83	917.02
668.17	910.86
668.51	905.55
668.85	900.62
669.19	895.95
669.53	889.71
669.87	883.00
670.21	876.95
670.55	870.43
670.89	865.81
671.23	860.19
671.57	854.07
671.91	848.79
672.25	843.81
672.58	839.43
672.92	834.12
673.26	828.67
673.60	823.60
673.94	818.74
674.28	813.93
674.62	809.36
674.96	803.60
675.30	798.90
675.64	793.64
675.97	788.07
676.31	781.90
676.65	776.38
676.99	772.69
677.33	767.21
677.67	763.21
678.01	757.93
678.34	753.79
678.68	749.57
679.02	744.45
679.36	739.69
679.70	734.17
680.04	730.10
680.37	724.95
680.71	719.67
681.05	714.83
681.39	709.83
681.73	704.95
682.06	699.67
682.40	695.02
682.74	690.90
683.08	686.71
683.42	682.00
683.75	678.36
684.09	672.71
684.43	668.79
684.77	663.24
685.10	658.33
685.44	653.21
685.78	648.93
686.12	644.48
686.45	639.69
686.79	635.17
687.13	630.60
687.46	626.43
687.80	622.81
688.14	618.24
688.48	614.14
688.81	609.52
689.15	606.17
689.49	601.90
689.82	597.33
690.16	592.10
690.50	588.29
690.83	583.43
691.17	578.98
691.51	574.29
691.84	571.07
692.18	567.55
692.52	563.67
692.85	559.81
693.19	557.07
693.52	553.74
693.86	549.86
694.20	545.81
694.53	542.24
694.87	538.29
695.21	534.60
695.54	530.45
695.88	526.31
696.21	521.60
696.55	517.69
696.88	514.02
697.22	510.81
697.56	507.40
697.89	504.05
698.23	500.95
698.56	498.05
698.90	494.57
699.23	490.67
699.57	487.17
699.90	483.10
700.24	478.74
700.58	474.90
700.91	472.17
701.25	470.60
701.58	467.95
701.92	465.50
702.25	462.55
702.59	459.60
702.92	456.90
703.26	454.43
703.59	451.67
703.93	450.57
704.26	448.17
704.60	445.36
704.93	442.67
705.26	439.79
705.60	436.93
705.93	433.81
706.27	431.95
706.60	429.71
706.94	428.40
707.27	425.95
707.61	423.21
707.94	420.45
708.27	416.05
708.61	413.00
708.94	410.17
709.28	407.79
709.61	405.48
709.94	402.98
710.28	400.74
710.61	398.48
710.95	394.17
711.28	393.29
711.61	391.10
711.95	389.38
712.28	387.19
712.61	384.88
712.95	383.93
713.28	382.19
713.61	379.55
713.95	376.90
714.28	375.02
714.61	373.29
714.95	370.67
715.28	368.76
715.61	366.62
715.95	364.74
716.28	362.69
716.61	361.24
716.95	359.14
717.28	357.19
717.61	355.36
717.94	354.02
718.28	350.62
718.61	348.62
718.94	346.50
719.27	344.81
719.61	343.40
719.94	341.26
720.27	338.76
720.60	337.12
720.94	334.98
721.27	333.26
721.60	331.90
721.93	331.00
722.27	330.52
722.60	329.48
722.93	327.67
723.26	326.40
723.59	324.48
723.93	323.55
724.26	322.24
724.59	320.95
724.92	319.50
725.25	319.00
725.59	317.76
725.92	316.86
726.25	315.57
726.58	314.21
726.91	313.19
727.24	312.21
727.57	311.40
727.91	310.33
728.24	309.64
728.57	308.14
728.90	307.07
729.23	305.14
729.56	304.95
729.89	304.07
730.22	302.74
730.55	301.71
730.89	300.86
731.22	299.48
731.55	298.38
731.88	297.57
732.21	296.29
732.54	295.05
732.87	293.90
733.20	293.26
733.53	292.67
733.86	291.48
734.19	290.19
734.52	289.64
734.85	290.10
735.18	288.93
735.51	289.12
735.84	288.07
736.17	287.71
736.50	285.71
736.83	287.12
737.16	286.36
737.49	285.52
737.82	284.36
738.15	284.05
738.48	283.05
738.81	282.26
739.14	281.07
739.47	280.29
739.80	279.36
740.13	278.67
740.46	277.12
740.79	276.17
741.12	275.64
741.45	274.60
741.78	272.95
742.11	272.76
742.44	271.26
742.77	271.00
743.10	269.95
743.43	269.31
743.75	266.48
744.08	268.45
744.41	267.79
744.74	266.90
745.07	265.90
745.40	265.74
745.73	265.52
746.06	264.81
746.39	264.57
746.71	263.81
747.04	263.07
747.37	262.57
747.70	262.31
748.03	261.64
748.36	261.07
748.68	260.29
749.01	259.21
749.34	258.62
749.67	258.07
750.00	258.05
750.33	258.86
750.65	258.52
750.98	255.52
751.31	255.31
751.64	255.14
751.97	255.88
752.29	255.31
752.62	253.95
752.95	253.45
753.28	252.71
753.60	252.33
753.93	252.31
754.26	251.95
754.59	251.07
754.91	250.38
755.24	249.74
755.57	249.31
755.90	248.83
756.22	248.45
756.55	247.74
756.88	246.83
757.20	245.19
757.53	244.07
757.86	243.67
758.19	243.17
758.51	242.50
758.84	240.90
759.17	240.19
759.49	240.31
759.82	240.98
760.15	241.05
760.47	240.52
760.80	239.67
761.13	239.93
761.45	239.60
761.78	239.50
762.11	239.38
762.43	238.90
762.76	238.52
763.08	238.55
763.41	238.36
763.74	237.95
764.06	237.52
764.39	237.64
764.71	237.21
765.04	236.76
765.37	236.48
765.69	236.21
766.02	235.74
766.34	235.29
766.67	234.29
767.00	234.31
767.32	235.19
767.65	236.21
767.97	235.60
768.30	235.40
768.62	235.36
768.95	234.60
769.27	234.52
769.60	234.48
769.92	233.86
770.25	233.00
770.57	232.57
770.90	232.45
771.22	231.81
771.55	231.71
771.87	231.62
772.20	231.26
772.52	232.95
772.85	235.69
773.17	235.55
773.50	235.29
773.82	234.76
774.15	233.71
774.47	232.17
774.80	231.81
775.12	231.40
775.45	231.02
775.77	231.12
776.09	231.17
776.42	231.05
776.74	231.29
777.07	231.26
777.39	231.14
777.72	230.79
778.04	231.12
778.36	230.40
778.69	230.36
779.01	230.74
779.33	228.76
779.66	226.29
779.98	225.93
780.31	225.93
780.63	226.48
780.95	226.69
781.28	226.52
781.60	226.21
781.92	226.26
782.25	226.17
782.57	226.00
782.89	225.55
783.22	225.19
783.54	224.52
783.86	224.74
784.19	224.60
784.51	225.14
784.83	224.64
785.16	224.93
