SpectraSuite Data File
++++++++++++++++++++++++++++++++++++
Date: Tue Apr 02 18:40:56 EDT 2013
User: group
Dark Spectrum Present: No
Reference Spectrum Present: No
Number of Sampled Component Spectra: 1
Spectrometers: USB2E7196
Integration Time (usec): 580000 (USB2E7196)
Spectra Averaged: 2 (USB2E7196)
Boxcar Smoothing: 10 (USB2E7196)
Correct for Electrical Dark: No (USB2E7196)
Strobe/Lamp Enabled: No (USB2E7196)
Correct for Detector Non-linearity: No (USB2E7196)
Correct for Stray Light: No (USB2E7196)
Number of Pixels in Processed Spectrum: 2048
>>>>>Begin Processed Spectral Data<<<<<
339.09	0.00
339.48	194.50
339.86	198.00
340.24	200.50
340.63	196.50
341.01	230.00
341.39	203.00
341.78	210.00
342.16	205.50
342.54	209.50
342.93	199.36
343.31	209.17
343.69	209.64
344.07	210.07
344.46	210.64
344.84	211.31
345.22	210.24
345.60	210.62
345.99	210.67
346.37	210.81
346.75	210.79
347.13	210.71
347.52	211.00
347.90	211.74
348.28	211.81
348.66	212.21
349.05	211.48
349.43	211.57
349.81	211.90
350.19	211.93
350.57	212.07
350.96	212.07
351.34	212.40
351.72	212.60
352.10	212.67
352.48	212.50
352.87	212.62
353.25	212.55
353.63	212.50
354.01	212.48
354.39	212.62
354.77	212.83
355.15	213.71
355.54	213.31
355.92	212.57
356.30	212.33
356.68	213.48
357.06	213.62
357.44	213.45
357.82	213.36
358.20	214.36
358.58	214.17
358.97	214.19
359.35	214.52
359.73	215.02
360.11	215.07
360.49	215.14
360.87	214.86
361.25	215.12
361.63	215.69
362.01	215.79
362.39	215.76
362.77	215.76
363.15	215.36
363.53	215.45
363.91	215.43
364.29	215.50
364.67	213.67
365.05	213.45
365.43	213.62
365.81	213.76
366.19	213.81
366.57	214.52
366.95	214.45
367.33	214.05
367.71	213.81
368.09	214.29
368.47	214.14
368.85	214.31
369.23	214.81
369.61	214.10
369.99	214.79
370.37	215.02
370.75	215.86
371.13	215.38
371.51	215.21
371.89	215.81
372.27	215.86
372.65	216.07
373.03	216.31
373.41	216.05
373.78	216.02
374.16	214.93
374.54	214.38
374.92	214.26
375.30	214.21
375.68	214.05
376.06	214.05
376.44	214.19
376.82	214.48
377.19	214.38
377.57	214.19
377.95	213.36
378.33	213.05
378.71	211.86
379.09	212.24
379.47	212.52
379.84	212.19
380.22	212.07
380.60	212.00
380.98	211.88
381.36	211.95
381.73	211.76
382.11	212.29
382.49	212.29
382.87	212.19
383.25	212.38
383.62	214.81
384.00	214.62
384.38	214.52
384.76	214.95
385.13	215.76
385.51	215.83
385.89	215.62
386.27	215.69
386.64	216.07
387.02	215.83
387.40	215.43
387.78	215.40
388.15	215.60
388.53	215.38
388.91	215.57
389.29	215.55
389.66	215.62
390.04	215.17
390.42	215.69
390.79	215.76
391.17	215.52
391.55	213.36
391.92	212.86
392.30	213.10
392.68	212.36
393.05	212.17
393.43	212.40
393.81	212.83
394.18	212.71
394.56	212.76
394.94	213.45
395.31	213.52
395.69	214.19
396.06	214.50
396.44	214.74
396.82	214.64
397.19	215.67
397.57	215.79
397.95	216.50
398.32	215.60
398.70	215.67
399.07	216.31
399.45	215.90
399.82	216.17
400.20	216.10
400.58	216.33
400.95	215.67
401.33	216.21
401.70	217.55
402.08	217.95
402.45	217.93
402.83	218.33
403.20	218.45
403.58	218.24
403.95	218.76
404.33	219.29
404.71	219.48
405.08	220.55
405.46	220.93
405.83	221.19
406.21	221.83
406.58	222.43
406.96	222.45
407.33	223.14
407.70	223.88
408.08	225.98
408.45	226.86
408.83	227.71
409.20	228.10
409.58	227.81
409.95	228.81
410.33	230.02
410.70	230.52
411.08	231.76
411.45	232.93
411.82	233.67
412.20	235.07
412.57	237.69
412.95	237.60
413.32	239.33
413.69	240.88
414.07	242.52
414.44	244.50
414.82	246.67
415.19	249.31
415.56	251.86
415.94	253.26
416.31	256.12
416.68	259.07
417.06	262.38
417.43	265.79
417.81	269.17
418.18	273.02
418.55	277.10
418.93	281.29
419.30	285.69
419.67	290.33
420.04	294.57
420.42	298.57
420.79	306.10
421.16	311.83
421.54	318.76
421.91	325.45
422.28	331.79
422.66	338.88
423.03	346.98
423.40	353.83
423.77	361.45
424.15	368.64
424.52	376.29
424.89	385.69
425.26	393.88
425.64	402.17
426.01	410.52
426.38	419.67
426.75	429.90
427.13	439.76
427.50	449.69
427.87	460.36
428.24	471.17
428.61	479.71
428.99	491.45
429.36	502.86
429.73	514.64
430.10	526.50
430.47	538.81
430.85	549.90
431.22	563.43
431.59	578.95
431.96	592.60
432.33	607.43
432.70	621.10
433.08	638.29
433.45	653.86
433.82	669.64
434.19	687.71
434.56	704.86
434.93	721.00
435.30	738.17
435.68	756.52
436.05	774.50
436.42	792.00
436.79	808.52
437.16	826.74
437.53	846.05
437.90	864.93
438.27	883.76
438.64	902.83
439.01	920.48
439.38	934.21
439.75	949.60
440.13	967.38
440.50	983.76
440.87	996.98
441.24	1011.57
441.61	1027.12
441.98	1038.05
442.35	1050.26
442.72	1063.52
443.09	1077.55
443.46	1085.88
443.83	1092.14
444.20	1097.48
444.57	1103.79
444.94	1107.38
445.31	1110.50
445.68	1116.19
446.05	1116.93
446.42	1115.50
446.79	1114.64
447.16	1113.48
447.53	1112.64
447.90	1106.38
448.27	1100.21
448.64	1090.43
449.01	1083.93
449.37	1072.21
449.74	1060.14
450.11	1048.60
450.48	1033.69
450.85	1016.57
451.22	1003.36
451.59	990.19
451.96	977.98
452.33	961.74
452.70	946.12
453.07	927.38
453.43	907.19
453.80	889.93
454.17	873.71
454.54	857.43
454.91	840.10
455.28	822.71
455.65	807.57
456.02	795.38
456.38	782.86
456.75	766.14
457.12	752.33
457.49	739.52
457.86	724.43
458.23	714.02
458.59	701.95
458.96	689.50
459.33	678.24
459.70	667.14
460.07	658.67
460.43	648.43
460.80	639.81
461.17	632.24
461.54	624.19
461.91	615.57
462.27	607.00
462.64	599.69
463.01	592.40
463.38	584.62
463.74	573.64
464.11	566.50
464.48	560.52
464.85	553.90
465.21	549.14
465.58	544.45
465.95	537.17
466.32	531.86
466.68	525.95
467.05	520.48
467.42	515.24
467.78	509.12
468.15	503.88
468.52	500.33
468.88	494.00
469.25	488.76
469.62	484.93
469.98	480.26
470.35	476.45
470.72	472.24
471.08	467.57
471.45	464.05
471.82	461.24
472.18	457.60
472.55	454.98
472.92	451.02
473.28	447.60
473.65	444.48
474.02	441.69
474.38	439.52
474.75	437.81
475.11	435.14
475.48	433.62
475.85	431.95
476.21	429.60
476.58	428.40
476.94	427.17
477.31	426.07
477.67	424.86
478.04	423.74
478.41	422.98
478.77	424.33
479.14	423.33
479.50	422.38
479.87	422.17
480.23	422.05
480.60	421.60
480.96	421.24
481.33	422.48
481.69	422.40
482.06	422.95
482.42	423.48
482.79	424.81
483.15	425.43
483.52	426.45
483.88	426.93
484.25	427.60
484.61	428.71
484.98	429.52
485.34	431.50
485.71	433.21
486.07	434.71
486.44	434.24
486.80	435.86
487.17	437.17
487.53	439.26
487.90	441.19
488.26	444.60
488.62	448.36
488.99	450.07
489.35	452.95
489.72	455.45
490.08	457.45
490.44	459.79
490.81	462.83
491.17	465.81
491.54	469.79
491.90	474.00
492.26	477.38
492.63	481.10
492.99	484.69
493.36	488.71
493.72	493.57
494.08	498.19
494.45	503.24
494.81	508.79
495.17	513.88
495.54	519.17
495.90	523.67
496.26	528.29
496.63	533.98
496.99	539.62
497.35	545.10
497.72	551.81
498.08	558.31
498.44	564.64
498.80	570.69
499.17	577.29
499.53	583.31
499.89	590.74
500.26	597.76
500.62	604.90
500.98	612.69
501.34	620.05
501.71	627.95
502.07	635.43
502.43	642.88
502.79	649.98
503.16	657.05
503.52	664.88
503.88	671.55
504.24	679.95
504.60	687.60
504.97	696.31
505.33	704.12
505.69	712.45
506.05	719.93
506.41	728.40
506.78	736.24
507.14	744.36
507.50	752.40
507.86	760.90
508.22	768.79
508.59	775.76
508.95	783.88
509.31	792.86
509.67	800.83
510.03	808.40
510.39	816.45
510.75	825.02
511.12	832.90
511.48	842.00
511.84	849.62
512.20	857.52
512.56	865.74
512.92	874.14
513.28	881.69
513.64	889.98
514.00	897.98
514.37	905.81
514.73	913.98
515.09	921.71
515.45	929.00
515.81	936.62
516.17	944.48
516.53	950.88
516.89	956.40
517.25	964.12
517.61	972.26
517.97	979.48
518.33	986.05
518.69	993.21
519.05	1000.12
519.41	1006.95
519.77	1015.36
520.13	1021.81
520.49	1027.24
520.85	1033.57
521.21	1040.88
521.57	1047.12
521.93	1052.88
522.29	1058.71
522.65	1064.52
523.01	1071.02
523.37	1077.14
523.73	1083.21
524.09	1089.62
524.45	1094.86
524.81	1100.07
525.17	1105.45
525.53	1110.64
525.89	1116.21
526.25	1121.81
526.61	1126.38
526.97	1131.31
527.33	1135.14
527.68	1141.50
528.04	1147.24
528.40	1152.00
528.76	1156.26
529.12	1160.67
529.48	1166.67
529.84	1171.55
530.20	1176.50
530.56	1180.81
530.91	1185.60
531.27	1189.69
531.63	1193.98
531.99	1198.86
532.35	1203.00
532.71	1207.12
533.07	1213.33
533.42	1220.43
533.78	1224.71
534.14	1229.83
534.50	1234.55
534.86	1240.29
535.21	1243.29
535.57	1247.93
535.93	1252.07
536.29	1257.24
536.65	1262.12
537.00	1265.43
537.36	1268.98
537.72	1272.90
538.08	1277.00
538.44	1280.31
538.79	1284.57
539.15	1288.57
539.51	1292.88
539.87	1297.17
540.22	1300.93
540.58	1303.36
540.94	1305.29
541.29	1309.29
541.65	1311.52
542.01	1315.12
542.37	1317.50
542.72	1320.60
543.08	1323.52
543.44	1328.33
543.79	1330.43
544.15	1333.90
544.51	1337.93
544.87	1342.71
545.22	1346.24
545.58	1349.36
545.94	1353.21
546.29	1356.62
546.65	1359.55
547.01	1362.50
547.36	1366.10
547.72	1368.83
548.07	1372.81
548.43	1375.26
548.79	1378.14
549.14	1381.62
549.50	1385.05
549.86	1387.67
550.21	1390.62
550.57	1394.40
550.92	1396.19
551.28	1399.71
551.64	1402.83
551.99	1406.67
552.35	1408.69
552.70	1411.79
553.06	1415.69
553.41	1418.98
553.77	1423.67
554.13	1429.07
554.48	1434.14
554.84	1439.36
555.19	1444.81
555.55	1450.21
555.90	1454.48
556.26	1458.71
556.61	1463.33
556.97	1466.81
557.32	1472.21
557.68	1477.00
558.03	1480.74
558.39	1485.38
558.74	1489.81
559.10	1494.67
559.45	1498.17
559.81	1503.67
560.16	1508.12
560.52	1512.67
560.87	1518.00
561.23	1521.79
561.58	1527.05
561.94	1531.40
562.29	1534.52
562.64	1539.62
563.00	1542.81
563.35	1548.17
563.71	1553.43
564.06	1558.83
564.42	1564.74
564.77	1570.76
565.12	1576.71
565.48	1584.57
565.83	1590.88
566.19	1597.43
566.54	1603.21
566.89	1608.64
567.25	1615.33
567.60	1622.88
567.96	1630.69
568.31	1637.12
568.66	1643.90
569.02	1648.10
569.37	1652.69
569.72	1658.50
570.08	1663.31
570.43	1668.48
570.78	1674.10
571.14	1679.07
571.49	1684.36
571.84	1689.79
572.20	1693.45
572.55	1698.64
572.90	1701.67
573.26	1705.05
573.61	1708.60
573.96	1712.60
574.31	1717.21
574.67	1720.83
575.02	1722.64
575.37	1724.14
575.72	1726.76
576.08	1729.86
576.43	1732.86
576.78	1736.07
577.13	1739.21
577.49	1741.90
577.84	1745.71
578.19	1748.19
578.54	1751.36
578.90	1754.57
579.25	1756.21
579.60	1758.55
579.95	1759.45
580.30	1761.71
580.66	1765.14
581.01	1767.05
581.36	1768.48
581.71	1770.86
582.06	1772.83
582.42	1776.29
582.77	1778.62
583.12	1780.55
583.47	1782.31
583.82	1784.40
584.17	1787.50
584.53	1789.67
584.88	1791.36
585.23	1791.76
585.58	1793.74
585.93	1794.62
586.28	1795.62
586.63	1798.07
586.98	1800.12
587.34	1802.00
587.69	1803.10
588.04	1804.02
588.39	1805.79
588.74	1806.50
589.09	1807.26
589.44	1807.24
589.79	1807.14
590.14	1807.60
590.49	1807.43
590.84	1808.00
591.19	1809.17
591.54	1809.29
591.89	1808.69
592.25	1810.86
592.60	1810.95
592.95	1811.57
593.30	1812.24
593.65	1811.69
594.00	1810.76
594.35	1815.50
594.70	1814.55
595.05	1813.98
595.40	1813.60
595.75	1812.90
596.10	1812.17
596.45	1812.29
596.80	1812.17
597.15	1811.88
597.50	1810.86
597.85	1812.12
598.19	1810.62
598.54	1809.45
598.89	1808.14
599.24	1808.83
599.59	1805.79
599.94	1805.38
600.29	1803.19
600.64	1801.40
600.99	1801.05
601.34	1800.81
601.69	1794.48
602.04	1793.98
602.39	1792.45
602.74	1791.07
603.08	1789.26
603.43	1789.55
603.78	1786.98
604.13	1784.93
604.48	1783.07
604.83	1782.02
605.18	1779.83
605.53	1778.02
605.87	1775.05
606.22	1772.74
606.57	1769.31
606.92	1766.95
607.27	1764.60
607.62	1762.48
607.96	1760.95
608.31	1758.76
608.66	1756.31
609.01	1753.36
609.36	1750.64
609.70	1747.71
610.05	1744.45
610.40	1742.38
610.75	1739.00
611.10	1736.74
611.44	1732.48
611.79	1729.19
612.14	1726.05
612.49	1721.26
612.83	1716.69
613.18	1712.79
613.53	1709.17
613.88	1703.88
614.22	1699.57
614.57	1695.02
614.92	1690.74
615.27	1685.83
615.61	1679.93
615.96	1674.50
616.31	1669.55
616.65	1665.67
617.00	1661.52
617.35	1656.50
617.70	1651.19
618.04	1645.79
618.39	1639.57
618.74	1635.43
619.08	1629.40
619.43	1624.00
619.78	1619.07
620.12	1615.45
620.47	1611.31
620.82	1605.38
621.16	1600.57
621.51	1596.60
621.85	1591.26
622.20	1585.81
622.55	1580.29
622.89	1575.93
623.24	1570.55
623.59	1565.48
623.93	1559.45
624.28	1553.93
624.62	1551.43
624.97	1547.40
625.32	1542.55
625.66	1537.71
626.01	1533.12
626.35	1529.33
626.70	1523.19
627.04	1518.62
627.39	1512.60
627.73	1508.14
628.08	1504.10
628.43	1499.60
628.77	1494.24
629.12	1490.55
629.46	1485.98
629.81	1481.31
630.15	1475.64
630.50	1469.93
630.84	1464.07
631.19	1458.79
631.53	1453.45
631.88	1445.14
632.22	1437.79
632.57	1432.81
632.91	1427.02
633.26	1421.21
633.60	1415.14
633.95	1409.64
634.29	1403.33
634.64	1397.64
634.98	1391.14
635.32	1386.64
635.67	1381.29
636.01	1375.31
636.36	1368.26
636.70	1362.81
637.05	1357.10
637.39	1351.48
637.73	1346.95
638.08	1343.38
638.42	1337.90
638.77	1332.93
639.11	1327.10
639.45	1321.93
639.80	1314.62
640.14	1308.67
640.49	1302.26
640.83	1295.40
641.17	1290.05
641.52	1283.93
641.86	1278.62
642.20	1273.74
642.55	1266.50
642.89	1259.88
643.23	1253.55
643.58	1247.95
643.92	1240.67
644.26	1233.69
644.61	1228.36
644.95	1221.10
645.29	1212.98
645.64	1206.95
645.98	1199.93
646.32	1194.55
646.66	1187.26
647.01	1181.14
647.35	1175.62
647.69	1168.86
648.04	1163.67
648.38	1157.83
648.72	1151.50
649.06	1145.10
649.41	1137.74
649.75	1130.07
650.09	1124.17
650.43	1117.26
650.78	1110.33
651.12	1103.90
651.46	1097.17
651.80	1090.55
652.14	1084.45
652.49	1078.86
652.83	1071.48
653.17	1064.36
653.51	1057.43
653.85	1051.88
654.20	1045.67
654.54	1038.60
654.88	1032.33
655.22	1025.93
655.56	1018.55
655.90	1011.48
656.25	1004.43
656.59	998.14
656.93	992.62
657.27	986.81
657.61	980.88
657.95	975.19
658.29	968.86
658.64	963.14
658.98	956.10
659.32	949.19
659.66	942.12
660.00	936.33
660.34	930.33
660.68	924.19
661.02	917.74
661.36	911.60
661.70	905.62
662.05	899.55
662.39	893.83
662.73	888.29
663.07	884.14
663.41	878.79
663.75	871.93
664.09	865.88
664.43	858.86
664.77	852.83
665.11	846.12
665.45	840.83
665.79	835.31
666.13	830.00
666.47	824.48
666.81	819.31
667.15	813.60
667.49	808.76
667.83	803.81
668.17	797.95
668.51	792.40
668.85	787.33
669.19	783.10
669.53	776.90
669.87	770.83
670.21	764.76
670.55	759.21
670.89	755.69
671.23	750.86
671.57	746.24
671.91	741.40
672.25	736.98
672.58	732.55
672.92	726.88
673.26	721.88
673.60	717.10
673.94	711.81
674.28	706.98
674.62	702.67
674.96	698.00
675.30	694.45
675.64	690.45
675.97	686.07
676.31	681.43
676.65	676.62
676.99	673.43
677.33	668.43
677.67	664.24
678.01	658.48
678.34	654.40
678.68	650.12
679.02	645.57
679.36	641.05
679.70	636.26
680.04	632.52
680.37	628.12
680.71	624.14
681.05	620.31
681.39	616.60
681.73	611.95
682.06	607.40
682.40	602.31
682.74	598.17
683.08	594.50
683.42	589.33
683.75	585.81
684.09	581.02
684.43	577.45
684.77	573.14
685.10	569.05
685.44	564.74
685.78	560.67
686.12	556.55
686.45	552.86
686.79	548.43
687.13	545.07
687.46	541.19
687.80	537.62
688.14	533.62
688.48	529.74
688.81	525.57
689.15	522.24
689.49	518.95
689.82	514.86
690.16	510.14
690.50	506.93
690.83	503.17
691.17	499.43
691.51	495.43
691.84	492.40
692.18	489.57
692.52	486.00
692.85	483.40
693.19	481.40
693.52	477.93
693.86	475.02
694.20	471.43
694.53	468.50
694.87	465.14
695.21	462.14
695.54	458.69
695.88	455.29
696.21	451.67
696.55	448.79
696.88	446.07
697.22	443.17
697.56	440.93
697.89	438.05
698.23	435.31
698.56	432.43
698.90	429.48
699.23	426.17
699.57	423.60
699.90	420.45
700.24	416.71
700.58	414.07
700.91	412.02
701.25	411.24
701.58	409.02
701.92	407.17
702.25	404.50
702.59	401.74
702.92	399.50
703.26	397.36
703.59	394.90
703.93	394.12
704.26	392.38
704.60	389.71
704.93	387.38
705.26	385.45
705.60	384.24
705.93	381.83
706.27	380.29
706.60	378.79
706.94	377.83
707.27	375.62
707.61	373.71
707.94	371.43
708.27	367.67
708.61	365.45
708.94	363.24
709.28	361.26
709.61	359.43
709.94	357.98
710.28	356.26
710.61	354.36
710.95	351.07
711.28	350.36
711.61	348.60
711.95	347.31
712.28	345.71
712.61	343.62
712.95	343.05
713.28	342.29
713.61	339.98
713.95	337.38
714.28	336.26
714.61	334.98
714.95	333.14
715.28	331.29
715.61	329.52
715.95	327.98
716.28	326.40
716.61	325.50
716.95	324.00
717.28	322.26
717.61	320.74
717.94	319.31
718.28	316.79
718.61	315.12
718.94	313.19
719.27	311.36
719.61	310.19
719.94	308.24
720.27	306.05
720.60	304.93
720.94	303.71
721.27	302.90
721.60	301.57
721.93	300.60
722.27	300.40
722.60	299.88
722.93	298.55
723.26	298.12
723.59	296.67
723.93	295.88
724.26	295.05
724.59	294.38
724.92	293.55
725.25	293.05
725.59	292.24
725.92	291.79
726.25	291.14
726.58	290.38
726.91	289.48
727.24	288.86
727.57	288.12
727.91	287.00
728.24	285.76
728.57	284.74
728.90	284.21
729.23	282.69
729.56	282.31
729.89	281.74
730.22	280.50
730.55	279.88
730.89	278.86
731.22	278.14
731.55	277.33
731.88	276.71
732.21	275.76
732.54	275.31
732.87	274.33
733.20	273.86
733.53	273.26
733.86	272.83
734.19	271.88
734.52	271.64
734.85	272.57
735.18	271.95
735.51	271.93
735.84	271.26
736.17	271.33
736.50	269.64
736.83	271.50
737.16	271.02
737.49	270.36
737.82	269.83
738.15	269.52
738.48	268.76
738.81	267.93
739.14	267.00
739.47	265.95
739.80	265.67
740.13	265.10
740.46	263.98
740.79	263.10
741.12	262.64
741.45	261.31
741.78	259.69
742.11	259.60
742.44	258.74
742.77	258.36
743.10	257.38
743.43	256.86
743.75	253.86
744.08	256.21
744.41	255.67
744.74	255.02
745.07	254.00
745.40	254.00
745.73	254.40
746.06	253.90
746.39	253.90
746.71	253.07
747.04	252.21
747.37	251.83
747.70	251.64
748.03	251.00
748.36	251.24
748.68	250.48
749.01	249.36
749.34	248.88
749.67	248.52
750.00	248.48
750.33	249.88
750.65	249.95
750.98	246.83
751.31	246.64
751.64	246.36
751.97	247.14
752.29	246.48
752.62	245.21
752.95	244.90
753.28	244.24
753.60	243.83
753.93	244.17
754.26	244.00
754.59	243.17
754.91	242.79
755.24	242.12
755.57	241.76
755.90	241.38
756.22	240.90
756.55	240.14
756.88	239.48
757.20	237.67
757.53	236.43
757.86	236.17
758.19	236.02
758.51	235.45
758.84	234.14
759.17	233.67
759.49	233.48
759.82	234.05
760.15	234.24
760.47	233.81
760.80	232.83
761.13	232.83
761.45	232.57
761.78	232.21
762.11	231.93
762.43	231.76
762.76	231.48
763.08	231.24
763.41	231.19
763.74	230.95
764.06	230.83
764.39	230.88
764.71	230.57
765.04	230.19
765.37	229.98
765.69	229.74
766.02	229.48
766.34	229.10
766.67	228.21
767.00	228.10
767.32	229.19
767.65	230.36
767.97	230.07
768.30	229.98
768.62	229.83
768.95	229.50
769.27	229.05
769.60	229.12
769.92	228.74
770.25	228.24
770.57	227.71
770.90	227.33
771.22	226.81
771.55	226.76
771.87	226.60
772.20	226.33
772.52	227.88
772.85	230.10
773.17	230.07
773.50	229.86
773.82	229.43
774.15	228.24
774.47	226.60
774.80	226.29
775.12	226.14
775.45	226.10
775.77	226.26
776.09	226.48
776.42	226.57
776.74	226.98
777.07	226.79
777.39	226.71
777.72	226.57
778.04	226.90
778.36	226.64
778.69	226.60
779.01	226.93
779.33	225.07
779.66	222.81
779.98	222.38
780.31	222.29
780.63	222.98
780.95	223.31
781.28	223.48
781.60	223.12
781.92	223.05
782.25	223.02
782.57	222.88
782.89	222.50
783.22	222.10
783.54	221.88
783.86	222.02
784.19	222.07
784.51	222.81
784.83	222.36
785.16	221.93
