SpectraSuite Data File
++++++++++++++++++++++++++++++++++++
Date: Tue Apr 02 18:45:31 EDT 2013
User: group
Dark Spectrum Present: No
Reference Spectrum Present: No
Number of Sampled Component Spectra: 1
Spectrometers: USB2E7196
Integration Time (usec): 580000 (USB2E7196)
Spectra Averaged: 2 (USB2E7196)
Boxcar Smoothing: 10 (USB2E7196)
Correct for Electrical Dark: No (USB2E7196)
Strobe/Lamp Enabled: No (USB2E7196)
Correct for Detector Non-linearity: No (USB2E7196)
Correct for Stray Light: No (USB2E7196)
Number of Pixels in Processed Spectrum: 2048
>>>>>Begin Processed Spectral Data<<<<<
339.09	0.00
339.48	193.50
339.86	199.00
340.24	197.00
340.63	199.00
341.01	230.50
341.39	202.00
341.78	206.50
342.16	211.00
342.54	204.50
342.93	198.43
343.31	208.31
343.69	208.69
344.07	209.07
344.46	209.86
344.84	210.50
345.22	209.48
345.60	209.88
345.99	210.12
346.37	209.90
346.75	210.33
347.13	210.29
347.52	210.57
347.90	211.40
348.28	211.33
348.66	211.69
349.05	210.95
349.43	210.98
349.81	211.26
350.19	211.05
350.57	211.19
350.96	211.38
351.34	211.79
351.72	212.31
352.10	212.45
352.48	212.14
352.87	211.88
353.25	211.86
353.63	211.83
354.01	211.81
354.39	212.33
354.77	212.12
355.15	212.76
355.54	212.60
355.92	211.81
356.30	211.83
356.68	212.88
357.06	213.10
357.44	212.76
357.82	212.71
358.20	213.74
358.58	213.40
358.97	213.45
359.35	213.67
359.73	213.83
360.11	213.76
360.49	214.07
360.87	214.12
361.25	214.50
361.63	215.12
362.01	215.21
362.39	214.88
362.77	215.07
363.15	214.86
363.53	214.86
363.91	215.07
364.29	215.12
364.67	213.17
365.05	213.26
365.43	213.86
365.81	214.02
366.19	213.93
366.57	214.90
366.95	214.69
367.33	214.19
367.71	214.12
368.09	214.38
368.47	214.40
368.85	214.43
369.23	214.62
369.61	214.07
369.99	214.52
370.37	214.57
370.75	215.33
371.13	214.71
371.51	214.19
371.89	214.48
372.27	214.57
372.65	214.79
373.03	214.79
373.41	214.52
373.78	214.50
374.16	213.62
374.54	212.86
374.92	212.74
375.30	212.64
375.68	212.26
376.06	212.38
376.44	211.90
376.82	212.10
377.19	212.17
377.57	211.88
377.95	211.05
378.33	211.12
378.71	209.95
379.09	210.57
379.47	211.10
379.84	211.00
380.22	210.86
380.60	210.69
380.98	210.71
381.36	210.62
381.73	210.14
382.11	210.74
382.49	210.98
382.87	211.07
383.25	211.17
383.62	213.57
384.00	213.31
384.38	213.71
384.76	214.10
385.13	214.83
385.51	214.88
385.89	215.00
386.27	214.93
386.64	215.33
387.02	214.95
387.40	214.86
387.78	214.74
388.15	214.81
388.53	214.71
388.91	214.64
389.29	214.48
389.66	214.93
390.04	214.38
390.42	214.83
390.79	215.12
391.17	215.24
391.55	213.10
391.92	213.21
392.30	213.60
392.68	213.07
393.05	212.88
393.43	213.10
393.81	213.29
394.18	213.21
394.56	213.33
394.94	213.95
395.31	213.64
395.69	214.50
396.06	214.62
396.44	214.69
396.82	214.50
397.19	215.60
397.57	215.43
397.95	216.00
398.32	215.33
398.70	215.40
399.07	215.67
399.45	215.55
399.82	215.45
400.20	214.95
400.58	215.19
400.95	214.48
401.33	214.98
401.70	216.64
402.08	216.88
402.45	217.05
402.83	217.55
403.20	217.76
403.58	217.55
403.95	218.33
404.33	219.05
404.71	219.36
405.08	220.83
405.46	221.26
405.83	221.45
406.21	221.86
406.58	222.07
406.96	222.45
407.33	223.29
407.70	224.12
408.08	226.40
408.45	227.19
408.83	228.10
409.20	228.43
409.58	227.67
409.95	228.43
410.33	229.36
410.70	229.67
411.08	231.07
411.45	232.21
411.82	232.67
412.20	234.10
412.57	236.45
412.95	235.79
413.32	237.40
413.69	239.02
414.07	240.83
414.44	242.76
414.82	244.67
415.19	246.81
415.56	249.07
415.94	250.33
416.31	253.02
416.68	255.76
417.06	259.21
417.43	262.86
417.81	266.52
418.18	270.10
418.55	273.81
418.93	277.50
419.30	281.79
419.67	286.14
420.04	290.62
420.42	294.74
420.79	302.10
421.16	307.74
421.54	314.71
421.91	320.55
422.28	326.62
422.66	333.26
423.03	341.10
423.40	347.67
423.77	354.57
424.15	361.76
424.52	369.17
424.89	377.31
425.26	385.00
425.64	392.43
426.01	400.45
426.38	409.43
426.75	419.05
427.13	427.88
427.50	437.74
427.87	447.52
428.24	457.40
428.61	465.93
428.99	477.43
429.36	487.36
429.73	498.86
430.10	510.33
430.47	522.29
430.85	532.93
431.22	545.57
431.59	560.50
431.96	573.40
432.33	588.10
432.70	601.67
433.08	617.88
433.45	633.07
433.82	648.57
434.19	665.29
434.56	681.98
434.93	697.64
435.30	713.50
435.68	730.76
436.05	748.24
436.42	764.48
436.79	780.19
437.16	797.50
437.53	815.17
437.90	832.90
438.27	850.90
438.64	868.76
439.01	885.64
439.38	899.19
439.75	913.83
440.13	929.50
440.50	945.62
440.87	957.57
441.24	970.62
441.61	984.93
441.98	995.55
442.35	1007.07
442.72	1019.88
443.09	1032.93
443.46	1040.12
443.83	1044.79
444.20	1050.07
444.57	1055.55
444.94	1058.64
445.31	1062.12
445.68	1067.69
446.05	1068.38
446.42	1067.21
446.79	1065.90
447.16	1064.17
447.53	1063.24
447.90	1056.81
448.27	1049.76
448.64	1041.55
449.01	1036.02
449.37	1025.19
449.74	1014.62
450.11	1003.55
450.48	989.10
450.85	973.48
451.22	961.83
451.59	950.86
451.96	939.00
452.33	923.17
452.70	909.57
453.07	892.76
453.43	873.67
453.80	857.69
454.17	842.31
454.54	827.17
454.91	811.12
455.28	794.93
455.65	780.24
456.02	769.12
456.38	756.36
456.75	740.64
457.12	727.14
457.49	713.93
457.86	700.19
458.23	690.40
458.59	678.79
458.96	666.71
459.33	655.38
459.70	645.40
460.07	637.79
460.43	627.62
460.80	619.14
461.17	611.40
461.54	603.12
461.91	594.71
462.27	586.29
462.64	579.14
463.01	571.83
463.38	566.00
463.74	555.38
464.11	549.31
464.48	543.86
464.85	537.76
465.21	533.64
465.58	528.60
465.95	521.62
466.32	516.69
466.68	511.38
467.05	506.67
467.42	501.43
467.78	496.10
468.15	491.48
468.52	487.45
468.88	481.86
469.25	477.00
469.62	474.05
469.98	470.17
470.35	466.43
470.72	462.95
471.08	458.17
471.45	455.64
471.82	452.38
472.18	448.88
472.55	446.57
472.92	442.71
473.28	439.81
473.65	437.17
474.02	434.57
474.38	432.60
474.75	430.43
475.11	427.79
475.48	426.31
475.85	424.48
476.21	422.95
476.58	421.76
476.94	420.48
477.31	418.74
477.67	417.57
478.04	416.83
478.41	415.98
478.77	417.76
479.14	416.36
479.50	415.71
479.87	415.48
480.23	415.33
480.60	415.14
480.96	414.81
481.33	415.55
481.69	415.33
482.06	415.21
482.42	415.74
482.79	416.40
483.15	416.36
483.52	417.64
483.88	417.95
484.25	418.36
484.61	419.29
484.98	419.88
485.34	421.43
485.71	423.05
486.07	424.36
486.44	424.12
486.80	425.71
487.17	427.17
487.53	429.14
487.90	430.98
488.26	433.64
488.62	436.36
488.99	438.43
489.35	441.10
489.72	443.93
490.08	446.71
490.44	449.26
490.81	452.76
491.17	455.19
491.54	458.76
491.90	463.07
492.26	466.60
492.63	470.74
492.99	474.40
493.36	478.17
493.72	482.31
494.08	486.17
494.45	490.98
494.81	495.95
495.17	500.36
495.54	505.45
495.90	510.14
496.26	515.33
496.63	520.45
496.99	525.90
497.35	531.29
497.72	537.05
498.08	543.21
498.44	549.00
498.80	555.45
499.17	561.14
499.53	567.14
499.89	573.95
500.26	580.50
500.62	587.19
500.98	594.71
501.34	601.86
501.71	609.81
502.07	616.50
502.43	623.43
502.79	630.21
503.16	636.76
503.52	644.31
503.88	651.19
504.24	659.14
504.60	666.76
504.97	674.81
505.33	682.43
505.69	690.55
506.05	698.21
506.41	706.02
506.78	714.33
507.14	721.79
507.50	729.33
507.86	737.26
508.22	745.24
508.59	751.98
508.95	759.57
509.31	767.36
509.67	775.21
510.03	783.17
510.39	791.07
510.75	799.36
511.12	807.05
511.48	814.81
511.84	822.02
512.20	830.00
512.56	837.71
512.92	845.36
513.28	852.71
513.64	859.98
514.00	866.95
514.37	873.93
514.73	881.79
515.09	889.40
515.45	896.33
515.81	903.62
516.17	910.55
516.53	917.00
516.89	923.24
517.25	930.05
517.61	936.98
517.97	943.48
518.33	949.67
518.69	956.19
519.05	962.57
519.41	968.69
519.77	975.86
520.13	981.02
520.49	986.50
520.85	992.05
521.21	998.71
521.57	1004.79
521.93	1009.40
522.29	1014.17
522.65	1018.95
523.01	1024.29
523.37	1029.02
523.73	1034.29
524.09	1039.55
524.45	1044.07
524.81	1048.76
525.17	1053.31
525.53	1057.79
525.89	1062.31
526.25	1066.55
526.61	1070.52
526.97	1075.17
527.33	1078.81
527.68	1085.24
528.04	1089.74
528.40	1094.07
528.76	1097.17
529.12	1100.93
529.48	1106.81
529.84	1111.21
530.20	1115.12
530.56	1119.81
530.91	1123.79
531.27	1128.00
531.63	1132.10
531.99	1135.79
532.35	1139.71
532.71	1143.17
533.07	1148.05
533.42	1154.48
533.78	1158.83
534.14	1163.33
534.50	1167.12
534.86	1170.79
535.21	1172.79
535.57	1177.00
535.93	1180.95
536.29	1186.05
536.65	1190.64
537.00	1193.55
537.36	1197.29
537.72	1200.38
538.08	1203.10
538.44	1206.21
538.79	1209.48
539.15	1212.36
539.51	1216.50
539.87	1220.29
540.22	1224.67
540.58	1226.98
540.94	1228.21
541.29	1230.88
541.65	1232.76
542.01	1235.86
542.37	1238.19
542.72	1240.71
543.08	1242.55
543.44	1245.71
543.79	1246.17
544.15	1248.90
544.51	1252.17
544.87	1254.48
545.22	1258.57
545.58	1261.57
545.94	1264.36
546.29	1266.90
546.65	1269.76
547.01	1271.12
547.36	1273.48
547.72	1274.74
548.07	1277.76
548.43	1279.90
548.79	1281.79
549.14	1285.40
549.50	1287.81
549.86	1289.88
550.21	1293.21
550.57	1297.48
550.92	1299.29
551.28	1303.05
551.64	1305.88
551.99	1308.33
552.35	1311.36
552.70	1313.36
553.06	1315.98
553.41	1319.02
553.77	1323.69
554.13	1327.43
554.48	1331.90
554.84	1335.86
555.19	1340.74
555.55	1345.95
555.90	1350.00
556.26	1354.38
556.61	1356.93
556.97	1360.07
557.32	1364.57
557.68	1368.19
558.03	1371.00
558.39	1374.31
558.74	1378.60
559.10	1381.90
559.45	1386.52
559.81	1390.43
560.16	1395.05
560.52	1399.98
560.87	1405.24
561.23	1408.00
561.58	1412.64
561.94	1416.98
562.29	1421.33
562.64	1424.40
563.00	1427.10
563.35	1430.79
563.71	1435.62
564.06	1441.10
564.42	1446.95
564.77	1452.40
565.12	1458.21
565.48	1465.14
565.83	1471.81
566.19	1477.17
566.54	1483.02
566.89	1487.43
567.25	1493.88
567.60	1500.98
567.96	1508.05
568.31	1514.00
568.66	1520.98
569.02	1525.93
569.37	1531.33
569.72	1536.45
570.08	1542.90
570.43	1548.57
570.78	1555.26
571.14	1561.50
571.49	1566.24
571.84	1570.79
572.20	1576.14
572.55	1580.88
572.90	1584.00
573.26	1588.10
573.61	1592.95
573.96	1596.83
574.31	1601.50
574.67	1605.64
575.02	1607.33
575.37	1608.57
575.72	1611.86
576.08	1615.33
576.43	1618.79
576.78	1621.79
577.13	1625.98
577.49	1629.48
577.84	1633.02
578.19	1636.43
578.54	1639.50
578.90	1644.95
579.25	1648.31
579.60	1651.00
579.95	1654.14
580.30	1657.62
580.66	1661.62
581.01	1665.48
581.36	1668.74
581.71	1672.43
582.06	1676.55
582.42	1680.55
582.77	1684.45
583.12	1687.45
583.47	1690.62
583.82	1695.40
584.17	1699.40
584.53	1702.79
584.88	1705.81
585.23	1709.43
585.58	1712.26
585.93	1715.00
586.28	1717.19
586.63	1720.93
586.98	1724.17
587.34	1727.93
587.69	1730.64
588.04	1733.60
588.39	1735.50
588.74	1737.21
589.09	1739.45
589.44	1740.12
589.79	1742.95
590.14	1745.33
590.49	1746.79
590.84	1747.48
591.19	1748.88
591.54	1750.55
591.89	1751.69
592.25	1755.62
592.60	1756.81
592.95	1758.71
593.30	1760.67
593.65	1761.67
594.00	1762.24
594.35	1769.81
594.70	1769.26
595.05	1770.81
595.40	1771.45
595.75	1772.43
596.10	1774.57
596.45	1775.38
596.80	1776.60
597.15	1777.55
597.50	1778.60
597.85	1780.81
598.19	1781.95
598.54	1782.57
598.89	1783.00
599.24	1784.10
599.59	1783.14
599.94	1783.74
600.29	1783.62
600.64	1783.26
600.99	1783.43
601.34	1785.19
601.69	1778.69
602.04	1778.69
602.39	1778.50
602.74	1778.29
603.08	1777.31
603.43	1778.67
603.78	1778.98
604.13	1778.33
604.48	1776.90
604.83	1776.62
605.18	1775.64
605.53	1775.74
605.87	1774.31
606.22	1773.43
606.57	1772.07
606.92	1770.50
607.27	1770.05
607.62	1769.26
607.96	1769.36
608.31	1769.10
608.66	1767.07
609.01	1765.69
609.36	1765.07
609.70	1763.17
610.05	1760.90
610.40	1761.00
610.75	1757.93
611.10	1755.48
611.44	1753.48
611.79	1751.95
612.14	1749.10
612.49	1745.83
612.83	1743.02
613.18	1739.93
613.53	1737.55
613.88	1734.69
614.22	1731.36
614.57	1726.55
614.92	1723.33
615.27	1718.88
615.61	1714.52
615.96	1710.67
616.31	1707.67
616.65	1705.74
617.00	1703.38
617.35	1701.19
617.70	1697.21
618.04	1693.93
618.39	1690.05
618.74	1687.36
619.08	1683.83
619.43	1680.69
619.78	1678.33
620.12	1675.48
620.47	1672.64
620.82	1668.29
621.16	1663.69
621.51	1660.93
621.85	1657.81
622.20	1654.02
622.55	1650.33
622.89	1648.12
623.24	1645.81
623.59	1641.60
623.93	1636.74
624.28	1632.79
624.62	1630.14
624.97	1627.90
625.32	1622.81
625.66	1620.10
626.01	1615.26
626.35	1611.98
626.70	1608.31
627.04	1604.14
627.39	1599.50
627.73	1597.17
628.08	1593.74
628.43	1590.48
628.77	1586.10
629.12	1582.90
629.46	1579.05
629.81	1575.57
630.15	1569.69
630.50	1564.26
630.84	1559.81
631.19	1554.88
631.53	1549.14
631.88	1541.95
632.22	1534.48
632.57	1531.14
632.91	1525.43
633.26	1521.57
633.60	1515.67
633.95	1510.60
634.29	1505.17
634.64	1501.17
634.98	1494.79
635.32	1491.05
635.67	1486.90
636.01	1482.79
636.36	1477.90
636.70	1473.69
637.05	1468.83
637.39	1464.67
637.73	1460.38
638.08	1457.43
638.42	1453.24
638.77	1450.12
639.11	1445.86
639.45	1441.57
639.80	1436.48
640.14	1431.55
640.49	1425.79
640.83	1420.86
641.17	1415.95
641.52	1411.17
641.86	1405.50
642.20	1401.64
642.55	1396.36
642.89	1391.10
643.23	1385.60
643.58	1380.93
643.92	1374.83
644.26	1369.17
644.61	1364.40
644.95	1358.79
645.29	1351.52
645.64	1345.83
645.98	1339.74
646.32	1334.95
646.66	1329.36
647.01	1323.19
647.35	1318.26
647.69	1313.45
648.04	1308.48
648.38	1303.19
648.72	1297.74
649.06	1292.17
649.41	1285.38
649.75	1278.74
650.09	1272.26
650.43	1266.21
650.78	1259.50
651.12	1253.38
651.46	1247.33
651.80	1241.26
652.14	1235.52
652.49	1230.86
652.83	1225.12
653.17	1218.19
653.51	1211.74
653.85	1206.52
654.20	1200.38
654.54	1193.55
654.88	1186.40
655.22	1181.07
655.56	1174.43
655.90	1168.00
656.25	1161.43
656.59	1155.57
656.93	1149.38
657.27	1144.69
657.61	1137.74
657.95	1131.83
658.29	1125.64
658.64	1120.07
658.98	1112.79
659.32	1105.93
659.66	1098.88
660.00	1092.50
660.34	1087.24
660.68	1081.88
661.02	1075.17
661.36	1069.43
661.70	1063.69
662.05	1057.81
662.39	1051.52
662.73	1046.24
663.07	1041.55
663.41	1035.52
663.75	1029.57
664.09	1024.14
664.43	1016.98
664.77	1011.07
665.11	1004.64
665.45	998.74
665.79	992.36
666.13	986.67
666.47	981.21
666.81	975.93
667.15	970.36
667.49	964.88
667.83	959.19
668.17	954.00
668.51	948.50
668.85	943.71
669.19	939.33
669.53	932.74
669.87	926.36
670.21	919.81
670.55	914.10
670.89	909.24
671.23	903.60
671.57	898.79
671.91	893.93
672.25	889.17
672.58	884.79
672.92	879.45
673.26	874.60
673.60	869.55
673.94	863.88
674.28	858.43
674.62	853.07
674.96	847.52
675.30	842.33
675.64	837.00
675.97	831.76
676.31	826.38
676.65	821.60
676.99	818.02
677.33	813.29
677.67	809.19
678.01	803.21
678.34	798.21
678.68	793.10
679.02	787.79
679.36	782.57
679.70	777.24
680.04	772.19
680.37	767.24
680.71	761.95
681.05	757.29
681.39	752.57
681.73	747.86
682.06	742.71
682.40	738.45
682.74	734.00
683.08	729.90
683.42	724.62
683.75	720.05
684.09	714.52
684.43	709.60
684.77	704.55
685.10	700.07
685.44	695.12
685.78	690.43
686.12	686.12
686.45	681.55
686.79	676.64
687.13	672.55
687.46	667.86
687.80	663.74
688.14	659.10
688.48	654.62
688.81	650.14
689.15	646.17
689.49	641.00
689.82	636.50
690.16	630.95
690.50	626.86
690.83	622.43
691.17	617.50
691.51	613.50
691.84	609.29
692.18	604.90
692.52	600.71
692.85	596.88
693.19	593.52
693.52	589.19
693.86	584.62
694.20	580.12
694.53	576.24
694.87	572.12
695.21	568.17
695.54	563.83
695.88	559.14
696.21	554.33
696.55	550.31
696.88	546.52
697.22	542.45
697.56	539.02
697.89	535.05
698.23	531.95
698.56	527.57
698.90	523.83
699.23	520.19
699.57	516.74
699.90	512.79
700.24	508.79
700.58	505.57
700.91	502.88
701.25	501.21
701.58	499.07
701.92	495.95
702.25	492.50
702.59	489.19
702.92	486.40
703.26	483.76
703.59	480.95
703.93	479.50
704.26	477.38
704.60	474.14
704.93	471.14
705.26	467.76
705.60	465.45
705.93	462.17
706.27	459.88
706.60	457.50
706.94	455.76
707.27	452.45
707.61	449.86
707.94	447.07
708.27	442.50
708.61	438.38
708.94	435.81
709.28	433.36
709.61	430.64
709.94	428.10
710.28	425.29
710.61	422.76
710.95	418.45
711.28	416.83
711.61	414.64
711.95	412.86
712.28	410.38
712.61	407.76
712.95	406.43
713.28	404.83
713.61	402.31
713.95	399.12
714.28	397.19
714.61	394.86
714.95	392.52
715.28	390.55
715.61	388.52
715.95	386.31
716.28	383.74
716.61	382.00
716.95	379.45
717.28	377.24
717.61	375.02
717.94	372.79
718.28	369.07
718.61	366.71
718.94	364.21
719.27	362.40
719.61	360.62
719.94	358.14
720.27	355.29
720.60	353.33
720.94	351.36
721.27	349.69
721.60	348.19
721.93	346.57
722.27	345.45
722.60	344.26
722.93	342.26
723.26	341.14
723.59	339.31
723.93	338.00
724.26	337.17
724.59	335.26
724.92	334.45
725.25	333.98
725.59	332.55
725.92	331.64
726.25	330.29
726.58	328.83
726.91	327.40
727.24	326.36
727.57	325.05
727.91	323.50
728.24	322.52
728.57	320.83
728.90	319.43
729.23	317.48
729.56	316.93
729.89	315.95
730.22	314.62
730.55	313.83
730.89	312.67
731.22	311.38
731.55	310.48
731.88	309.02
732.21	307.33
732.54	306.00
732.87	304.62
733.20	303.69
733.53	302.90
733.86	302.26
734.19	300.76
734.52	299.83
734.85	300.40
735.18	298.81
735.51	298.52
735.84	297.93
736.17	297.76
736.50	296.24
736.83	297.55
737.16	296.64
737.49	295.55
737.82	294.67
738.15	293.90
738.48	293.05
738.81	292.12
739.14	291.05
739.47	290.24
739.80	289.43
740.13	288.62
740.46	287.29
740.79	286.00
741.12	285.12
741.45	284.21
741.78	282.26
742.11	282.36
742.44	281.10
742.77	280.40
743.10	279.29
743.43	278.17
743.75	275.07
744.08	277.00
744.41	276.14
744.74	275.31
745.07	273.98
745.40	273.81
745.73	273.81
746.06	273.19
746.39	272.98
746.71	272.17
747.04	271.21
747.37	270.50
747.70	270.19
748.03	269.64
748.36	269.31
748.68	268.48
749.01	266.86
749.34	266.38
749.67	265.90
750.00	265.52
750.33	266.50
750.65	266.31
750.98	263.14
751.31	262.52
751.64	262.07
751.97	263.12
752.29	262.17
752.62	260.79
752.95	260.29
753.28	259.17
753.60	258.69
753.93	258.88
754.26	258.52
754.59	257.64
754.91	256.76
755.24	255.93
755.57	255.52
755.90	255.29
756.22	254.64
756.55	253.69
756.88	252.81
757.20	250.79
757.53	249.38
757.86	248.74
758.19	248.67
758.51	248.21
758.84	246.31
759.17	245.71
759.49	245.57
759.82	246.02
760.15	246.02
760.47	245.52
760.80	244.24
761.13	244.33
761.45	243.76
761.78	243.33
762.11	242.81
762.43	242.24
762.76	241.74
763.08	241.62
763.41	241.36
763.74	241.14
764.06	240.81
764.39	240.79
764.71	240.60
765.04	239.79
765.37	239.48
765.69	239.33
766.02	238.86
766.34	238.19
766.67	237.26
767.00	237.07
767.32	238.00
767.65	239.07
767.97	238.62
768.30	238.36
768.62	238.24
768.95	237.81
769.27	237.43
769.60	237.67
769.92	237.00
770.25	236.38
770.57	235.74
770.90	235.50
771.22	235.05
771.55	234.74
771.87	234.69
772.20	234.29
772.52	235.79
772.85	238.14
773.17	238.05
773.50	237.67
773.82	237.14
774.15	235.79
774.47	234.17
774.80	233.52
775.12	233.29
775.45	233.05
775.77	233.02
776.09	233.07
776.42	232.57
776.74	233.02
777.07	232.67
777.39	232.64
777.72	232.43
778.04	232.48
778.36	232.33
778.69	232.26
779.01	232.38
779.33	230.40
779.66	228.02
779.98	227.81
780.31	227.48
780.63	228.31
780.95	228.50
781.28	228.40
781.60	228.05
781.92	228.10
782.25	227.83
782.57	227.57
782.89	227.38
783.22	227.10
783.54	226.48
783.86	226.57
784.19	226.26
784.51	226.71
784.83	226.43
