SpectraSuite Data File
++++++++++++++++++++++++++++++++++++
Date: Tue Apr 02 18:42:01 EDT 2013
User: group
Dark Spectrum Present: No
Reference Spectrum Present: No
Number of Sampled Component Spectra: 1
Spectrometers: USB2E7196
Integration Time (usec): 580000 (USB2E7196)
Spectra Averaged: 2 (USB2E7196)
Boxcar Smoothing: 10 (USB2E7196)
Correct for Electrical Dark: No (USB2E7196)
Strobe/Lamp Enabled: No (USB2E7196)
Correct for Detector Non-linearity: No (USB2E7196)
Correct for Stray Light: No (USB2E7196)
Number of Pixels in Processed Spectrum: 2048
>>>>>Begin Processed Spectral Data<<<<<
339.09	0.00
339.48	194.00
339.86	193.50
340.24	198.50
340.63	198.00
341.01	234.50
341.39	200.00
341.78	205.50
342.16	210.00
342.54	205.00
342.93	198.05
343.31	208.00
343.69	208.48
344.07	209.21
344.46	209.93
344.84	210.67
345.22	209.45
345.60	210.07
345.99	210.48
346.37	210.60
346.75	210.98
347.13	211.26
347.52	211.33
347.90	212.12
348.28	212.17
348.66	212.69
349.05	212.26
349.43	212.62
349.81	212.67
350.19	213.14
350.57	213.17
350.96	213.40
351.34	213.52
351.72	213.69
352.10	213.74
352.48	213.55
352.87	213.29
353.25	213.33
353.63	213.19
354.01	213.19
354.39	213.24
354.77	213.21
355.15	213.69
355.54	213.38
355.92	212.88
356.30	213.05
356.68	214.38
357.06	214.43
357.44	213.86
357.82	213.88
358.20	214.60
358.58	214.67
358.97	214.64
359.35	215.14
359.73	215.67
360.11	215.57
360.49	215.64
360.87	215.67
361.25	216.02
361.63	216.76
362.01	216.69
362.39	216.40
362.77	216.48
363.15	216.31
363.53	216.60
363.91	216.40
364.29	216.24
364.67	214.17
365.05	214.21
365.43	214.79
365.81	215.10
366.19	215.21
366.57	215.86
366.95	215.81
367.33	215.50
367.71	215.21
368.09	215.74
368.47	215.55
368.85	215.50
369.23	215.71
369.61	214.98
369.99	215.52
370.37	216.02
370.75	216.88
371.13	216.36
371.51	215.95
371.89	216.14
372.27	216.24
372.65	216.43
373.03	216.48
373.41	216.07
373.78	216.05
374.16	214.81
374.54	214.07
374.92	213.88
375.30	213.62
375.68	213.45
376.06	213.55
376.44	213.57
376.82	213.71
377.19	213.60
377.57	213.45
377.95	212.93
378.33	212.60
378.71	211.38
379.09	211.71
379.47	211.93
379.84	211.86
380.22	211.71
380.60	211.33
380.98	211.26
381.36	211.21
381.73	210.64
382.11	211.07
382.49	211.43
382.87	211.02
383.25	210.95
383.62	213.29
384.00	212.76
384.38	212.95
384.76	213.38
385.13	213.95
385.51	214.05
385.89	213.79
386.27	214.10
386.64	214.48
387.02	214.10
387.40	214.00
387.78	214.10
388.15	214.24
388.53	214.26
388.91	214.29
389.29	214.24
389.66	214.64
390.04	214.50
390.42	214.43
390.79	214.81
391.17	214.93
391.55	212.83
391.92	212.74
392.30	212.95
392.68	212.64
393.05	212.69
393.43	212.95
393.81	213.07
394.18	212.67
394.56	212.83
394.94	213.64
395.31	213.50
395.69	214.05
396.06	214.33
396.44	214.64
396.82	214.52
397.19	215.67
397.57	215.55
397.95	216.02
398.32	215.60
398.70	215.81
399.07	216.10
399.45	215.88
399.82	215.95
400.20	215.62
400.58	215.55
400.95	214.60
401.33	214.95
401.70	216.60
402.08	216.62
402.45	216.57
402.83	216.71
403.20	216.88
403.58	216.83
403.95	217.36
404.33	217.69
404.71	218.10
405.08	219.07
405.46	219.31
405.83	219.50
406.21	220.17
406.58	220.81
406.96	221.48
407.33	222.05
407.70	223.02
408.08	225.21
408.45	226.31
408.83	227.71
409.20	228.12
409.58	227.45
409.95	228.79
410.33	229.55
410.70	230.05
411.08	231.57
411.45	232.71
411.82	233.36
412.20	234.81
412.57	237.17
412.95	237.05
413.32	238.86
413.69	240.24
414.07	241.79
414.44	243.43
414.82	245.33
415.19	247.86
415.56	249.88
415.94	251.29
416.31	253.81
416.68	256.62
417.06	259.88
417.43	263.45
417.81	267.00
418.18	270.76
418.55	274.74
418.93	278.76
419.30	282.90
419.67	287.62
420.04	292.33
420.42	296.74
420.79	304.10
421.16	309.76
421.54	316.90
421.91	323.38
422.28	329.60
422.66	336.02
423.03	343.81
423.40	350.71
423.77	357.86
424.15	365.38
424.52	373.07
424.89	381.93
425.26	389.67
425.64	397.33
426.01	406.02
426.38	415.14
426.75	424.57
427.13	433.83
427.50	443.74
427.87	453.88
428.24	463.95
428.61	471.88
428.99	483.74
429.36	494.60
429.73	506.17
430.10	517.93
430.47	529.88
430.85	541.24
431.22	554.50
431.59	569.60
431.96	582.81
432.33	596.98
432.70	610.38
433.08	627.12
433.45	643.07
433.82	658.55
434.19	675.60
434.56	692.74
434.93	708.71
435.30	725.14
435.68	742.90
436.05	760.64
436.42	778.40
436.79	794.07
437.16	811.71
437.53	829.83
437.90	848.12
438.27	866.69
438.64	884.48
439.01	901.64
439.38	916.00
439.75	930.05
440.13	947.40
440.50	963.60
440.87	975.95
441.24	988.67
441.61	1004.17
441.98	1014.67
442.35	1026.71
442.72	1040.07
443.09	1053.14
443.46	1060.81
443.83	1065.88
444.20	1070.90
444.57	1076.86
444.94	1079.64
445.31	1083.24
445.68	1089.14
446.05	1090.76
446.42	1090.14
446.79	1089.19
447.16	1087.10
447.53	1086.64
447.90	1079.33
448.27	1072.81
448.64	1064.64
449.01	1059.21
449.37	1047.86
449.74	1037.07
450.11	1025.67
450.48	1010.52
450.85	994.67
451.22	981.67
451.59	969.43
451.96	957.43
452.33	941.88
452.70	927.74
453.07	909.79
453.43	889.79
453.80	872.83
454.17	856.43
454.54	840.60
454.91	824.38
455.28	808.10
455.65	793.33
456.02	781.74
456.38	768.43
456.75	752.17
457.12	737.74
457.49	724.52
457.86	709.38
458.23	699.57
458.59	687.19
458.96	675.31
459.33	664.50
459.70	653.90
460.07	645.02
460.43	635.07
460.80	626.52
461.17	618.98
461.54	610.17
461.91	601.88
462.27	593.45
462.64	586.14
463.01	578.40
463.38	571.83
463.74	560.90
464.11	554.60
464.48	548.52
464.85	542.48
465.21	538.43
465.58	533.86
465.95	527.02
466.32	522.64
466.68	517.29
467.05	512.55
467.42	506.81
467.78	501.57
468.15	496.71
468.52	493.10
468.88	487.26
469.25	482.24
469.62	478.93
469.98	474.67
470.35	470.83
470.72	467.52
471.08	462.88
471.45	460.05
471.82	457.38
472.18	454.00
472.55	451.74
472.92	447.83
473.28	444.95
473.65	441.98
474.02	438.83
474.38	436.88
474.75	434.81
475.11	432.83
475.48	431.36
475.85	429.50
476.21	427.57
476.58	426.02
476.94	424.95
477.31	423.55
477.67	422.33
478.04	421.55
478.41	420.31
478.77	421.69
479.14	420.24
479.50	418.98
479.87	418.93
480.23	418.55
480.60	418.07
480.96	418.07
481.33	418.79
481.69	418.31
482.06	418.50
482.42	418.43
482.79	418.81
483.15	419.24
483.52	420.00
483.88	420.38
484.25	421.38
484.61	422.40
484.98	422.83
485.34	424.57
485.71	425.74
486.07	427.57
486.44	426.98
486.80	428.74
487.17	430.14
487.53	432.36
487.90	434.17
488.26	437.36
488.62	439.69
488.99	441.52
489.35	444.74
489.72	446.90
490.08	449.71
490.44	452.55
490.81	455.60
491.17	458.48
491.54	462.21
491.90	465.71
492.26	469.26
492.63	473.07
492.99	477.12
493.36	480.98
493.72	485.14
494.08	489.71
494.45	494.90
494.81	500.45
495.17	504.95
495.54	510.17
495.90	514.55
496.26	519.83
496.63	525.07
496.99	530.36
497.35	536.52
497.72	542.71
498.08	548.62
498.44	554.62
498.80	561.33
499.17	567.10
499.53	573.33
499.89	580.17
500.26	587.07
500.62	593.12
500.98	600.24
501.34	607.69
501.71	615.07
502.07	621.64
502.43	628.07
502.79	635.14
503.16	641.81
503.52	648.69
503.88	656.00
504.24	663.95
504.60	671.64
504.97	679.02
505.33	687.24
505.69	695.93
506.05	703.81
506.41	711.33
506.78	719.45
507.14	726.93
507.50	734.40
507.86	742.38
508.22	751.10
508.59	758.64
508.95	766.36
509.31	775.21
509.67	783.57
510.03	791.38
510.39	799.55
510.75	807.69
511.12	816.40
511.48	824.10
511.84	832.17
512.20	840.12
512.56	847.81
512.92	854.83
513.28	862.57
513.64	870.31
514.00	877.19
514.37	884.52
514.73	893.17
515.09	900.60
515.45	907.55
515.81	914.83
516.17	922.14
516.53	928.43
516.89	934.21
517.25	941.05
517.61	948.64
517.97	954.81
518.33	961.71
518.69	968.67
519.05	975.60
519.41	981.71
519.77	988.90
520.13	995.24
520.49	1000.71
520.85	1006.14
521.21	1012.90
521.57	1019.57
521.93	1024.26
522.29	1029.55
522.65	1035.64
523.01	1041.60
523.37	1046.40
523.73	1051.74
524.09	1056.60
524.45	1061.76
524.81	1066.14
525.17	1070.86
525.53	1076.33
525.89	1081.12
526.25	1085.88
526.61	1090.14
526.97	1094.14
527.33	1098.29
527.68	1104.14
528.04	1109.31
528.40	1113.67
528.76	1117.45
529.12	1122.14
529.48	1128.57
529.84	1132.29
530.20	1137.02
530.56	1141.76
530.91	1145.64
531.27	1150.14
531.63	1155.50
531.99	1159.26
532.35	1163.45
532.71	1168.31
533.07	1172.14
533.42	1178.76
533.78	1182.52
534.14	1186.93
534.50	1191.33
534.86	1196.02
535.21	1199.24
535.57	1203.86
535.93	1207.83
536.29	1213.00
536.65	1216.74
537.00	1219.60
537.36	1223.26
537.72	1226.95
538.08	1230.07
538.44	1233.98
538.79	1237.81
539.15	1240.40
539.51	1245.50
539.87	1249.55
540.22	1252.21
540.58	1256.21
540.94	1257.62
541.29	1261.38
541.65	1264.14
542.01	1267.90
542.37	1270.74
542.72	1272.71
543.08	1274.62
543.44	1278.98
543.79	1279.74
544.15	1283.17
544.51	1286.64
544.87	1289.74
545.22	1292.17
545.58	1295.83
545.94	1298.69
546.29	1301.48
546.65	1305.19
547.01	1307.05
547.36	1310.00
547.72	1312.79
548.07	1315.67
548.43	1317.74
548.79	1318.88
549.14	1321.86
549.50	1324.90
549.86	1326.29
550.21	1329.74
550.57	1334.07
550.92	1335.31
551.28	1339.14
551.64	1340.93
551.99	1343.17
552.35	1347.00
552.70	1350.29
553.06	1354.19
553.41	1357.17
553.77	1361.83
554.13	1365.38
554.48	1369.71
554.84	1373.81
555.19	1378.40
555.55	1383.10
555.90	1387.29
556.26	1392.67
556.61	1396.43
556.97	1399.33
557.32	1404.21
557.68	1407.95
558.03	1410.95
558.39	1414.95
558.74	1419.10
559.10	1424.00
559.45	1429.07
559.81	1432.38
560.16	1436.67
560.52	1440.05
560.87	1445.79
561.23	1449.19
561.58	1454.40
561.94	1457.95
562.29	1462.10
562.64	1466.43
563.00	1470.19
563.35	1475.14
563.71	1480.24
564.06	1486.12
564.42	1491.67
564.77	1497.10
565.12	1503.29
565.48	1511.48
565.83	1518.79
566.19	1524.07
566.54	1530.48
566.89	1536.10
567.25	1543.55
567.60	1550.81
567.96	1559.48
568.31	1565.36
568.66	1570.98
569.02	1576.17
569.37	1582.38
569.72	1587.67
570.08	1592.29
570.43	1597.00
570.78	1603.43
571.14	1608.83
571.49	1613.50
571.84	1618.55
572.20	1623.50
572.55	1628.48
572.90	1630.24
573.26	1634.24
573.61	1638.38
573.96	1642.40
574.31	1646.45
574.67	1649.95
575.02	1653.50
575.37	1653.83
575.72	1656.74
576.08	1661.00
576.43	1664.38
576.78	1667.14
577.13	1671.74
577.49	1675.19
577.84	1679.95
578.19	1682.19
578.54	1685.43
578.90	1689.00
579.25	1692.86
579.60	1695.05
579.95	1697.57
580.30	1701.21
580.66	1704.12
581.01	1707.50
581.36	1710.24
581.71	1713.12
582.06	1716.43
582.42	1718.98
582.77	1722.02
583.12	1725.67
583.47	1728.40
583.82	1731.50
584.17	1734.95
584.53	1737.98
584.88	1741.43
585.23	1743.62
585.58	1745.62
585.93	1747.29
586.28	1749.81
586.63	1752.05
586.98	1755.17
587.34	1758.29
587.69	1759.74
588.04	1761.88
588.39	1764.19
588.74	1764.67
589.09	1766.64
589.44	1766.79
589.79	1768.21
590.14	1769.81
590.49	1770.36
590.84	1770.33
591.19	1771.33
591.54	1771.52
591.89	1771.24
592.25	1772.88
592.60	1772.88
592.95	1774.12
593.30	1775.52
593.65	1775.74
594.00	1776.00
594.35	1782.90
594.70	1782.12
595.05	1783.24
595.40	1782.83
595.75	1782.52
596.10	1784.40
596.45	1784.71
596.80	1786.31
597.15	1786.48
597.50	1786.45
597.85	1786.79
598.19	1786.93
598.54	1786.95
598.89	1787.05
599.24	1787.64
599.59	1786.83
599.94	1786.86
600.29	1787.07
600.64	1786.90
600.99	1786.14
601.34	1786.60
601.69	1779.76
602.04	1779.10
602.39	1777.71
602.74	1777.71
603.08	1777.17
603.43	1776.98
603.78	1776.38
604.13	1775.43
604.48	1774.67
604.83	1774.64
605.18	1773.93
605.53	1773.95
605.87	1772.43
606.22	1771.86
606.57	1770.57
606.92	1768.52
607.27	1767.29
607.62	1765.93
607.96	1764.10
608.31	1763.76
608.66	1761.31
609.01	1758.79
609.36	1758.00
609.70	1756.90
610.05	1754.45
610.40	1752.62
610.75	1749.00
611.10	1746.98
611.44	1743.60
611.79	1740.17
612.14	1736.69
612.49	1732.00
612.83	1728.05
613.18	1724.33
613.53	1720.95
613.88	1716.55
614.22	1713.26
614.57	1709.52
614.92	1705.81
615.27	1702.26
615.61	1697.26
615.96	1693.50
616.31	1689.50
616.65	1686.38
617.00	1682.00
617.35	1678.52
617.70	1674.57
618.04	1670.71
618.39	1665.43
618.74	1661.71
619.08	1657.33
619.43	1653.19
619.78	1650.24
620.12	1646.69
620.47	1642.60
620.82	1637.93
621.16	1633.36
621.51	1629.76
621.85	1625.12
622.20	1619.48
622.55	1614.12
622.89	1610.57
623.24	1606.02
623.59	1602.57
623.93	1597.02
624.28	1592.50
624.62	1590.21
624.97	1587.21
625.32	1582.57
625.66	1578.71
626.01	1573.90
626.35	1570.40
626.70	1566.14
627.04	1562.45
627.39	1557.76
627.73	1555.31
628.08	1551.64
628.43	1547.26
628.77	1542.55
629.12	1538.95
629.46	1535.43
629.81	1530.93
630.15	1525.43
630.50	1520.67
630.84	1515.40
631.19	1509.90
631.53	1505.36
631.88	1497.10
632.22	1489.93
632.57	1485.90
632.91	1479.95
633.26	1474.88
633.60	1468.43
633.95	1463.10
634.29	1456.76
634.64	1451.74
634.98	1443.90
635.32	1439.29
635.67	1435.21
636.01	1430.62
636.36	1424.79
636.70	1420.50
637.05	1415.76
637.39	1410.71
637.73	1406.29
638.08	1402.10
638.42	1398.29
638.77	1393.36
639.11	1387.86
639.45	1383.10
639.80	1376.60
640.14	1371.21
640.49	1365.93
640.83	1360.24
641.17	1354.12
641.52	1349.48
641.86	1344.07
642.20	1340.33
642.55	1333.02
642.89	1327.17
643.23	1320.88
643.58	1315.52
643.92	1308.12
644.26	1302.00
644.61	1296.55
644.95	1289.00
645.29	1281.31
645.64	1274.81
645.98	1268.21
646.32	1263.60
646.66	1256.86
647.01	1250.12
647.35	1245.14
647.69	1238.67
648.04	1233.52
648.38	1228.26
648.72	1221.26
649.06	1214.40
649.41	1207.55
649.75	1201.14
650.09	1194.19
650.43	1187.10
650.78	1180.14
651.12	1173.67
651.46	1167.00
651.80	1160.55
652.14	1154.60
652.49	1149.19
652.83	1141.83
653.17	1135.00
653.51	1127.43
653.85	1121.14
654.20	1115.62
654.54	1108.07
654.88	1101.10
655.22	1094.93
655.56	1088.17
655.90	1081.57
656.25	1074.88
656.59	1068.74
656.93	1063.07
657.27	1057.71
657.61	1051.55
657.95	1045.57
658.29	1039.17
658.64	1034.02
658.98	1027.07
659.32	1020.67
659.66	1014.12
660.00	1008.17
660.34	1001.79
660.68	995.52
661.02	988.83
661.36	982.36
661.70	976.14
662.05	969.57
662.39	963.36
662.73	957.88
663.07	953.05
663.41	947.76
663.75	941.64
664.09	935.55
664.43	928.52
664.77	922.10
665.11	915.57
665.45	910.07
665.79	902.79
666.13	896.95
666.47	891.17
666.81	885.10
667.15	879.55
667.49	874.90
667.83	870.43
668.17	865.29
668.51	859.79
668.85	855.45
669.19	851.88
669.53	845.38
669.87	838.93
670.21	832.60
670.55	826.43
670.89	821.40
671.23	816.24
671.57	811.14
671.91	806.10
672.25	801.40
672.58	796.86
672.92	792.19
673.26	787.05
673.60	782.05
673.94	776.88
674.28	771.71
674.62	766.95
674.96	761.17
675.30	756.86
675.64	751.88
675.97	746.10
676.31	740.31
676.65	735.98
676.99	732.05
677.33	726.98
677.67	722.55
678.01	716.90
678.34	712.17
678.68	707.76
679.02	702.69
679.36	697.67
679.70	692.10
680.04	687.14
680.37	682.69
680.71	677.90
681.05	674.00
681.39	669.33
681.73	664.31
682.06	659.98
682.40	654.83
682.74	650.93
683.08	647.81
683.42	643.45
683.75	639.33
684.09	634.62
684.43	630.43
684.77	625.71
685.10	621.69
685.44	617.48
685.78	613.21
686.12	609.86
686.45	605.31
686.79	601.12
687.13	597.43
687.46	593.10
687.80	589.81
688.14	585.52
688.48	581.86
688.81	577.55
689.15	574.36
689.49	570.45
689.82	566.24
690.16	560.86
690.50	556.57
690.83	552.29
691.17	547.76
691.51	543.98
691.84	540.45
692.18	536.33
692.52	532.33
692.85	528.79
693.19	525.52
693.52	522.00
693.86	518.19
694.20	514.07
694.53	510.62
694.87	506.52
695.21	502.38
695.54	498.57
695.88	494.60
696.21	489.55
696.55	486.33
696.88	483.21
697.22	480.17
697.56	477.07
697.89	473.83
698.23	470.90
698.56	467.14
698.90	464.29
699.23	460.93
699.57	457.81
699.90	454.00
700.24	450.38
700.58	447.52
700.91	445.17
701.25	444.31
701.58	442.21
701.92	439.50
702.25	437.26
702.59	434.14
702.92	431.71
703.26	429.52
703.59	426.57
703.93	425.26
704.26	422.69
704.60	420.52
704.93	417.62
705.26	414.95
705.60	413.00
705.93	409.76
706.27	408.02
706.60	405.81
706.94	404.74
707.27	402.31
707.61	400.10
707.94	397.10
708.27	393.26
708.61	389.76
708.94	387.95
709.28	385.83
709.61	383.90
709.94	381.95
710.28	379.93
710.61	377.95
710.95	373.93
711.28	373.38
711.61	371.19
711.95	369.79
712.28	367.71
712.61	365.76
712.95	364.95
713.28	363.79
713.61	361.33
713.95	358.55
714.28	356.95
714.61	355.21
714.95	353.86
715.28	351.83
715.61	350.45
715.95	348.79
716.28	346.55
716.61	345.19
716.95	343.31
717.28	341.55
717.61	339.90
717.94	338.50
718.28	335.14
718.61	333.62
718.94	331.55
719.27	329.86
719.61	328.31
719.94	326.60
720.27	324.00
720.60	322.67
720.94	321.31
721.27	320.00
721.60	318.93
721.93	317.52
722.27	316.74
722.60	315.69
722.93	313.86
723.26	312.98
723.59	311.50
723.93	310.24
724.26	309.24
724.59	308.05
724.92	307.24
725.25	306.81
725.59	305.57
725.92	305.07
726.25	304.31
726.58	303.57
726.91	302.19
727.24	301.57
727.57	300.76
727.91	299.50
728.24	298.57
728.57	297.07
728.90	296.21
729.23	294.76
729.56	294.52
729.89	293.76
730.22	292.67
730.55	291.52
730.89	290.88
731.22	289.79
731.55	288.86
731.88	287.71
732.21	286.31
732.54	285.31
732.87	284.17
733.20	283.55
733.53	282.62
733.86	282.19
734.19	281.02
734.52	280.55
734.85	280.90
735.18	279.60
735.51	279.55
735.84	279.12
736.17	279.07
736.50	277.26
736.83	278.69
737.16	278.05
737.49	277.60
737.82	276.52
738.15	276.33
738.48	275.55
738.81	274.71
739.14	273.90
739.47	273.07
739.80	272.24
740.13	271.48
740.46	270.31
740.79	269.05
741.12	268.60
741.45	267.40
741.78	265.98
742.11	266.07
742.44	264.83
742.77	264.38
743.10	263.24
743.43	262.83
743.75	259.74
744.08	261.86
744.41	260.86
744.74	260.60
745.07	259.12
745.40	258.71
745.73	259.10
746.06	258.83
746.39	258.45
746.71	257.79
747.04	257.05
747.37	256.69
747.70	256.48
748.03	255.86
748.36	255.71
748.68	255.19
749.01	254.12
749.34	253.83
749.67	253.17
750.00	253.21
750.33	254.24
750.65	254.33
750.98	251.43
751.31	251.19
751.64	250.67
751.97	251.48
752.29	251.24
752.62	250.07
752.95	249.48
753.28	248.93
753.60	248.57
753.93	248.76
754.26	248.50
754.59	247.74
754.91	247.05
755.24	246.62
755.57	246.10
755.90	245.79
756.22	245.07
756.55	244.40
756.88	243.36
757.20	241.64
757.53	240.62
757.86	239.90
758.19	239.93
758.51	239.45
758.84	238.19
759.17	237.48
759.49	237.19
759.82	237.88
760.15	237.95
760.47	237.57
760.80	236.67
761.13	236.79
761.45	236.48
761.78	236.52
762.11	236.24
762.43	235.79
762.76	235.24
763.08	235.29
763.41	235.21
763.74	234.95
764.06	234.55
764.39	234.40
764.71	234.14
765.04	233.52
765.37	233.29
765.69	233.14
766.02	233.10
766.34	232.57
766.67	231.64
767.00	231.55
767.32	232.50
767.65	233.29
767.97	232.74
768.30	232.52
768.62	232.19
768.95	231.64
769.27	231.21
769.60	231.40
769.92	230.90
770.25	230.48
770.57	230.00
770.90	229.83
771.22	229.55
771.55	229.55
771.87	229.48
772.20	229.02
772.52	230.50
772.85	232.57
773.17	232.43
773.50	232.05
773.82	231.62
774.15	230.40
774.47	229.14
774.80	228.81
775.12	228.76
775.45	228.55
775.77	228.60
776.09	228.95
776.42	229.05
776.74	229.50
777.07	229.10
777.39	229.21
777.72	228.74
778.04	229.10
778.36	228.74
778.69	228.50
779.01	228.71
779.33	226.83
779.66	224.52
779.98	224.26
780.31	224.05
780.63	224.60
780.95	224.98
781.28	224.98
781.60	224.83
781.92	224.88
782.25	224.71
782.57	224.64
782.89	224.12
783.22	223.33
783.54	222.83
783.86	223.02
784.19	222.69
784.51	223.38
784.83	222.71
785.16	222.55
