SpectraSuite Data File
++++++++++++++++++++++++++++++++++++
Date: Tue Apr 02 18:40:51 EDT 2013
User: group
Dark Spectrum Present: No
Reference Spectrum Present: No
Number of Sampled Component Spectra: 1
Spectrometers: USB2E7196
Integration Time (usec): 580000 (USB2E7196)
Spectra Averaged: 2 (USB2E7196)
Boxcar Smoothing: 10 (USB2E7196)
Correct for Electrical Dark: No (USB2E7196)
Strobe/Lamp Enabled: No (USB2E7196)
Correct for Detector Non-linearity: No (USB2E7196)
Correct for Stray Light: No (USB2E7196)
Number of Pixels in Processed Spectrum: 2048
>>>>>Begin Processed Spectral Data<<<<<
339.09	0.00
339.48	198.50
339.86	198.00
340.24	200.50
340.63	199.00
341.01	233.50
341.39	201.50
341.78	206.00
342.16	212.00
342.54	211.00
342.93	199.81
343.31	209.81
343.69	210.19
344.07	210.67
344.46	211.29
344.84	211.95
345.22	210.83
345.60	211.36
345.99	211.57
346.37	211.50
346.75	211.48
347.13	211.64
347.52	211.86
347.90	212.40
348.28	212.38
348.66	212.55
349.05	212.19
349.43	212.48
349.81	212.79
350.19	212.81
350.57	212.88
350.96	213.29
351.34	213.52
351.72	213.69
352.10	213.64
352.48	213.36
352.87	213.26
353.25	213.19
353.63	213.26
354.01	213.07
354.39	213.05
354.77	213.02
355.15	213.64
355.54	213.38
355.92	212.69
356.30	212.57
356.68	213.93
357.06	213.98
357.44	213.60
357.82	213.48
358.20	214.31
358.58	214.10
358.97	214.05
359.35	214.29
359.73	214.74
360.11	214.81
360.49	215.17
360.87	215.14
361.25	215.55
361.63	216.05
362.01	216.43
362.39	216.43
362.77	216.71
363.15	216.52
363.53	216.33
363.91	216.45
364.29	216.52
364.67	214.29
365.05	214.02
365.43	214.07
365.81	214.17
366.19	214.21
366.57	215.29
366.95	215.17
367.33	214.40
367.71	214.07
368.09	214.57
368.47	214.29
368.85	214.31
369.23	214.55
369.61	213.88
369.99	214.40
370.37	214.64
370.75	215.45
371.13	214.93
371.51	214.69
371.89	214.79
372.27	214.90
372.65	215.36
373.03	215.64
373.41	215.52
373.78	215.48
374.16	214.64
374.54	213.86
374.92	213.52
375.30	213.83
375.68	213.38
376.06	213.43
376.44	213.26
376.82	213.19
377.19	213.00
377.57	212.81
377.95	212.07
378.33	212.02
378.71	210.79
379.09	211.24
379.47	211.52
379.84	211.40
380.22	211.36
380.60	210.81
380.98	210.69
381.36	210.67
381.73	210.29
382.11	210.62
382.49	210.64
382.87	210.71
383.25	210.74
383.62	213.48
384.00	213.05
384.38	213.38
384.76	213.83
385.13	214.62
385.51	214.69
385.89	214.60
386.27	214.45
386.64	215.17
387.02	215.14
387.40	215.19
387.78	215.29
388.15	215.19
388.53	215.24
388.91	215.19
389.29	215.38
389.66	215.98
390.04	215.76
390.42	216.07
390.79	216.19
391.17	216.10
391.55	213.86
391.92	213.79
392.30	213.83
392.68	213.67
393.05	213.43
393.43	213.55
393.81	213.55
394.18	213.40
394.56	213.21
394.94	213.52
395.31	213.29
395.69	214.07
396.06	214.60
396.44	214.60
396.82	214.62
397.19	215.57
397.57	215.29
397.95	215.71
398.32	215.31
398.70	215.50
399.07	216.02
399.45	215.86
399.82	215.88
400.20	215.86
400.58	215.69
400.95	215.24
401.33	215.90
401.70	217.31
402.08	217.60
402.45	217.48
402.83	217.93
403.20	218.14
403.58	217.69
403.95	217.98
404.33	218.71
404.71	219.17
405.08	220.55
405.46	221.07
405.83	221.29
406.21	221.64
406.58	222.14
406.96	222.43
407.33	223.21
407.70	224.05
408.08	226.36
408.45	227.38
408.83	228.31
409.20	228.60
409.58	228.33
409.95	229.60
410.33	230.83
410.70	231.21
411.08	232.50
411.45	233.81
411.82	234.60
412.20	236.24
412.57	238.57
412.95	237.93
413.32	239.38
413.69	240.83
414.07	242.74
414.44	244.52
414.82	246.60
415.19	249.00
415.56	251.43
415.94	252.79
416.31	255.43
416.68	258.17
417.06	261.57
417.43	265.14
417.81	268.45
418.18	271.83
418.55	275.93
418.93	280.26
419.30	284.38
419.67	289.21
420.04	293.83
420.42	298.33
420.79	305.83
421.16	311.98
421.54	319.40
421.91	325.69
422.28	332.33
422.66	339.38
423.03	347.69
423.40	354.98
423.77	362.24
424.15	369.79
424.52	378.00
424.89	387.05
425.26	395.36
425.64	403.50
426.01	412.12
426.38	421.00
426.75	431.00
427.13	440.83
427.50	450.74
427.87	461.24
428.24	471.69
428.61	480.57
428.99	492.31
429.36	503.02
429.73	514.67
430.10	526.24
430.47	538.57
430.85	549.67
431.22	562.52
431.59	578.05
431.96	592.05
432.33	606.67
432.70	620.93
433.08	638.19
433.45	654.07
433.82	670.33
434.19	688.55
434.56	705.86
434.93	722.57
435.30	739.07
435.68	758.00
436.05	776.17
436.42	794.02
436.79	810.95
437.16	829.69
437.53	848.52
437.90	867.67
438.27	886.19
438.64	905.24
439.01	923.33
439.38	937.74
439.75	952.81
440.13	970.55
440.50	986.88
440.87	999.88
441.24	1014.33
441.61	1030.24
441.98	1041.10
442.35	1053.90
442.72	1067.29
443.09	1081.31
443.46	1088.45
443.83	1094.07
444.20	1098.76
444.57	1104.86
444.94	1107.71
445.31	1111.98
445.68	1117.88
446.05	1120.26
446.42	1118.62
446.79	1117.24
447.16	1115.43
447.53	1114.21
447.90	1107.05
448.27	1100.55
448.64	1091.76
449.01	1084.67
449.37	1071.95
449.74	1061.17
450.11	1049.36
450.48	1033.69
450.85	1017.00
451.22	1004.48
451.59	991.64
451.96	979.74
452.33	962.67
452.70	947.40
453.07	929.50
453.43	908.93
453.80	891.07
454.17	874.62
454.54	858.45
454.91	841.40
455.28	824.57
455.65	809.10
456.02	796.93
456.38	783.17
456.75	767.24
457.12	753.76
457.49	740.31
457.86	725.07
458.23	715.00
458.59	703.00
458.96	689.98
459.33	678.71
459.70	667.79
460.07	659.74
460.43	650.12
460.80	640.31
461.17	632.67
461.54	623.57
461.91	615.12
462.27	606.10
462.64	598.95
463.01	591.38
463.38	584.98
463.74	573.62
464.11	567.00
464.48	560.90
464.85	554.40
465.21	549.38
465.58	544.52
465.95	537.00
466.32	532.17
466.68	526.50
467.05	521.36
467.42	516.02
467.78	509.86
468.15	504.31
468.52	500.48
468.88	494.45
469.25	489.74
469.62	486.64
469.98	482.88
470.35	478.86
470.72	474.81
471.08	470.10
471.45	467.10
471.82	464.29
472.18	460.45
472.55	457.88
472.92	453.83
473.28	450.43
473.65	447.79
474.02	444.79
474.38	442.71
474.75	440.71
475.11	438.45
475.48	437.29
475.85	435.50
476.21	433.52
476.58	432.45
476.94	431.26
477.31	429.81
477.67	428.67
478.04	427.43
478.41	426.60
478.77	427.43
479.14	426.19
479.50	425.17
479.87	424.93
480.23	424.40
480.60	424.45
480.96	424.14
481.33	425.17
481.69	425.24
482.06	425.60
482.42	426.02
482.79	426.45
483.15	426.43
483.52	427.55
483.88	428.07
484.25	428.45
484.61	429.02
484.98	429.31
485.34	431.45
485.71	433.24
486.07	434.57
486.44	434.33
486.80	436.29
487.17	437.86
487.53	440.45
487.90	442.90
488.26	445.88
488.62	448.88
488.99	450.69
489.35	452.98
489.72	455.40
490.08	457.81
490.44	460.57
490.81	464.33
491.17	467.21
491.54	471.19
491.90	474.88
492.26	478.48
492.63	482.43
492.99	485.64
493.36	489.52
493.72	494.14
494.08	498.71
494.45	503.71
494.81	509.12
495.17	513.76
495.54	519.29
495.90	523.45
496.26	528.69
496.63	534.29
496.99	539.93
497.35	545.90
497.72	552.31
498.08	557.93
498.44	563.64
498.80	570.81
499.17	576.81
499.53	583.14
499.89	590.79
500.26	597.79
500.62	604.95
500.98	612.21
501.34	619.60
501.71	627.67
502.07	634.76
502.43	641.74
502.79	648.95
503.16	655.79
503.52	663.88
503.88	670.81
504.24	678.69
504.60	686.95
504.97	695.24
505.33	702.81
505.69	712.33
506.05	721.14
506.41	728.88
506.78	736.88
507.14	744.69
507.50	752.55
507.86	760.79
508.22	768.79
508.59	776.86
508.95	784.88
509.31	793.64
509.67	801.76
510.03	810.45
510.39	818.93
510.75	827.00
511.12	834.74
511.48	843.55
511.84	851.55
512.20	859.52
512.56	866.74
512.92	875.29
513.28	882.86
513.64	890.43
514.00	898.02
514.37	906.43
514.73	915.02
515.09	923.00
515.45	931.05
515.81	938.90
516.17	946.62
516.53	954.14
516.89	960.48
517.25	967.31
517.61	974.76
517.97	982.40
518.33	989.64
518.69	997.29
519.05	1004.05
519.41	1010.95
519.77	1019.50
520.13	1026.76
520.49	1032.67
520.85	1038.93
521.21	1045.74
521.57	1052.81
521.93	1058.43
522.29	1064.95
522.65	1070.10
523.01	1075.83
523.37	1080.86
523.73	1086.79
524.09	1092.62
524.45	1098.00
524.81	1104.10
525.17	1109.40
525.53	1113.60
525.89	1118.88
526.25	1124.12
526.61	1128.62
526.97	1133.74
527.33	1136.90
527.68	1143.64
528.04	1149.12
528.40	1153.40
528.76	1157.50
529.12	1162.45
529.48	1167.52
529.84	1171.90
530.20	1177.50
530.56	1182.81
530.91	1188.55
531.27	1193.19
531.63	1197.71
531.99	1201.29
532.35	1206.10
532.71	1209.31
533.07	1215.29
533.42	1222.48
533.78	1227.07
534.14	1232.62
534.50	1236.69
534.86	1242.64
535.21	1246.00
535.57	1251.55
535.93	1256.71
536.29	1263.00
536.65	1266.88
537.00	1271.10
537.36	1275.02
537.72	1278.76
538.08	1282.98
538.44	1286.26
538.79	1290.05
539.15	1294.38
539.51	1299.88
539.87	1303.50
540.22	1308.67
540.58	1311.81
540.94	1314.10
541.29	1318.40
541.65	1321.17
542.01	1325.67
542.37	1328.17
542.72	1330.93
543.08	1332.81
543.44	1335.98
543.79	1337.10
544.15	1341.10
544.51	1345.67
544.87	1349.33
545.22	1353.43
545.58	1356.14
545.94	1359.74
546.29	1363.74
546.65	1367.36
547.01	1370.52
547.36	1373.81
547.72	1376.40
548.07	1380.38
548.43	1382.79
548.79	1384.83
549.14	1388.45
549.50	1392.02
549.86	1394.17
550.21	1398.00
550.57	1401.81
550.92	1404.00
551.28	1408.67
551.64	1411.69
551.99	1414.79
552.35	1418.38
552.70	1421.29
553.06	1425.19
553.41	1428.81
553.77	1433.26
554.13	1436.81
554.48	1441.26
554.84	1445.79
555.19	1450.76
555.55	1455.98
555.90	1460.52
556.26	1465.10
556.61	1469.69
556.97	1472.90
557.32	1478.48
557.68	1482.24
558.03	1485.62
558.39	1491.62
558.74	1496.07
559.10	1500.79
559.45	1504.90
559.81	1509.71
560.16	1514.19
560.52	1518.10
560.87	1523.31
561.23	1526.90
561.58	1532.90
561.94	1537.07
562.29	1542.19
562.64	1547.52
563.00	1551.24
563.35	1555.90
563.71	1561.29
564.06	1566.60
564.42	1572.02
564.77	1578.05
565.12	1584.76
565.48	1593.67
565.83	1599.00
566.19	1605.21
566.54	1610.43
566.89	1616.40
567.25	1622.40
567.60	1629.88
567.96	1637.90
568.31	1644.14
568.66	1650.67
569.02	1653.69
569.37	1658.33
569.72	1663.81
570.08	1668.24
570.43	1672.67
570.78	1677.62
571.14	1682.67
571.49	1687.62
571.84	1692.67
572.20	1696.88
572.55	1701.60
572.90	1703.64
573.26	1708.17
573.61	1711.21
573.96	1715.52
574.31	1719.36
574.67	1722.95
575.02	1725.26
575.37	1727.02
575.72	1729.31
576.08	1732.60
576.43	1737.10
576.78	1741.10
577.13	1743.24
577.49	1745.98
577.84	1749.17
578.19	1752.81
578.54	1755.83
578.90	1759.48
579.25	1762.12
579.60	1764.07
579.95	1765.81
580.30	1768.74
580.66	1771.48
581.01	1773.88
581.36	1775.79
581.71	1777.90
582.06	1781.50
582.42	1783.86
582.77	1786.00
583.12	1788.64
583.47	1790.50
583.82	1792.48
584.17	1794.40
584.53	1797.52
584.88	1798.93
585.23	1801.24
585.58	1802.12
585.93	1803.00
586.28	1803.55
586.63	1805.26
586.98	1807.00
587.34	1808.83
587.69	1809.71
588.04	1810.98
588.39	1812.86
588.74	1813.19
589.09	1814.60
589.44	1813.19
589.79	1813.55
590.14	1814.67
590.49	1814.14
590.84	1813.86
591.19	1814.26
591.54	1814.31
591.89	1813.24
592.25	1815.74
592.60	1815.50
592.95	1816.26
593.30	1817.36
593.65	1816.62
594.00	1815.71
594.35	1820.79
594.70	1818.67
595.05	1818.29
595.40	1816.40
595.75	1815.26
596.10	1815.60
596.45	1814.48
596.80	1814.26
597.15	1814.19
597.50	1811.83
597.85	1812.86
598.19	1811.71
598.54	1810.50
598.89	1809.12
599.24	1808.57
599.59	1806.40
599.94	1804.55
600.29	1803.21
600.64	1800.48
600.99	1799.88
601.34	1799.48
601.69	1793.31
602.04	1792.02
602.39	1789.55
602.74	1788.62
603.08	1786.24
603.43	1785.24
603.78	1783.60
604.13	1782.29
604.48	1779.57
604.83	1778.95
605.18	1775.95
605.53	1774.31
605.87	1770.81
606.22	1768.76
606.57	1765.90
606.92	1762.38
607.27	1760.50
607.62	1757.90
607.96	1757.60
608.31	1754.81
608.66	1752.36
609.01	1748.74
609.36	1746.38
609.70	1744.02
610.05	1740.71
610.40	1738.00
610.75	1733.95
611.10	1730.10
611.44	1725.50
611.79	1721.76
612.14	1717.88
612.49	1713.76
612.83	1709.76
613.18	1706.71
613.53	1702.57
613.88	1697.95
614.22	1693.29
614.57	1688.33
614.92	1683.62
615.27	1677.76
615.61	1672.31
615.96	1667.31
616.31	1662.24
616.65	1659.05
617.00	1654.38
617.35	1649.83
617.70	1644.79
618.04	1639.17
618.39	1634.21
618.74	1629.48
619.08	1624.31
619.43	1618.52
619.78	1613.88
620.12	1609.17
620.47	1604.90
620.82	1599.45
621.16	1594.81
621.51	1590.83
621.85	1585.86
622.20	1579.90
622.55	1574.48
622.89	1569.26
623.24	1563.90
623.59	1558.48
623.93	1552.79
624.28	1547.79
624.62	1544.60
624.97	1541.36
625.32	1536.86
625.66	1532.17
626.01	1527.50
626.35	1523.74
626.70	1519.29
627.04	1515.38
627.39	1510.31
627.73	1505.29
628.08	1501.48
628.43	1496.07
628.77	1491.07
629.12	1487.00
629.46	1483.12
629.81	1478.45
630.15	1473.36
630.50	1467.64
630.84	1462.45
631.19	1455.60
631.53	1449.86
631.88	1441.83
632.22	1434.21
632.57	1428.90
632.91	1421.79
633.26	1415.93
633.60	1409.31
633.95	1402.36
634.29	1395.10
634.64	1389.88
634.98	1383.19
635.32	1377.31
635.67	1372.69
636.01	1366.79
636.36	1359.60
636.70	1354.74
637.05	1349.07
637.39	1344.74
637.73	1340.00
638.08	1335.57
638.42	1330.55
638.77	1325.29
639.11	1319.79
639.45	1315.14
639.80	1309.50
640.14	1304.95
640.49	1298.98
640.83	1293.29
641.17	1289.02
641.52	1283.55
641.86	1277.67
642.20	1273.19
642.55	1266.57
642.89	1259.79
643.23	1253.55
643.58	1248.62
643.92	1240.83
644.26	1234.38
644.61	1227.33
644.95	1219.95
645.29	1212.62
645.64	1206.83
645.98	1200.43
646.32	1194.21
646.66	1186.64
647.01	1179.10
647.35	1173.31
647.69	1166.52
648.04	1160.17
648.38	1153.40
648.72	1146.71
649.06	1139.43
649.41	1131.95
649.75	1125.12
650.09	1118.38
650.43	1111.52
650.78	1103.93
651.12	1097.45
651.46	1090.43
651.80	1083.76
652.14	1077.48
652.49	1072.14
652.83	1065.00
653.17	1058.07
653.51	1051.19
653.85	1045.26
654.20	1039.00
654.54	1031.38
654.88	1024.12
655.22	1018.36
655.56	1011.38
655.90	1004.40
656.25	997.98
656.59	991.90
656.93	986.21
657.27	981.12
657.61	974.50
657.95	968.88
658.29	962.29
658.64	956.71
658.98	950.12
659.32	943.69
659.66	936.29
660.00	930.17
660.34	924.05
660.68	918.10
661.02	911.52
661.36	905.10
661.70	899.19
662.05	894.50
662.39	888.17
662.73	883.50
663.07	878.88
663.41	872.93
663.75	866.71
664.09	860.74
664.43	853.71
664.77	848.45
665.11	842.64
665.45	837.14
665.79	830.79
666.13	825.21
666.47	820.00
666.81	814.57
667.15	808.81
667.49	803.79
667.83	799.24
668.17	793.95
668.51	788.95
668.85	783.83
669.19	779.43
669.53	773.50
669.87	767.52
670.21	761.48
670.55	756.14
670.89	751.71
671.23	746.52
671.57	741.83
671.91	736.90
672.25	731.64
672.58	727.64
672.92	722.10
673.26	717.57
673.60	712.38
673.94	707.93
674.28	702.81
674.62	698.45
674.96	693.38
675.30	689.10
675.64	684.95
675.97	680.57
676.31	675.43
676.65	671.00
676.99	666.86
677.33	662.26
677.67	658.10
678.01	653.10
678.34	648.83
678.68	645.07
679.02	640.50
679.36	636.17
679.70	630.74
680.04	627.00
680.37	622.26
680.71	618.02
681.05	614.19
681.39	610.95
681.73	606.52
682.06	601.93
682.40	597.55
682.74	593.86
683.08	590.55
683.42	586.19
683.75	582.26
684.09	577.86
684.43	573.88
684.77	569.31
685.10	565.36
685.44	561.19
685.78	557.10
686.12	553.33
686.45	549.52
686.79	546.05
687.13	542.64
687.46	539.17
687.80	535.93
688.14	531.71
688.48	527.29
688.81	523.71
689.15	521.05
689.49	517.43
689.82	513.36
690.16	508.40
690.50	504.67
690.83	501.07
691.17	497.43
691.51	494.02
691.84	490.98
692.18	487.55
692.52	484.50
692.85	481.17
693.19	478.26
693.52	475.05
693.86	472.07
694.20	468.93
694.53	466.00
694.87	462.55
695.21	459.17
695.54	456.74
695.88	452.86
696.21	448.60
696.55	445.55
696.88	442.31
697.22	439.64
697.56	436.76
697.89	433.36
698.23	430.76
698.56	427.83
698.90	425.24
699.23	422.29
699.57	419.29
699.90	416.40
700.24	413.52
700.58	410.67
700.91	407.93
701.25	406.79
701.58	404.79
701.92	402.83
702.25	400.79
702.59	398.31
702.92	396.24
703.26	394.40
703.59	392.00
703.93	391.40
704.26	389.55
704.60	387.62
704.93	385.93
705.26	383.64
705.60	381.86
705.93	379.43
706.27	377.86
706.60	376.48
706.94	375.31
707.27	372.90
707.61	371.07
707.94	369.24
708.27	365.81
708.61	363.05
708.94	361.14
709.28	359.19
709.61	356.71
709.94	354.93
710.28	353.74
710.61	351.98
710.95	348.69
711.28	348.38
711.61	346.69
711.95	345.71
712.28	343.98
712.61	342.40
712.95	341.93
713.28	341.19
713.61	339.14
713.95	336.86
714.28	335.69
714.61	334.19
714.95	332.71
715.28	330.90
715.61	329.86
715.95	328.38
716.28	326.83
716.61	326.02
716.95	324.43
717.28	322.50
717.61	321.26
717.94	319.88
718.28	316.95
718.61	315.40
718.94	313.29
719.27	311.71
719.61	310.31
719.94	308.36
720.27	305.95
720.60	304.55
720.94	303.38
721.27	302.14
721.60	301.43
721.93	299.90
722.27	299.79
722.60	298.74
722.93	297.33
723.26	296.55
723.59	295.05
723.93	294.45
724.26	293.64
724.59	292.48
724.92	291.74
725.25	291.52
725.59	290.86
725.92	290.48
726.25	289.71
726.58	288.93
726.91	288.12
727.24	287.67
727.57	286.60
727.91	285.45
728.24	284.88
728.57	283.69
728.90	283.43
729.23	281.88
729.56	281.79
729.89	281.05
730.22	280.12
730.55	279.40
730.89	278.33
731.22	277.60
731.55	276.98
731.88	276.62
732.21	275.64
732.54	274.48
732.87	273.43
733.20	272.95
733.53	272.14
733.86	271.52
734.19	270.43
734.52	270.48
734.85	271.24
735.18	270.21
735.51	270.21
735.84	269.67
736.17	269.57
736.50	268.17
736.83	269.90
737.16	269.26
737.49	268.88
737.82	268.17
738.15	267.60
738.48	267.12
738.81	266.29
739.14	265.19
739.47	264.67
739.80	264.17
740.13	263.83
740.46	263.10
740.79	262.10
741.12	261.40
741.45	260.50
741.78	258.93
742.11	259.07
742.44	258.24
742.77	257.69
743.10	256.86
743.43	256.17
743.75	253.55
744.08	255.93
744.41	255.24
744.74	254.88
745.07	253.88
745.40	253.50
745.73	253.76
746.06	253.52
746.39	253.38
746.71	252.62
747.04	251.79
747.37	251.43
747.70	251.48
748.03	251.38
748.36	251.31
748.68	250.69
749.01	249.62
749.34	248.93
749.67	248.31
750.00	248.40
750.33	249.69
750.65	249.52
750.98	246.36
751.31	246.19
751.64	245.83
751.97	246.98
752.29	246.43
752.62	245.14
752.95	244.60
753.28	244.05
753.60	243.76
753.93	243.98
754.26	243.86
754.59	243.17
754.91	242.57
755.24	242.10
755.57	241.74
755.90	241.55
756.22	241.02
756.55	240.83
756.88	239.86
757.20	238.10
757.53	237.17
757.86	236.86
758.19	236.71
758.51	236.40
758.84	234.95
759.17	234.62
759.49	234.60
759.82	235.48
760.15	235.43
760.47	235.00
760.80	234.14
761.13	234.10
761.45	233.50
761.78	233.38
762.11	233.05
762.43	232.79
762.76	232.17
763.08	232.45
763.41	232.12
763.74	232.14
764.06	231.88
764.39	231.55
764.71	231.19
765.04	230.76
765.37	230.07
765.69	229.52
766.02	229.12
766.34	228.55
766.67	227.52
767.00	227.76
767.32	228.81
767.65	230.00
767.97	229.60
768.30	229.86
768.62	229.62
768.95	229.19
769.27	228.95
769.60	229.29
769.92	228.74
770.25	228.17
770.57	227.36
770.90	227.00
771.22	226.95
771.55	226.81
771.87	226.69
772.20	226.98
772.52	228.88
772.85	231.50
773.17	231.33
773.50	231.07
773.82	230.40
774.15	228.98
774.47	227.50
774.80	227.21
775.12	226.76
775.45	226.50
775.77	226.38
776.09	226.43
776.42	226.14
776.74	226.52
777.07	226.57
777.39	226.64
777.72	226.62
778.04	226.79
778.36	226.60
778.69	226.48
779.01	226.19
779.33	224.07
779.66	221.71
779.98	221.79
780.31	221.74
780.63	222.52
780.95	223.26
781.28	223.31
781.60	223.19
781.92	223.17
782.25	223.07
782.57	223.14
782.89	222.86
783.22	222.90
783.54	222.36
783.86	222.55
784.19	222.24
784.51	222.86
784.83	222.07
785.16	222.05
