SpectraSuite Data File
++++++++++++++++++++++++++++++++++++
Date: Tue Apr 02 18:43:08 EDT 2013
User: group
Dark Spectrum Present: No
Reference Spectrum Present: No
Number of Sampled Component Spectra: 1
Spectrometers: USB2E7196
Integration Time (usec): 580000 (USB2E7196)
Spectra Averaged: 2 (USB2E7196)
Boxcar Smoothing: 10 (USB2E7196)
Correct for Electrical Dark: No (USB2E7196)
Strobe/Lamp Enabled: No (USB2E7196)
Correct for Detector Non-linearity: No (USB2E7196)
Correct for Stray Light: No (USB2E7196)
Number of Pixels in Processed Spectrum: 2048
>>>>>Begin Processed Spectral Data<<<<<
339.09	0.00
339.48	195.50
339.86	195.50
340.24	195.50
340.63	200.50
341.01	231.00
341.39	201.50
341.78	209.00
342.16	212.00
342.54	205.50
342.93	198.40
343.31	208.29
343.69	208.93
344.07	209.52
344.46	210.50
344.84	211.05
345.22	209.95
345.60	210.48
345.99	210.62
346.37	210.48
346.75	210.64
347.13	210.95
347.52	211.17
347.90	212.07
348.28	212.12
348.66	212.69
349.05	212.21
349.43	212.48
349.81	212.95
350.19	213.00
350.57	213.33
350.96	213.36
351.34	213.83
351.72	213.95
352.10	214.00
352.48	213.67
352.87	213.90
353.25	214.07
353.63	213.83
354.01	214.02
354.39	214.38
354.77	214.43
355.15	214.90
355.54	214.40
355.92	213.55
356.30	213.67
356.68	214.48
357.06	214.88
357.44	214.38
357.82	214.21
358.20	215.12
358.58	214.95
358.97	215.24
359.35	215.45
359.73	215.83
360.11	215.81
360.49	216.02
360.87	215.67
361.25	215.83
361.63	216.55
362.01	216.40
362.39	215.95
362.77	216.14
363.15	215.95
363.53	215.90
363.91	215.95
364.29	215.93
364.67	214.24
365.05	213.86
365.43	214.36
365.81	214.60
366.19	214.83
366.57	215.60
366.95	215.40
367.33	214.79
367.71	214.76
368.09	215.43
368.47	215.43
368.85	215.19
369.23	215.62
369.61	214.98
369.99	215.67
370.37	216.10
370.75	217.00
371.13	216.64
371.51	216.74
371.89	217.10
372.27	217.45
372.65	217.36
373.03	217.45
373.41	217.17
373.78	217.14
374.16	215.98
374.54	215.21
374.92	215.07
375.30	215.24
375.68	214.74
376.06	214.50
376.44	214.17
376.82	214.45
377.19	214.26
377.57	214.17
377.95	213.55
378.33	213.40
378.71	212.00
379.09	212.40
379.47	212.60
379.84	212.36
380.22	211.93
380.60	211.76
380.98	211.74
381.36	211.71
381.73	211.29
382.11	211.81
382.49	212.10
382.87	211.93
383.25	211.67
383.62	214.14
384.00	213.69
384.38	213.79
384.76	214.31
385.13	214.90
385.51	215.07
385.89	214.69
386.27	214.74
386.64	215.31
387.02	215.07
387.40	214.93
387.78	215.14
388.15	215.40
388.53	215.33
388.91	215.52
389.29	215.38
389.66	215.71
390.04	215.43
390.42	215.60
390.79	215.71
391.17	215.90
391.55	213.62
391.92	213.81
392.30	214.26
392.68	213.57
393.05	213.43
393.43	213.36
393.81	213.71
394.18	213.36
394.56	213.29
394.94	213.55
395.31	213.48
395.69	214.12
396.06	214.50
396.44	214.67
396.82	214.36
397.19	215.33
397.57	214.98
397.95	215.40
398.32	214.81
398.70	215.05
399.07	215.62
399.45	215.40
399.82	215.43
400.20	214.98
400.58	215.19
400.95	214.40
401.33	214.98
401.70	216.19
402.08	216.33
402.45	216.33
402.83	217.21
403.20	217.38
403.58	217.21
403.95	217.38
404.33	217.95
404.71	218.38
405.08	219.79
405.46	220.38
405.83	220.67
406.21	221.36
406.58	221.98
406.96	221.95
407.33	222.60
407.70	223.26
408.08	225.55
408.45	226.50
408.83	227.57
409.20	228.00
409.58	227.43
409.95	228.81
410.33	229.95
410.70	230.05
411.08	231.26
411.45	232.05
411.82	232.98
412.20	234.24
412.57	236.48
412.95	235.95
413.32	237.76
413.69	239.07
414.07	240.90
414.44	242.40
414.82	244.55
415.19	247.12
415.56	249.45
415.94	250.76
416.31	253.86
416.68	256.83
417.06	259.93
417.43	263.71
417.81	267.00
418.18	270.57
418.55	274.31
418.93	278.38
419.30	282.64
419.67	286.86
420.04	291.40
420.42	295.52
420.79	302.40
421.16	307.76
421.54	314.76
421.91	320.60
422.28	326.98
422.66	333.38
423.03	341.29
423.40	348.40
423.77	355.71
424.15	362.86
424.52	370.33
424.89	379.07
425.26	386.57
425.64	394.50
426.01	402.74
426.38	411.60
426.75	420.98
427.13	430.21
427.50	439.83
427.87	449.67
428.24	459.90
428.61	468.88
428.99	480.38
429.36	490.52
429.73	501.69
430.10	513.26
430.47	525.00
430.85	535.69
431.22	547.95
431.59	562.60
431.96	574.95
432.33	589.14
432.70	602.69
433.08	618.83
433.45	633.88
433.82	648.71
434.19	666.10
434.56	682.71
434.93	698.26
435.30	714.90
435.68	733.14
436.05	750.31
436.42	766.88
436.79	782.38
437.16	799.83
437.53	818.12
437.90	836.02
438.27	853.86
438.64	871.50
439.01	889.26
439.38	902.86
439.75	917.86
440.13	934.26
440.50	949.79
440.87	962.67
441.24	975.76
441.61	990.36
441.98	1000.31
442.35	1012.52
442.72	1026.07
443.09	1038.86
443.46	1045.62
443.83	1051.02
444.20	1056.26
444.57	1062.55
444.94	1065.81
445.31	1069.60
445.68	1074.86
446.05	1076.67
446.42	1076.43
446.79	1074.93
447.16	1072.79
447.53	1072.24
447.90	1066.17
448.27	1059.79
448.64	1051.24
449.01	1045.21
449.37	1034.95
449.74	1024.71
450.11	1013.43
450.48	998.64
450.85	983.00
451.22	970.31
451.59	958.43
451.96	946.74
452.33	930.48
452.70	916.33
453.07	898.14
453.43	878.86
453.80	862.24
454.17	846.02
454.54	829.79
454.91	813.95
455.28	796.76
455.65	781.71
456.02	770.05
456.38	757.33
456.75	741.43
457.12	727.95
457.49	714.88
457.86	700.50
458.23	690.14
458.59	678.24
458.96	666.57
459.33	655.67
459.70	645.07
460.07	637.21
460.43	627.24
460.80	618.83
461.17	611.52
461.54	602.74
461.91	594.33
462.27	586.55
462.64	579.76
463.01	573.19
463.38	567.02
463.74	556.64
464.11	549.95
464.48	544.26
464.85	537.90
465.21	533.88
465.58	528.81
465.95	522.12
466.32	517.12
466.68	512.24
467.05	506.95
467.42	501.67
467.78	496.29
468.15	491.60
468.52	488.05
468.88	481.98
469.25	477.69
469.62	474.48
469.98	470.38
470.35	466.62
470.72	462.74
471.08	458.19
471.45	455.43
471.82	452.57
472.18	449.29
472.55	446.76
472.92	442.64
473.28	439.74
473.65	437.00
474.02	434.36
474.38	432.29
474.75	430.57
475.11	428.24
475.48	426.43
475.85	424.71
476.21	422.86
476.58	421.88
476.94	420.52
477.31	419.33
477.67	418.55
478.04	417.43
478.41	416.50
478.77	417.45
479.14	415.88
479.50	415.21
479.87	415.12
480.23	414.74
480.60	414.43
480.96	414.29
481.33	415.29
481.69	415.38
482.06	415.64
482.42	416.10
482.79	416.67
483.15	417.17
483.52	418.17
483.88	418.71
484.25	419.17
484.61	419.95
484.98	420.12
485.34	421.55
485.71	422.86
486.07	424.12
486.44	423.88
486.80	426.00
487.17	427.74
487.53	430.17
487.90	432.07
488.26	435.17
488.62	438.00
488.99	439.57
489.35	441.93
489.72	444.12
490.08	446.69
490.44	449.17
490.81	452.57
491.17	455.45
491.54	459.14
491.90	463.24
492.26	467.00
492.63	470.86
492.99	474.33
493.36	478.48
493.72	483.36
494.08	488.00
494.45	492.88
494.81	497.71
495.17	501.95
495.54	507.64
495.90	511.62
496.26	516.36
496.63	522.05
496.99	527.62
497.35	533.40
497.72	539.33
498.08	545.62
498.44	551.60
498.80	558.33
499.17	564.19
499.53	570.12
499.89	577.17
500.26	584.12
500.62	590.69
500.98	598.05
501.34	604.88
501.71	612.12
502.07	618.88
502.43	626.07
502.79	633.36
503.16	640.60
503.52	648.38
503.88	655.29
504.24	662.71
504.60	670.40
504.97	678.55
505.33	685.93
505.69	694.29
506.05	702.12
506.41	709.45
506.78	716.98
507.14	724.57
507.50	732.33
507.86	739.93
508.22	747.69
508.59	754.79
508.95	762.45
509.31	770.76
509.67	778.48
510.03	785.83
510.39	793.36
510.75	800.67
511.12	808.64
511.48	816.76
511.84	823.90
512.20	831.79
512.56	839.29
512.92	847.02
513.28	853.83
513.64	860.81
514.00	868.26
514.37	876.00
514.73	883.79
515.09	891.05
515.45	898.24
515.81	905.50
516.17	912.57
516.53	919.21
516.89	924.98
517.25	931.74
517.61	939.07
517.97	945.26
518.33	951.79
518.69	958.05
519.05	964.62
519.41	971.71
519.77	978.74
520.13	984.90
520.49	990.57
520.85	996.36
521.21	1003.48
521.57	1009.52
521.93	1014.98
522.29	1020.69
522.65	1025.83
523.01	1031.67
523.37	1036.24
523.73	1041.33
524.09	1046.29
524.45	1051.12
524.81	1055.21
525.17	1059.71
525.53	1064.60
525.89	1069.40
526.25	1074.40
526.61	1078.98
526.97	1082.93
527.33	1086.79
527.68	1092.57
528.04	1097.76
528.40	1102.12
528.76	1105.50
529.12	1109.86
529.48	1114.69
529.84	1118.43
530.20	1122.62
530.56	1127.02
530.91	1132.02
531.27	1136.45
531.63	1141.50
531.99	1145.79
532.35	1150.55
532.71	1154.76
533.07	1159.19
533.42	1165.67
533.78	1169.02
534.14	1173.71
534.50	1178.31
534.86	1183.10
535.21	1185.52
535.57	1189.60
535.93	1193.26
536.29	1198.24
536.65	1201.98
537.00	1205.38
537.36	1208.95
537.72	1212.60
538.08	1216.21
538.44	1219.62
538.79	1223.86
539.15	1226.02
539.51	1229.74
539.87	1234.21
540.22	1238.10
540.58	1241.29
540.94	1242.86
541.29	1246.79
541.65	1248.38
542.01	1251.21
542.37	1253.43
542.72	1255.71
543.08	1257.43
543.44	1260.90
543.79	1261.55
544.15	1265.02
544.51	1268.57
544.87	1271.81
545.22	1274.71
545.58	1277.31
545.94	1279.83
546.29	1282.26
546.65	1285.50
547.01	1287.69
547.36	1289.12
547.72	1290.79
548.07	1293.95
548.43	1296.10
548.79	1298.10
549.14	1300.93
549.50	1303.71
549.86	1305.60
550.21	1308.57
550.57	1311.64
550.92	1313.50
551.28	1318.00
551.64	1319.79
551.99	1322.33
552.35	1325.26
552.70	1327.93
553.06	1331.33
553.41	1334.24
553.77	1337.83
554.13	1342.14
554.48	1346.81
554.84	1351.43
555.19	1355.40
555.55	1360.90
555.90	1364.71
556.26	1368.79
556.61	1372.83
556.97	1375.90
557.32	1380.60
557.68	1384.50
558.03	1388.83
558.39	1393.43
558.74	1396.55
559.10	1401.55
559.45	1406.43
559.81	1410.50
560.16	1415.24
560.52	1419.50
560.87	1424.62
561.23	1428.10
561.58	1433.24
561.94	1436.29
562.29	1440.45
562.64	1445.07
563.00	1448.55
563.35	1453.05
563.71	1457.31
564.06	1463.02
564.42	1469.26
564.77	1475.05
565.12	1481.07
565.48	1488.43
565.83	1494.88
566.19	1501.67
566.54	1506.57
566.89	1511.19
567.25	1518.07
567.60	1525.52
567.96	1532.67
568.31	1539.05
568.66	1545.90
569.02	1550.19
569.37	1556.29
569.72	1561.74
570.08	1567.21
570.43	1570.90
570.78	1576.40
571.14	1582.60
571.49	1587.48
571.84	1592.62
572.20	1597.17
572.55	1602.48
572.90	1604.98
573.26	1608.76
573.61	1613.48
573.96	1618.74
574.31	1624.40
574.67	1628.00
575.02	1630.86
575.37	1633.02
575.72	1636.40
576.08	1640.31
576.43	1643.81
576.78	1647.26
577.13	1651.60
577.49	1654.60
577.84	1659.50
578.19	1662.64
578.54	1667.33
578.90	1671.43
579.25	1675.17
579.60	1678.02
579.95	1680.69
580.30	1684.14
580.66	1688.38
581.01	1691.55
581.36	1693.81
581.71	1696.21
582.06	1700.21
582.42	1704.17
582.77	1707.36
583.12	1710.67
583.47	1713.45
583.82	1716.79
584.17	1719.83
584.53	1723.29
584.88	1727.14
585.23	1730.90
585.58	1733.86
585.93	1734.79
586.28	1737.48
586.63	1738.93
586.98	1741.67
587.34	1745.57
587.69	1747.79
588.04	1749.36
588.39	1751.00
588.74	1752.17
589.09	1754.31
589.44	1754.79
589.79	1755.71
590.14	1757.45
590.49	1758.29
590.84	1758.90
591.19	1760.40
591.54	1762.48
591.89	1762.57
592.25	1766.00
592.60	1765.71
592.95	1766.95
593.30	1769.31
593.65	1769.93
594.00	1770.62
594.35	1778.12
594.70	1776.79
595.05	1778.10
595.40	1778.40
595.75	1778.52
596.10	1779.98
596.45	1780.83
596.80	1781.90
597.15	1782.62
597.50	1782.83
597.85	1784.79
598.19	1785.50
598.54	1785.98
598.89	1786.24
599.24	1787.12
599.59	1785.29
599.94	1785.67
600.29	1786.55
600.64	1785.81
600.99	1785.50
601.34	1786.95
601.69	1780.69
602.04	1781.21
602.39	1781.17
602.74	1782.12
603.08	1782.43
603.43	1783.50
603.78	1782.55
604.13	1782.00
604.48	1780.69
604.83	1781.64
605.18	1780.57
605.53	1780.19
605.87	1778.86
606.22	1778.31
606.57	1777.38
606.92	1775.33
607.27	1774.62
607.62	1774.12
607.96	1773.62
608.31	1773.43
608.66	1772.12
609.01	1770.48
609.36	1769.17
609.70	1767.10
610.05	1764.57
610.40	1762.86
610.75	1760.50
611.10	1757.93
611.44	1756.05
611.79	1754.69
612.14	1751.10
612.49	1747.67
612.83	1744.60
613.18	1742.29
613.53	1738.45
613.88	1734.19
614.22	1731.69
614.57	1727.90
614.92	1723.19
615.27	1719.79
615.61	1715.12
615.96	1711.36
616.31	1707.86
616.65	1704.98
617.00	1701.79
617.35	1699.00
617.70	1695.38
618.04	1690.88
618.39	1687.55
618.74	1683.52
619.08	1678.38
619.43	1675.24
619.78	1671.48
620.12	1668.43
620.47	1664.93
620.82	1661.10
621.16	1656.62
621.51	1653.67
621.85	1650.19
622.20	1645.74
622.55	1641.05
622.89	1637.95
623.24	1633.43
623.59	1628.93
623.93	1624.00
624.28	1620.26
624.62	1617.21
624.97	1613.38
625.32	1608.55
625.66	1604.45
626.01	1600.12
626.35	1596.90
626.70	1591.67
627.04	1589.00
627.39	1584.14
627.73	1580.38
628.08	1577.12
628.43	1574.02
628.77	1570.05
629.12	1565.26
629.46	1562.12
629.81	1558.57
630.15	1553.00
630.50	1548.43
630.84	1544.21
631.19	1539.48
631.53	1533.62
631.88	1526.00
632.22	1520.67
632.57	1517.05
632.91	1512.10
633.26	1507.83
633.60	1501.86
633.95	1496.55
634.29	1490.50
634.64	1486.07
634.98	1480.90
635.32	1476.43
635.67	1472.62
636.01	1467.48
636.36	1463.33
636.70	1458.57
637.05	1452.55
637.39	1448.19
637.73	1443.60
638.08	1439.45
638.42	1434.74
638.77	1431.45
639.11	1427.81
639.45	1422.48
639.80	1416.69
640.14	1411.67
640.49	1405.86
640.83	1400.79
641.17	1396.76
641.52	1391.38
641.86	1385.43
642.20	1380.95
642.55	1374.76
642.89	1368.29
643.23	1362.14
643.58	1357.07
643.92	1350.43
644.26	1345.02
644.61	1339.62
644.95	1333.14
645.29	1326.45
645.64	1321.21
645.98	1313.88
646.32	1307.38
646.66	1300.98
647.01	1294.36
647.35	1288.71
647.69	1282.69
648.04	1277.86
648.38	1271.10
648.72	1264.83
649.06	1259.17
649.41	1251.67
649.75	1244.93
650.09	1238.48
650.43	1232.10
650.78	1224.31
651.12	1218.05
651.46	1211.05
651.80	1204.14
652.14	1198.10
652.49	1191.60
652.83	1184.21
653.17	1177.76
653.51	1171.38
653.85	1165.31
654.20	1159.19
654.54	1151.19
654.88	1143.79
655.22	1136.55
655.56	1129.21
655.90	1122.83
656.25	1115.81
656.59	1109.26
656.93	1102.52
657.27	1097.52
657.61	1090.76
657.95	1084.86
658.29	1078.62
658.64	1073.24
658.98	1066.38
659.32	1060.17
659.66	1054.45
660.00	1048.02
660.34	1042.45
660.68	1036.29
661.02	1029.43
661.36	1023.67
661.70	1018.52
662.05	1012.79
662.39	1007.14
662.73	1002.36
663.07	996.71
663.41	990.57
663.75	984.50
664.09	979.02
664.43	971.45
664.77	965.21
665.11	958.76
665.45	953.12
665.79	947.00
666.13	941.26
666.47	934.83
666.81	928.69
667.15	923.43
667.49	918.10
667.83	912.67
668.17	907.00
668.51	901.05
668.85	895.31
669.19	890.93
669.53	884.33
669.87	877.48
670.21	871.17
670.55	865.36
670.89	860.36
671.23	855.21
671.57	849.76
671.91	844.40
672.25	839.05
672.58	833.98
672.92	827.76
673.26	822.45
673.60	817.76
673.94	811.86
674.28	806.71
674.62	801.14
674.96	796.14
675.30	791.74
675.64	786.98
675.97	782.05
676.31	776.14
676.65	771.38
676.99	768.14
677.33	763.17
677.67	758.74
678.01	752.88
678.34	747.79
678.68	743.55
679.02	738.71
679.36	734.21
679.70	728.81
680.04	724.48
680.37	719.83
680.71	714.62
681.05	709.98
681.39	704.76
681.73	700.17
682.06	694.83
682.40	690.29
682.74	685.76
683.08	681.62
683.42	676.76
683.75	672.07
684.09	666.76
684.43	662.29
684.77	657.40
685.10	652.88
685.44	648.43
685.78	643.93
686.12	639.48
686.45	634.64
686.79	629.88
687.13	625.83
687.46	621.26
687.80	617.36
688.14	613.07
688.48	609.29
688.81	604.50
689.15	601.45
689.49	596.90
689.82	592.86
690.16	588.00
690.50	583.88
690.83	579.86
691.17	575.40
691.51	571.43
691.84	568.07
692.18	564.14
692.52	560.17
692.85	556.38
693.19	553.57
693.52	550.05
693.86	546.14
694.20	542.10
694.53	538.57
694.87	534.45
695.21	530.40
695.54	526.55
695.88	522.62
696.21	517.36
696.55	513.60
696.88	509.38
697.22	505.93
697.56	502.62
697.89	499.10
698.23	495.93
698.56	492.45
698.90	489.33
699.23	486.17
699.57	482.45
699.90	478.95
700.24	474.76
700.58	471.50
700.91	468.71
701.25	467.19
701.58	464.62
701.92	462.19
702.25	459.57
702.59	456.12
702.92	453.10
703.26	450.81
703.59	447.95
703.93	447.05
704.26	444.50
704.60	441.83
704.93	439.31
705.26	436.69
705.60	434.67
705.93	431.19
706.27	429.19
706.60	427.21
706.94	425.38
707.27	422.62
707.61	420.17
707.94	417.52
708.27	413.57
708.61	410.40
708.94	407.48
709.28	405.33
709.61	402.83
709.94	400.98
710.28	398.60
710.61	396.55
710.95	392.43
711.28	391.17
711.61	388.52
711.95	386.74
712.28	384.36
712.61	381.71
712.95	380.67
713.28	378.98
713.61	376.57
713.95	373.67
714.28	372.12
714.61	369.98
714.95	368.12
715.28	366.24
715.61	364.52
715.95	362.71
716.28	360.71
716.61	359.55
716.95	357.40
717.28	355.76
717.61	353.86
717.94	352.12
718.28	349.10
718.61	347.69
718.94	345.74
719.27	344.10
719.61	342.60
719.94	340.29
720.27	337.88
720.60	335.88
720.94	334.14
721.27	332.88
721.60	331.86
721.93	330.17
722.27	329.05
722.60	327.98
722.93	326.48
723.26	325.26
723.59	323.52
723.93	322.36
724.26	321.14
724.59	319.81
724.92	318.86
725.25	318.12
725.59	317.07
725.92	316.12
726.25	315.05
726.58	313.83
726.91	312.83
727.24	312.17
727.57	311.40
727.91	310.43
728.24	309.38
728.57	308.02
728.90	307.24
729.23	305.67
729.56	305.43
729.89	304.64
730.22	303.31
730.55	302.26
730.89	301.21
731.22	299.81
731.55	298.69
731.88	297.71
732.21	296.45
732.54	295.33
732.87	294.00
733.20	293.24
733.53	292.17
733.86	291.62
734.19	290.14
734.52	289.57
734.85	289.93
735.18	288.64
735.51	288.48
735.84	287.93
736.17	287.60
736.50	285.48
736.83	287.05
737.16	286.26
737.49	285.62
737.82	284.83
738.15	284.43
738.48	283.50
738.81	282.88
739.14	281.71
739.47	280.86
739.80	280.10
740.13	279.17
740.46	278.17
740.79	276.90
741.12	276.14
741.45	274.93
741.78	273.14
742.11	273.12
742.44	272.00
742.77	271.48
743.10	270.48
743.43	269.71
743.75	266.43
744.08	268.29
744.41	267.31
744.74	266.60
745.07	265.62
745.40	265.67
745.73	265.74
746.06	265.45
746.39	264.93
746.71	264.26
747.04	263.36
747.37	262.83
747.70	262.60
748.03	262.02
748.36	261.69
748.68	261.29
749.01	259.71
749.34	258.98
749.67	258.29
750.00	258.26
750.33	259.60
750.65	259.55
750.98	256.52
751.31	256.24
751.64	255.95
751.97	256.88
752.29	256.21
752.62	254.71
752.95	253.98
753.28	253.31
753.60	252.79
753.93	253.10
754.26	252.98
754.59	251.90
754.91	251.26
755.24	250.76
755.57	250.24
755.90	249.90
756.22	249.40
756.55	248.60
756.88	247.69
757.20	245.88
757.53	244.62
757.86	244.19
758.19	244.10
758.51	243.57
758.84	241.95
759.17	241.38
759.49	241.19
759.82	241.95
760.15	241.86
760.47	241.62
760.80	240.62
761.13	240.38
761.45	240.14
761.78	239.76
762.11	239.17
762.43	238.93
762.76	238.43
763.08	238.52
763.41	238.50
763.74	238.10
764.06	237.83
764.39	237.81
764.71	237.48
765.04	236.69
765.37	236.17
765.69	235.88
766.02	235.38
766.34	234.90
766.67	233.81
767.00	233.95
767.32	234.76
767.65	235.93
767.97	235.43
768.30	235.29
768.62	235.05
768.95	234.81
769.27	234.14
769.60	234.62
769.92	233.81
770.25	233.10
770.57	232.50
770.90	232.19
771.22	231.71
771.55	231.52
771.87	231.38
772.20	231.07
772.52	232.50
772.85	235.00
773.17	234.86
773.50	234.69
773.82	234.05
774.15	232.79
774.47	231.02
774.80	230.74
775.12	230.38
775.45	230.31
775.77	230.31
776.09	230.50
776.42	230.05
776.74	230.57
777.07	230.45
777.39	230.57
777.72	230.02
778.04	230.10
778.36	229.98
778.69	230.02
779.01	230.14
779.33	228.29
779.66	225.60
779.98	225.19
780.31	224.88
780.63	225.55
780.95	225.76
781.28	225.60
781.60	225.43
781.92	225.29
782.25	225.26
782.57	225.29
782.89	224.98
783.22	224.79
783.54	224.24
783.86	224.45
784.19	224.07
784.51	224.98
784.83	224.60
785.16	224.38
