SpectraSuite Data File
++++++++++++++++++++++++++++++++++++
Date: Tue Apr 02 18:39:59 EDT 2013
User: group
Dark Spectrum Present: No
Reference Spectrum Present: No
Number of Sampled Component Spectra: 1
Spectrometers: USB2E7196
Integration Time (usec): 580000 (USB2E7196)
Spectra Averaged: 2 (USB2E7196)
Boxcar Smoothing: 10 (USB2E7196)
Correct for Electrical Dark: No (USB2E7196)
Strobe/Lamp Enabled: No (USB2E7196)
Correct for Detector Non-linearity: No (USB2E7196)
Correct for Stray Light: No (USB2E7196)
Number of Pixels in Processed Spectrum: 2048
>>>>>Begin Processed Spectral Data<<<<<
339.09	0.00
339.48	193.50
339.86	198.00
340.24	197.50
340.63	197.50
341.01	230.00
341.39	201.50
341.78	207.00
342.16	209.50
342.54	206.00
342.93	198.05
343.31	207.67
343.69	208.21
344.07	208.50
344.46	209.43
344.84	209.83
345.22	208.86
345.60	209.24
345.99	209.38
346.37	209.43
346.75	209.60
347.13	209.64
347.52	209.52
347.90	210.10
348.28	210.21
348.66	210.76
349.05	210.21
349.43	210.19
349.81	210.38
350.19	210.52
350.57	210.98
350.96	211.07
351.34	211.55
351.72	211.88
352.10	212.29
352.48	211.90
352.87	212.12
353.25	212.02
353.63	211.86
354.01	211.88
354.39	212.00
354.77	211.95
355.15	212.52
355.54	212.43
355.92	211.86
356.30	212.07
356.68	213.05
357.06	213.29
357.44	212.88
357.82	212.95
358.20	214.07
358.58	214.05
358.97	214.24
359.35	214.67
359.73	214.74
360.11	214.64
360.49	214.81
360.87	214.88
361.25	215.36
361.63	216.33
362.01	216.55
362.39	216.57
362.77	217.02
363.15	216.95
363.53	217.31
363.91	217.48
364.29	217.33
364.67	215.55
365.05	215.60
365.43	216.17
365.81	216.43
366.19	216.57
366.57	217.40
366.95	217.31
367.33	216.69
367.71	216.98
368.09	217.29
368.47	217.12
368.85	217.10
369.23	217.43
369.61	216.62
369.99	217.00
370.37	217.24
370.75	218.00
371.13	217.52
371.51	217.21
371.89	217.50
372.27	217.50
372.65	217.64
373.03	217.67
373.41	217.29
373.78	217.02
374.16	215.74
374.54	215.07
374.92	214.76
375.30	214.93
375.68	214.40
376.06	214.48
376.44	214.64
376.82	214.67
377.19	214.52
377.57	214.40
377.95	213.81
378.33	213.40
378.71	212.17
379.09	212.55
379.47	212.86
379.84	212.52
380.22	212.67
380.60	212.48
380.98	212.17
381.36	212.21
381.73	212.21
382.11	212.71
382.49	212.83
382.87	212.71
383.25	212.64
383.62	215.12
384.00	214.74
384.38	214.52
384.76	214.88
385.13	215.69
385.51	215.74
385.89	215.76
386.27	216.02
386.64	216.36
387.02	216.10
387.40	216.05
387.78	216.40
388.15	216.57
388.53	216.48
388.91	216.52
389.29	216.26
389.66	216.26
390.04	215.83
390.42	216.19
390.79	216.21
391.17	216.17
391.55	213.76
391.92	213.98
392.30	214.33
392.68	213.88
393.05	213.55
393.43	213.79
393.81	213.67
394.18	213.36
394.56	213.40
394.94	213.74
395.31	213.40
395.69	213.71
396.06	213.88
396.44	214.10
396.82	214.02
397.19	215.12
397.57	214.95
397.95	215.43
398.32	214.67
398.70	215.05
399.07	215.36
399.45	215.50
399.82	215.26
400.20	214.93
400.58	215.00
400.95	214.26
401.33	214.64
401.70	216.21
402.08	216.36
402.45	216.60
402.83	217.17
403.20	217.26
403.58	217.26
403.95	217.71
404.33	218.07
404.71	218.38
405.08	219.86
405.46	220.33
405.83	220.52
406.21	221.00
406.58	221.55
406.96	221.79
407.33	222.40
407.70	223.17
408.08	225.40
408.45	226.38
408.83	227.52
409.20	228.17
409.58	227.93
409.95	229.33
410.33	230.26
410.70	230.60
411.08	232.17
411.45	233.19
411.82	233.88
412.20	235.81
412.57	238.45
412.95	237.93
413.32	239.88
413.69	241.33
414.07	243.24
414.44	245.05
414.82	247.57
415.19	250.10
415.56	252.38
415.94	254.07
416.31	257.12
416.68	260.02
417.06	263.29
417.43	266.90
417.81	270.12
418.18	274.19
418.55	278.36
418.93	282.64
419.30	287.57
419.67	292.05
420.04	296.64
420.42	301.10
420.79	308.79
421.16	314.60
421.54	322.19
421.91	328.93
422.28	335.62
422.66	342.71
423.03	351.21
423.40	358.86
423.77	366.19
424.15	373.88
424.52	382.14
424.89	391.52
425.26	400.29
425.64	408.57
426.01	416.88
426.38	426.52
426.75	436.81
427.13	446.86
427.50	457.71
427.87	468.40
428.24	479.33
428.61	488.93
428.99	501.10
429.36	512.93
429.73	525.17
430.10	536.98
430.47	549.19
430.85	560.50
431.22	574.05
431.59	589.95
431.96	603.69
432.33	619.05
432.70	633.50
433.08	650.31
433.45	666.90
433.82	683.93
434.19	702.21
434.56	720.02
434.93	736.55
435.30	753.48
435.68	772.88
436.05	791.62
436.42	809.36
436.79	826.98
437.16	845.40
437.53	864.43
437.90	884.21
438.27	903.98
438.64	923.79
439.01	942.19
439.38	957.60
439.75	973.76
440.13	991.71
440.50	1009.17
440.87	1022.98
441.24	1038.19
441.61	1053.69
441.98	1065.52
442.35	1079.05
442.72	1092.98
443.09	1107.43
443.46	1115.86
443.83	1121.76
444.20	1127.55
444.57	1133.33
444.94	1136.74
445.31	1140.93
445.68	1147.52
446.05	1149.21
446.42	1147.93
446.79	1147.00
447.16	1145.00
447.53	1143.76
447.90	1137.60
448.27	1130.43
448.64	1121.48
449.01	1114.40
449.37	1102.50
449.74	1090.36
450.11	1077.52
450.48	1062.38
450.85	1045.19
451.22	1030.95
451.59	1017.79
451.96	1004.74
452.33	988.52
452.70	972.71
453.07	954.00
453.43	932.60
453.80	914.55
454.17	897.48
454.54	880.38
454.91	862.88
455.28	845.14
455.65	828.26
456.02	815.40
456.38	801.45
456.75	784.43
457.12	770.14
457.49	756.29
457.86	740.79
458.23	729.74
458.59	717.88
458.96	705.02
459.33	693.00
459.70	681.79
460.07	672.38
460.43	662.05
460.80	652.40
461.17	644.29
461.54	635.14
461.91	625.64
462.27	616.76
462.64	609.19
463.01	601.50
463.38	594.24
463.74	582.93
464.11	575.60
464.48	569.62
464.85	562.98
465.21	558.71
465.58	553.40
465.95	545.52
466.32	539.45
466.68	533.98
467.05	529.07
467.42	523.52
467.78	517.60
468.15	512.48
468.52	508.48
468.88	502.55
469.25	497.60
469.62	494.40
469.98	490.57
470.35	486.55
470.72	482.64
471.08	477.95
471.45	474.76
471.82	472.12
472.18	468.14
472.55	465.40
472.92	461.43
473.28	458.40
473.65	455.62
474.02	452.79
474.38	450.43
474.75	447.86
475.11	445.21
475.48	443.67
475.85	441.57
476.21	439.86
476.58	438.45
476.94	437.12
477.31	435.71
477.67	434.21
478.04	432.93
478.41	432.02
478.77	433.60
479.14	432.48
479.50	431.83
479.87	431.52
480.23	431.02
480.60	430.36
480.96	430.12
481.33	431.05
481.69	431.40
482.06	431.52
482.42	432.14
482.79	432.71
483.15	432.76
483.52	433.71
483.88	434.00
484.25	434.74
484.61	435.79
484.98	436.38
485.34	438.07
485.71	439.48
486.07	440.74
486.44	440.36
486.80	442.52
487.17	444.17
487.53	446.55
487.90	449.05
488.26	452.33
488.62	455.21
488.99	457.33
489.35	459.81
489.72	462.52
490.08	465.24
490.44	468.24
490.81	472.05
491.17	475.17
491.54	479.14
491.90	482.98
492.26	486.79
492.63	491.24
492.99	495.26
493.36	500.07
493.72	505.29
494.08	510.10
494.45	515.38
494.81	520.71
495.17	525.67
495.54	531.21
495.90	535.95
496.26	541.52
496.63	547.43
496.99	553.60
497.35	559.76
497.72	566.50
498.08	573.17
498.44	579.90
498.80	587.29
499.17	593.90
499.53	600.45
499.89	607.67
500.26	615.48
500.62	622.71
500.98	630.48
501.34	637.98
501.71	646.36
502.07	654.10
502.43	661.62
502.79	669.26
503.16	677.17
503.52	684.83
503.88	692.71
504.24	701.05
504.60	709.60
504.97	717.88
505.33	726.12
505.69	735.79
506.05	743.93
506.41	752.57
506.78	761.52
507.14	770.12
507.50	779.00
507.86	787.24
508.22	795.98
508.59	803.93
508.95	812.81
509.31	821.86
509.67	830.26
510.03	839.14
510.39	847.62
510.75	856.21
511.12	865.33
511.48	874.02
511.84	882.40
512.20	890.64
512.56	899.62
512.92	908.02
513.28	915.62
513.64	924.33
514.00	932.12
514.37	940.45
514.73	948.76
515.09	957.57
515.45	965.21
515.81	972.93
516.17	980.98
516.53	987.40
516.89	993.55
517.25	1001.60
517.61	1009.71
517.97	1018.14
518.33	1026.02
518.69	1033.57
519.05	1040.98
519.41	1048.24
519.77	1056.69
520.13	1063.36
520.49	1069.98
520.85	1077.40
521.21	1084.98
521.57	1092.64
521.93	1098.60
522.29	1105.86
522.65	1112.26
523.01	1119.40
523.37	1125.48
523.73	1131.67
524.09	1139.60
524.45	1146.21
524.81	1151.90
525.17	1157.19
525.53	1162.81
525.89	1167.55
526.25	1173.86
526.61	1179.71
526.97	1184.62
527.33	1189.29
527.68	1197.36
528.04	1204.07
528.40	1208.62
528.76	1213.52
529.12	1218.50
529.48	1224.67
529.84	1229.52
530.20	1234.33
530.56	1240.14
530.91	1246.40
531.27	1252.45
531.63	1256.79
531.99	1261.50
532.35	1266.50
532.71	1272.05
533.07	1277.88
533.42	1285.90
533.78	1290.67
534.14	1295.76
534.50	1301.07
534.86	1307.40
535.21	1310.71
535.57	1316.07
535.93	1321.12
536.29	1327.50
536.65	1332.43
537.00	1337.40
537.36	1342.12
537.72	1346.21
538.08	1350.98
538.44	1354.76
538.79	1359.17
539.15	1363.83
539.51	1369.50
539.87	1374.64
540.22	1379.26
540.58	1383.12
540.94	1385.52
541.29	1389.55
541.65	1392.76
542.01	1397.90
542.37	1401.36
542.72	1404.45
543.08	1407.29
543.44	1412.14
543.79	1414.52
544.15	1418.71
544.51	1423.38
544.87	1427.62
545.22	1432.69
545.58	1435.86
545.94	1440.24
546.29	1443.81
546.65	1447.95
547.01	1451.12
547.36	1455.07
547.72	1458.52
548.07	1462.88
548.43	1467.10
548.79	1470.45
549.14	1474.88
549.50	1478.29
549.86	1481.14
550.21	1485.24
550.57	1489.31
550.92	1492.40
551.28	1496.33
551.64	1499.69
551.99	1502.86
552.35	1506.81
552.70	1509.33
553.06	1513.31
553.41	1516.57
553.77	1522.00
554.13	1526.36
554.48	1531.62
554.84	1535.60
555.19	1539.67
555.55	1544.00
555.90	1547.69
556.26	1552.31
556.61	1557.02
556.97	1560.76
557.32	1565.24
557.68	1570.05
558.03	1574.17
558.39	1577.95
558.74	1582.67
559.10	1587.71
559.45	1591.81
559.81	1596.29
560.16	1601.38
560.52	1606.12
560.87	1611.45
561.23	1614.26
561.58	1620.02
561.94	1623.29
562.29	1627.60
562.64	1632.83
563.00	1636.74
563.35	1641.67
563.71	1646.71
564.06	1650.95
564.42	1656.12
564.77	1661.36
565.12	1666.81
565.48	1673.81
565.83	1680.48
566.19	1685.36
566.54	1689.52
566.89	1694.36
567.25	1699.21
567.60	1705.62
567.96	1712.76
568.31	1718.38
568.66	1724.71
569.02	1728.45
569.37	1733.52
569.72	1738.48
570.08	1742.36
570.43	1746.40
570.78	1750.48
571.14	1754.79
571.49	1759.33
571.84	1764.10
572.20	1767.26
572.55	1770.14
572.90	1771.52
573.26	1773.90
573.61	1776.52
573.96	1780.31
574.31	1783.40
574.67	1786.31
575.02	1788.60
575.37	1788.36
575.72	1789.76
576.08	1791.90
576.43	1793.05
576.78	1794.98
577.13	1796.05
577.49	1797.88
577.84	1800.36
578.19	1802.21
578.54	1804.62
578.90	1806.33
579.25	1806.93
579.60	1808.38
579.95	1809.40
580.30	1811.79
580.66	1813.45
581.01	1815.52
581.36	1816.40
581.71	1817.81
582.06	1819.40
582.42	1819.95
582.77	1821.10
583.12	1822.07
583.47	1822.05
583.82	1822.93
584.17	1824.00
584.53	1825.98
584.88	1826.43
585.23	1826.62
585.58	1826.60
585.93	1824.40
586.28	1824.60
586.63	1825.31
586.98	1826.21
587.34	1826.60
587.69	1825.17
588.04	1824.31
588.39	1823.26
588.74	1821.60
589.09	1820.52
589.44	1818.83
589.79	1818.29
590.14	1818.07
590.49	1816.07
590.84	1814.57
591.19	1814.31
591.54	1812.12
591.89	1809.60
592.25	1810.67
592.60	1808.90
592.95	1808.36
593.30	1809.21
593.65	1807.52
594.00	1805.74
594.35	1808.38
594.70	1805.71
595.05	1804.86
595.40	1802.86
595.75	1801.40
596.10	1800.40
596.45	1798.69
596.80	1797.40
597.15	1796.14
597.50	1793.48
597.85	1793.45
598.19	1791.55
598.54	1788.43
598.89	1786.69
599.24	1785.17
599.59	1781.60
599.94	1779.50
600.29	1777.10
600.64	1773.95
600.99	1772.43
601.34	1769.93
601.69	1762.79
602.04	1761.69
602.39	1758.31
602.74	1756.69
603.08	1754.29
603.43	1752.50
603.78	1750.21
604.13	1748.36
604.48	1744.57
604.83	1742.19
605.18	1738.88
605.53	1736.29
605.87	1734.52
606.22	1731.93
606.57	1728.10
606.92	1723.93
607.27	1721.12
607.62	1718.17
607.96	1715.62
608.31	1711.90
608.66	1709.17
609.01	1705.07
609.36	1701.21
609.70	1697.60
610.05	1692.93
610.40	1688.60
610.75	1683.36
611.10	1679.36
611.44	1673.69
611.79	1669.57
612.14	1664.79
612.49	1659.10
612.83	1653.69
613.18	1648.48
613.53	1643.21
613.88	1638.12
614.22	1633.38
614.57	1627.83
614.92	1621.21
615.27	1616.26
615.61	1610.07
615.96	1604.62
616.31	1599.24
616.65	1594.33
617.00	1589.21
617.35	1584.29
617.70	1578.33
618.04	1572.57
618.39	1566.29
618.74	1561.55
619.08	1554.81
619.43	1549.81
619.78	1545.29
620.12	1541.50
620.47	1535.86
620.82	1529.98
621.16	1524.05
621.51	1519.29
621.85	1512.81
622.20	1507.52
622.55	1500.67
622.89	1495.64
623.24	1489.71
623.59	1484.57
623.93	1478.67
624.28	1473.05
624.62	1469.57
624.97	1465.83
625.32	1460.90
625.66	1456.07
626.01	1449.31
626.35	1445.45
626.70	1439.71
627.04	1434.14
627.39	1427.29
627.73	1422.21
628.08	1417.45
628.43	1412.17
628.77	1405.74
629.12	1401.07
629.46	1395.76
629.81	1390.83
630.15	1384.43
630.50	1378.12
630.84	1372.07
631.19	1365.43
631.53	1359.90
631.88	1350.55
632.22	1342.48
632.57	1337.45
632.91	1330.76
633.26	1325.26
633.60	1317.98
633.95	1311.21
634.29	1304.48
634.64	1298.64
634.98	1291.33
635.32	1285.36
635.67	1279.69
636.01	1273.57
636.36	1266.67
636.70	1261.45
637.05	1254.50
637.39	1248.95
637.73	1243.86
638.08	1238.88
638.42	1233.12
638.77	1227.60
639.11	1222.76
639.45	1217.67
639.80	1210.02
640.14	1203.52
640.49	1197.45
640.83	1191.55
641.17	1185.50
641.52	1179.31
641.86	1172.95
642.20	1168.40
642.55	1161.02
642.89	1154.83
643.23	1148.10
643.58	1143.33
643.92	1135.05
644.26	1128.62
644.61	1121.95
644.95	1114.67
645.29	1107.17
645.64	1101.24
645.98	1093.83
646.32	1086.79
646.66	1079.45
647.01	1072.55
647.35	1067.07
647.69	1061.24
648.04	1055.00
648.38	1048.55
648.72	1042.10
649.06	1035.24
649.41	1027.43
649.75	1020.81
650.09	1014.52
650.43	1008.10
650.78	1000.50
651.12	994.57
651.46	987.98
651.80	981.98
652.14	975.62
652.49	970.02
652.83	963.33
653.17	956.55
653.51	950.31
653.85	944.60
654.20	939.31
654.54	932.36
654.88	925.38
655.22	919.40
655.56	913.21
655.90	906.81
656.25	900.71
656.59	895.36
656.93	889.55
657.27	884.10
657.61	878.26
657.95	872.88
658.29	866.83
658.64	861.55
658.98	854.38
659.32	848.10
659.66	841.69
660.00	835.79
660.34	830.52
660.68	824.79
661.02	818.81
661.36	812.71
661.70	807.14
662.05	801.79
662.39	796.52
662.73	791.74
663.07	787.79
663.41	782.76
663.75	776.33
664.09	771.29
664.43	764.57
664.77	758.98
665.11	753.12
665.45	748.29
665.79	743.12
666.13	738.45
666.47	733.26
666.81	728.26
667.15	722.93
667.49	718.45
667.83	714.43
668.17	709.60
668.51	704.43
668.85	699.40
669.19	695.19
669.53	689.40
669.87	683.43
670.21	677.55
670.55	672.76
670.89	669.33
671.23	665.38
671.57	661.48
671.91	657.50
672.25	653.40
672.58	649.98
672.92	645.05
673.26	641.12
673.60	637.14
673.94	632.90
674.28	628.93
674.62	624.71
674.96	619.45
675.30	615.02
675.64	611.33
675.97	607.64
676.31	602.67
676.65	598.43
676.99	595.83
677.33	591.57
677.67	587.60
678.01	582.52
678.34	578.19
678.68	574.40
679.02	569.83
679.36	565.76
679.70	561.21
680.04	557.43
680.37	553.43
680.71	549.02
681.05	545.33
681.39	541.57
681.73	537.31
682.06	533.71
682.40	530.10
682.74	527.10
683.08	523.69
683.42	519.64
683.75	516.38
684.09	511.95
684.43	508.60
684.77	504.90
685.10	501.62
685.44	497.93
685.78	494.38
686.12	491.14
686.45	487.62
686.79	483.93
687.13	480.95
687.46	477.45
687.80	475.52
688.14	472.07
688.48	468.71
688.81	465.69
689.15	463.52
689.49	460.24
689.82	457.26
690.16	453.71
690.50	451.14
690.83	447.95
691.17	444.64
691.51	441.55
691.84	439.00
692.18	436.38
692.52	433.76
692.85	431.48
693.19	429.81
693.52	427.33
693.86	424.74
694.20	422.05
694.53	419.64
694.87	416.43
695.21	413.57
695.54	411.45
695.88	408.48
696.21	405.00
696.55	402.81
696.88	399.83
697.22	397.60
697.56	395.45
697.89	393.19
698.23	391.52
698.56	389.52
698.90	387.43
699.23	384.90
699.57	382.90
699.90	379.88
700.24	377.24
700.58	374.98
700.91	373.24
701.25	372.90
701.58	371.95
701.92	370.64
702.25	368.90
702.59	366.31
702.92	364.43
703.26	362.95
703.59	361.00
703.93	360.88
704.26	359.19
704.60	357.38
704.93	355.52
705.26	353.48
705.60	351.83
705.93	349.40
706.27	348.52
706.60	347.05
706.94	346.50
707.27	344.50
707.61	343.10
707.94	341.02
708.27	337.71
708.61	335.14
708.94	333.26
709.28	331.98
709.61	330.69
709.94	329.64
710.28	328.02
710.61	326.40
710.95	323.31
711.28	323.14
711.61	321.88
711.95	320.88
712.28	319.48
712.61	318.17
712.95	318.26
713.28	317.74
713.61	316.12
713.95	314.43
714.28	313.29
714.61	311.86
714.95	310.60
715.28	309.10
715.61	307.81
715.95	306.93
716.28	305.26
716.61	304.48
716.95	302.98
717.28	301.55
717.61	300.64
717.94	299.60
718.28	296.90
718.61	295.52
718.94	294.12
719.27	292.86
719.61	291.60
719.94	289.83
720.27	287.93
720.60	286.71
720.94	285.64
721.27	284.43
721.60	283.95
721.93	283.00
722.27	282.83
722.60	282.19
722.93	280.88
723.26	280.38
723.59	279.19
723.93	278.62
724.26	278.19
724.59	277.29
724.92	276.71
725.25	276.74
725.59	276.10
725.92	275.79
726.25	275.12
726.58	274.69
726.91	273.81
727.24	273.00
727.57	272.45
727.91	271.45
728.24	271.48
728.57	270.48
728.90	270.14
729.23	268.88
729.56	269.02
729.89	268.60
730.22	267.79
730.55	267.07
730.89	266.62
731.22	266.10
731.55	265.62
731.88	264.88
732.21	263.79
732.54	262.95
732.87	262.07
733.20	261.83
733.53	261.31
733.86	261.07
734.19	260.29
734.52	259.83
734.85	260.83
735.18	259.64
735.51	259.88
735.84	259.50
736.17	259.57
736.50	258.05
736.83	259.57
737.16	259.02
737.49	258.76
737.82	257.86
738.15	257.55
738.48	257.10
738.81	256.57
739.14	255.88
739.47	255.45
739.80	255.02
740.13	254.71
740.46	254.07
740.79	253.52
741.12	252.95
741.45	252.38
741.78	251.02
742.11	251.31
742.44	249.76
742.77	249.55
743.10	248.60
743.43	248.12
743.75	245.64
744.08	247.95
744.41	247.21
744.74	246.86
745.07	245.88
745.40	245.62
745.73	246.05
746.06	245.83
746.39	245.95
746.71	245.57
747.04	244.76
747.37	244.45
747.70	244.33
748.03	244.26
748.36	244.24
748.68	243.62
749.01	242.67
749.34	242.79
749.67	242.33
750.00	242.29
750.33	243.69
750.65	243.57
750.98	240.74
751.31	240.60
751.64	240.57
751.97	241.62
752.29	241.29
752.62	240.05
752.95	239.83
753.28	239.10
753.60	238.71
753.93	239.05
754.26	238.83
754.59	238.10
754.91	237.38
755.24	237.07
755.57	236.67
755.90	236.60
756.22	236.31
756.55	235.79
756.88	235.33
757.20	233.60
757.53	232.88
757.86	232.76
758.19	232.62
758.51	232.50
758.84	231.24
759.17	230.95
759.49	231.12
759.82	231.67
760.15	231.69
760.47	231.26
760.80	230.43
761.13	230.21
761.45	229.79
761.78	229.93
762.11	229.52
762.43	229.52
762.76	229.29
763.08	229.21
763.41	229.07
763.74	229.17
764.06	229.02
764.39	228.90
764.71	228.55
765.04	228.29
765.37	227.74
765.69	227.36
766.02	226.95
766.34	226.33
766.67	225.64
767.00	225.86
767.32	226.95
767.65	227.95
767.97	227.76
768.30	227.90
768.62	227.86
768.95	227.67
769.27	227.31
769.60	227.50
769.92	226.95
770.25	226.64
770.57	226.07
770.90	225.90
771.22	225.52
771.55	225.69
771.87	225.69
772.20	225.67
772.52	227.24
772.85	229.67
773.17	229.67
773.50	229.38
773.82	228.83
774.15	227.90
774.47	226.83
774.80	226.50
775.12	226.29
775.45	226.14
775.77	226.05
776.09	226.26
776.42	226.00
776.74	226.76
777.07	226.48
777.39	226.62
777.72	226.31
778.04	226.64
778.36	226.12
778.69	226.05
779.01	225.98
779.33	224.21
779.66	222.00
779.98	221.93
780.31	221.95
780.63	222.76
780.95	222.95
781.28	222.95
781.60	222.74
781.92	222.74
782.25	222.50
782.57	222.48
782.89	222.12
783.22	222.07
783.54	221.45
783.86	221.76
784.19	221.45
784.51	222.02
784.83	221.36
785.16	221.36
785.48	221.33
