SpectraSuite Data File
++++++++++++++++++++++++++++++++++++
Date: Tue Apr 02 18:40:49 EDT 2013
User: group
Dark Spectrum Present: No
Reference Spectrum Present: No
Number of Sampled Component Spectra: 1
Spectrometers: USB2E7196
Integration Time (usec): 580000 (USB2E7196)
Spectra Averaged: 2 (USB2E7196)
Boxcar Smoothing: 10 (USB2E7196)
Correct for Electrical Dark: No (USB2E7196)
Strobe/Lamp Enabled: No (USB2E7196)
Correct for Detector Non-linearity: No (USB2E7196)
Correct for Stray Light: No (USB2E7196)
Number of Pixels in Processed Spectrum: 2048
>>>>>Begin Processed Spectral Data<<<<<
339.09	0.00
339.48	193.00
339.86	193.50
340.24	198.00
340.63	195.50
341.01	234.00
341.39	202.50
341.78	205.00
342.16	213.50
342.54	205.00
342.93	198.76
343.31	208.60
343.69	209.33
344.07	209.95
344.46	210.74
344.84	211.50
345.22	210.48
345.60	210.90
345.99	211.31
346.37	211.17
346.75	211.48
347.13	211.74
347.52	211.95
347.90	212.40
348.28	212.24
348.66	212.90
349.05	212.19
349.43	212.36
349.81	212.36
350.19	212.29
350.57	212.50
350.96	212.67
351.34	212.98
351.72	213.02
352.10	213.07
352.48	212.74
352.87	212.36
353.25	212.19
353.63	212.05
354.01	212.00
354.39	212.31
354.77	212.05
355.15	212.36
355.54	212.33
355.92	211.90
356.30	211.81
356.68	212.71
357.06	212.86
357.44	212.62
357.82	212.64
358.20	213.67
358.58	213.45
358.97	213.45
359.35	213.62
359.73	213.86
360.11	213.83
360.49	213.90
360.87	214.31
361.25	214.64
361.63	215.40
362.01	215.31
362.39	215.00
362.77	215.29
363.15	215.17
363.53	214.95
363.91	215.07
364.29	214.93
364.67	213.10
365.05	213.07
365.43	213.21
365.81	213.50
366.19	213.17
366.57	213.93
366.95	213.76
367.33	213.38
367.71	213.50
368.09	214.14
368.47	213.95
368.85	213.69
369.23	214.07
369.61	213.07
369.99	213.67
370.37	214.02
370.75	214.93
371.13	214.52
371.51	214.07
371.89	214.21
372.27	214.52
372.65	214.69
373.03	214.81
373.41	214.76
373.78	214.60
374.16	213.81
374.54	213.26
374.92	213.14
375.30	213.45
375.68	213.02
376.06	213.14
376.44	213.43
376.82	213.57
377.19	213.38
377.57	213.43
377.95	212.88
378.33	212.57
378.71	211.26
379.09	211.60
379.47	212.07
379.84	211.90
380.22	211.74
380.60	211.48
380.98	211.43
381.36	211.55
381.73	211.36
382.11	211.95
382.49	212.21
382.87	212.14
383.25	212.07
383.62	214.50
384.00	213.86
384.38	213.83
384.76	214.31
385.13	215.07
385.51	215.17
385.89	215.12
386.27	215.12
386.64	215.86
387.02	215.81
387.40	215.83
387.78	215.98
388.15	216.14
388.53	216.24
388.91	216.26
389.29	216.10
389.66	216.55
390.04	216.21
390.42	216.62
390.79	216.98
391.17	216.88
391.55	214.69
391.92	214.88
392.30	215.02
392.68	214.64
393.05	214.24
393.43	214.71
393.81	214.88
394.18	214.76
394.56	214.74
394.94	215.02
395.31	214.93
395.69	215.57
396.06	215.83
396.44	216.07
396.82	215.90
397.19	217.12
397.57	216.69
397.95	217.19
398.32	216.62
398.70	216.50
399.07	216.86
399.45	216.81
399.82	216.86
400.20	216.98
400.58	217.14
400.95	216.71
401.33	216.88
401.70	218.24
402.08	218.52
402.45	218.38
402.83	219.02
403.20	219.17
403.58	218.76
403.95	219.14
404.33	219.67
404.71	220.33
405.08	221.24
405.46	221.64
405.83	222.02
406.21	222.31
406.58	223.05
406.96	223.38
407.33	223.83
407.70	224.52
408.08	226.64
408.45	227.55
408.83	228.67
409.20	229.10
409.58	228.62
409.95	229.86
410.33	231.05
410.70	231.07
411.08	232.40
411.45	233.74
411.82	234.60
412.20	236.10
412.57	238.69
412.95	238.29
413.32	240.19
413.69	241.48
414.07	243.36
414.44	245.00
414.82	247.38
415.19	250.14
415.56	252.38
415.94	253.40
416.31	256.50
416.68	259.31
417.06	262.67
417.43	266.24
417.81	269.40
418.18	273.02
418.55	276.95
418.93	280.90
419.30	285.29
419.67	289.79
420.04	294.43
420.42	298.55
420.79	305.83
421.16	311.79
421.54	319.12
421.91	325.55
422.28	332.05
422.66	339.12
423.03	347.29
423.40	354.48
423.77	362.55
424.15	369.81
424.52	377.48
424.89	386.50
425.26	395.10
425.64	403.33
426.01	412.14
426.38	421.74
426.75	431.64
427.13	441.48
427.50	451.76
427.87	462.29
428.24	472.38
428.61	481.48
428.99	492.90
429.36	504.36
429.73	515.95
430.10	527.98
430.47	539.98
430.85	550.90
431.22	564.29
431.59	579.45
431.96	593.29
432.33	607.79
432.70	622.31
433.08	639.07
433.45	655.12
433.82	670.79
434.19	689.00
434.56	706.43
434.93	722.50
435.30	739.21
435.68	757.79
436.05	776.19
436.42	794.45
436.79	811.55
437.16	829.02
437.53	847.81
437.90	866.50
438.27	885.60
438.64	904.79
439.01	922.98
439.38	937.60
439.75	953.07
440.13	971.00
440.50	987.21
440.87	1000.67
441.24	1014.67
441.61	1030.76
441.98	1041.21
442.35	1054.31
442.72	1067.88
443.09	1081.50
443.46	1089.60
443.83	1094.88
444.20	1099.67
444.57	1105.81
444.94	1109.48
445.31	1113.19
445.68	1118.95
446.05	1119.12
446.42	1117.90
446.79	1116.40
447.16	1114.71
447.53	1113.29
447.90	1106.55
448.27	1099.98
448.64	1090.90
449.01	1084.40
449.37	1072.60
449.74	1061.69
450.11	1049.55
450.48	1034.50
450.85	1018.33
451.22	1004.74
451.59	992.48
451.96	980.33
452.33	963.83
452.70	948.50
453.07	930.67
453.43	910.55
453.80	894.38
454.17	877.86
454.54	861.36
454.91	844.02
455.28	827.45
455.65	812.07
456.02	799.71
456.38	786.24
456.75	770.14
457.12	756.05
457.49	742.24
457.86	727.86
458.23	717.40
458.59	705.31
458.96	693.05
459.33	681.69
459.70	670.81
460.07	662.02
460.43	651.81
460.80	642.62
461.17	634.71
461.54	625.48
461.91	616.88
462.27	608.17
462.64	600.93
463.01	592.74
463.38	586.10
463.74	575.21
464.11	568.33
464.48	562.26
464.85	555.48
465.21	551.19
465.58	545.29
465.95	538.21
466.32	532.69
466.68	526.40
467.05	520.88
467.42	515.19
467.78	509.48
468.15	504.55
468.52	500.88
468.88	494.64
469.25	490.26
469.62	486.83
469.98	483.24
470.35	479.60
470.72	476.02
471.08	470.90
471.45	467.95
471.82	464.98
472.18	460.88
472.55	458.48
472.92	454.57
473.28	451.24
473.65	448.38
474.02	446.02
474.38	444.24
474.75	442.62
475.11	440.50
475.48	438.79
475.85	437.07
476.21	434.98
476.58	434.14
476.94	432.64
477.31	430.86
477.67	429.64
478.04	428.29
478.41	427.24
478.77	428.76
479.14	427.17
479.50	426.29
479.87	426.24
480.23	425.55
480.60	425.12
480.96	425.14
481.33	425.81
481.69	425.33
482.06	425.64
482.42	425.95
482.79	426.38
483.15	426.93
483.52	427.98
483.88	428.36
484.25	428.74
484.61	429.33
484.98	430.14
485.34	431.43
485.71	432.71
486.07	434.02
486.44	433.40
486.80	435.43
487.17	437.07
487.53	439.48
487.90	442.24
488.26	445.19
488.62	448.57
488.99	450.64
489.35	453.57
489.72	456.19
490.08	458.62
490.44	461.38
490.81	464.76
491.17	467.60
491.54	471.52
491.90	475.21
492.26	479.05
492.63	483.38
492.99	486.98
493.36	491.17
493.72	495.88
494.08	500.71
494.45	505.67
494.81	510.50
495.17	514.86
495.54	519.95
495.90	525.00
496.26	529.90
496.63	535.55
496.99	540.76
497.35	546.79
497.72	553.21
498.08	559.31
498.44	565.62
498.80	572.43
499.17	578.79
499.53	585.50
499.89	592.50
500.26	599.69
500.62	606.67
500.98	614.36
501.34	621.79
501.71	629.24
502.07	636.17
502.43	643.26
502.79	650.98
503.16	657.76
503.52	665.38
503.88	672.69
504.24	680.17
504.60	688.88
504.97	697.10
505.33	704.90
505.69	713.81
506.05	721.50
506.41	729.21
506.78	737.38
507.14	745.26
507.50	753.50
507.86	761.33
508.22	770.10
508.59	777.79
508.95	785.98
509.31	795.07
509.67	803.07
510.03	811.79
510.39	820.17
510.75	829.36
511.12	837.26
511.48	845.43
511.84	853.21
512.20	861.14
512.56	868.95
512.92	877.45
513.28	884.93
513.64	892.76
514.00	901.26
514.37	908.81
514.73	917.55
515.09	926.31
515.45	933.57
515.81	940.88
516.17	948.29
516.53	954.83
516.89	961.07
517.25	969.02
517.61	976.79
517.97	983.38
518.33	989.83
518.69	996.93
519.05	1004.21
519.41	1012.07
519.77	1019.71
520.13	1026.33
520.49	1032.00
520.85	1038.60
521.21	1046.33
521.57	1052.81
521.93	1058.48
522.29	1064.38
522.65	1068.71
523.01	1075.33
523.37	1080.69
523.73	1087.36
524.09	1093.69
524.45	1100.00
524.81	1105.69
525.17	1111.36
525.53	1116.69
525.89	1122.98
526.25	1128.55
526.61	1132.69
526.97	1136.90
527.33	1141.98
527.68	1148.55
528.04	1153.50
528.40	1157.81
528.76	1162.24
529.12	1166.76
529.48	1172.60
529.84	1177.24
530.20	1183.64
530.56	1188.88
530.91	1193.86
531.27	1197.76
531.63	1202.76
531.99	1206.50
532.35	1211.26
532.71	1215.40
533.07	1221.43
533.42	1227.76
533.78	1232.81
534.14	1238.64
534.50	1244.00
534.86	1248.67
535.21	1252.60
535.57	1258.26
535.93	1262.74
536.29	1267.95
536.65	1272.29
537.00	1276.43
537.36	1280.76
537.72	1283.64
538.08	1287.57
538.44	1290.95
538.79	1294.98
539.15	1298.19
539.51	1302.67
539.87	1306.14
540.22	1309.95
540.58	1313.14
540.94	1314.50
541.29	1317.83
541.65	1320.76
542.01	1324.43
542.37	1327.50
542.72	1329.48
543.08	1332.14
543.44	1335.90
543.79	1338.02
544.15	1342.07
544.51	1346.00
544.87	1349.64
545.22	1353.36
545.58	1357.26
545.94	1362.10
546.29	1365.52
546.65	1369.79
547.01	1372.69
547.36	1376.38
547.72	1379.83
548.07	1384.36
548.43	1387.83
548.79	1391.14
549.14	1394.83
549.50	1398.00
549.86	1400.86
550.21	1404.00
550.57	1408.14
550.92	1411.81
551.28	1415.86
551.64	1418.45
551.99	1421.86
552.35	1424.55
552.70	1427.98
553.06	1431.60
553.41	1434.62
553.77	1440.50
554.13	1444.40
554.48	1449.90
554.84	1455.24
555.19	1459.07
555.55	1462.90
555.90	1468.07
556.26	1471.90
556.61	1476.10
556.97	1479.98
557.32	1484.71
557.68	1490.40
558.03	1494.81
558.39	1499.10
558.74	1503.43
559.10	1509.17
559.45	1513.83
559.81	1519.17
560.16	1523.71
560.52	1527.86
560.87	1533.71
561.23	1536.76
561.58	1542.93
561.94	1546.71
562.29	1550.10
562.64	1556.31
563.00	1560.57
563.35	1563.98
563.71	1569.24
564.06	1574.81
564.42	1580.64
564.77	1586.40
565.12	1591.48
565.48	1598.43
565.83	1605.12
566.19	1611.33
566.54	1616.21
566.89	1621.31
567.25	1627.33
567.60	1635.07
567.96	1643.17
568.31	1648.90
568.66	1655.29
569.02	1658.86
569.37	1664.07
569.72	1668.95
570.08	1672.76
570.43	1677.33
570.78	1683.26
571.14	1688.21
571.49	1692.57
571.84	1697.36
572.20	1700.93
572.55	1705.98
572.90	1709.19
573.26	1712.52
573.61	1715.24
573.96	1719.50
574.31	1724.38
574.67	1728.38
575.02	1730.81
575.37	1731.95
575.72	1734.14
576.08	1737.79
576.43	1740.69
576.78	1743.24
577.13	1746.50
577.49	1749.95
577.84	1754.21
578.19	1756.60
578.54	1760.26
578.90	1763.69
579.25	1766.36
579.60	1768.88
579.95	1770.57
580.30	1773.02
580.66	1775.86
581.01	1778.76
581.36	1781.40
581.71	1783.67
582.06	1786.43
582.42	1788.81
582.77	1790.45
583.12	1792.00
583.47	1792.62
583.82	1794.76
584.17	1796.98
584.53	1801.00
584.88	1802.12
585.23	1803.14
585.58	1805.60
585.93	1806.45
586.28	1806.74
586.63	1807.57
586.98	1809.05
587.34	1811.19
587.69	1810.67
588.04	1811.10
588.39	1812.43
588.74	1812.17
589.09	1812.36
589.44	1810.86
589.79	1811.48
590.14	1812.88
590.49	1813.67
590.84	1814.00
591.19	1815.95
591.54	1816.76
591.89	1814.67
592.25	1817.00
592.60	1816.76
592.95	1816.26
593.30	1816.50
593.65	1816.88
594.00	1816.02
594.35	1820.64
594.70	1818.31
595.05	1819.24
595.40	1818.48
595.75	1817.74
596.10	1816.90
596.45	1816.74
596.80	1816.67
597.15	1815.62
597.50	1813.19
597.85	1813.14
598.19	1812.74
598.54	1810.81
598.89	1809.74
599.24	1810.07
599.59	1807.38
599.94	1805.83
600.29	1804.21
600.64	1802.50
600.99	1801.19
601.34	1800.36
601.69	1794.33
602.04	1793.83
602.39	1791.88
602.74	1789.86
603.08	1787.69
603.43	1787.02
603.78	1785.17
604.13	1784.05
604.48	1781.57
604.83	1781.17
605.18	1779.52
605.53	1776.36
605.87	1773.33
606.22	1770.33
606.57	1766.67
606.92	1763.93
607.27	1761.76
607.62	1760.02
607.96	1757.48
608.31	1755.17
608.66	1753.24
609.01	1749.26
609.36	1746.81
609.70	1743.07
610.05	1740.26
610.40	1737.62
610.75	1733.14
611.10	1729.67
611.44	1724.14
611.79	1720.86
612.14	1716.24
612.49	1711.17
612.83	1707.33
613.18	1703.10
613.53	1699.05
613.88	1695.02
614.22	1690.67
614.57	1685.74
614.92	1680.00
615.27	1675.76
615.61	1669.81
615.96	1664.45
616.31	1660.10
616.65	1655.52
617.00	1652.07
617.35	1647.50
617.70	1642.02
618.04	1637.64
618.39	1631.81
618.74	1628.17
619.08	1622.26
619.43	1616.81
619.78	1612.05
620.12	1607.81
620.47	1602.76
620.82	1597.31
621.16	1590.76
621.51	1586.19
621.85	1580.71
622.20	1575.90
622.55	1570.05
622.89	1565.29
623.24	1560.67
623.59	1555.81
623.93	1550.14
624.28	1545.00
624.62	1541.86
624.97	1537.83
625.32	1533.45
625.66	1528.38
626.01	1523.21
626.35	1518.69
626.70	1514.02
627.04	1509.86
627.39	1504.69
627.73	1500.81
628.08	1497.31
628.43	1493.67
628.77	1488.40
629.12	1484.36
629.46	1479.55
629.81	1474.57
630.15	1469.93
630.50	1463.95
630.84	1458.48
631.19	1453.10
631.53	1446.45
631.88	1438.31
632.22	1431.29
632.57	1425.43
632.91	1419.33
633.26	1413.67
633.60	1407.17
633.95	1400.95
634.29	1394.19
634.64	1388.67
634.98	1382.40
635.32	1376.83
635.67	1371.24
636.01	1365.95
636.36	1359.55
636.70	1354.43
637.05	1349.38
637.39	1344.17
637.73	1338.98
638.08	1334.36
638.42	1328.36
638.77	1323.40
639.11	1318.19
639.45	1312.83
639.80	1305.43
640.14	1300.14
640.49	1294.14
640.83	1288.17
641.17	1282.40
641.52	1276.24
641.86	1270.02
642.20	1265.02
642.55	1257.90
642.89	1251.21
643.23	1243.93
643.58	1239.05
643.92	1231.69
644.26	1224.31
644.61	1217.52
644.95	1210.40
645.29	1202.45
645.64	1196.98
645.98	1190.26
646.32	1184.52
646.66	1176.57
647.01	1171.07
647.35	1164.93
647.69	1158.31
648.04	1153.10
648.38	1147.07
648.72	1140.60
649.06	1133.88
649.41	1126.33
649.75	1119.60
650.09	1112.88
650.43	1106.74
650.78	1099.05
651.12	1092.86
651.46	1086.26
651.80	1079.38
652.14	1073.29
652.49	1067.74
652.83	1060.67
653.17	1053.74
653.51	1046.43
653.85	1041.14
654.20	1034.52
654.54	1026.93
654.88	1019.95
655.22	1013.55
655.56	1007.21
655.90	1000.95
656.25	994.33
656.59	987.69
656.93	981.00
657.27	975.52
657.61	969.33
657.95	963.31
658.29	956.90
658.64	951.76
658.98	945.02
659.32	938.60
659.66	931.90
660.00	926.14
660.34	920.60
660.68	914.60
661.02	908.12
661.36	902.02
661.70	896.83
662.05	891.76
662.39	885.52
662.73	880.00
663.07	875.10
663.41	869.67
663.75	863.52
664.09	858.57
664.43	852.33
664.77	845.88
665.11	839.52
665.45	833.79
665.79	827.88
666.13	822.21
666.47	816.38
666.81	811.00
667.15	804.76
667.49	799.40
667.83	794.71
668.17	789.76
668.51	784.79
668.85	779.48
669.19	775.12
669.53	769.71
669.87	763.86
670.21	757.64
670.55	751.83
670.89	747.57
671.23	741.71
671.57	737.00
671.91	732.36
672.25	727.83
672.58	723.69
672.92	718.10
673.26	714.19
673.60	709.48
673.94	705.36
674.28	700.93
674.62	696.45
674.96	691.17
675.30	686.69
675.64	682.14
675.97	677.57
676.31	671.81
676.65	667.48
676.99	663.81
677.33	659.48
677.67	655.05
678.01	650.52
678.34	646.50
678.68	642.62
679.02	638.36
679.36	633.93
679.70	628.76
680.04	624.67
680.37	620.00
680.71	615.79
681.05	611.38
681.39	607.43
681.73	602.64
682.06	598.71
682.40	594.71
682.74	590.79
683.08	587.29
683.42	583.19
683.75	578.67
684.09	574.10
684.43	570.24
684.77	566.48
685.10	562.19
685.44	558.29
685.78	553.57
686.12	549.55
686.45	545.31
686.79	541.48
687.13	537.93
687.46	534.17
687.80	531.05
688.14	526.81
688.48	523.14
688.81	519.83
689.15	516.64
689.49	512.74
689.82	509.07
690.16	504.83
690.50	501.14
690.83	497.67
691.17	493.90
691.51	490.67
691.84	487.79
692.18	484.52
692.52	481.00
692.85	478.12
693.19	475.69
693.52	472.71
693.86	469.45
694.20	466.17
694.53	463.38
694.87	459.74
695.21	456.43
695.54	453.07
695.88	449.38
696.21	445.38
696.55	442.64
696.88	439.62
697.22	436.19
697.56	434.07
697.89	431.40
698.23	428.79
698.56	425.45
698.90	422.48
699.23	419.43
699.57	417.36
699.90	414.33
700.24	411.02
700.58	408.12
700.91	405.98
701.25	404.95
701.58	402.76
701.92	400.93
702.25	398.79
702.59	396.24
702.92	394.17
703.26	392.19
703.59	389.67
703.93	389.07
704.26	387.64
704.60	384.88
704.93	382.95
705.26	380.76
705.60	379.57
705.93	377.21
706.27	375.81
706.60	374.07
706.94	372.98
707.27	370.90
707.61	369.60
707.94	367.62
708.27	364.12
708.61	361.52
708.94	359.43
709.28	357.79
709.61	356.02
709.94	354.60
710.28	352.86
710.61	351.14
710.95	347.33
711.28	346.74
711.61	345.36
711.95	343.81
712.28	341.71
712.61	339.62
712.95	339.24
713.28	338.43
713.61	336.40
713.95	334.29
714.28	333.05
714.61	331.43
714.95	329.93
715.28	328.17
715.61	327.02
715.95	325.67
716.28	323.93
716.61	322.81
716.95	320.93
717.28	319.38
717.61	318.10
717.94	316.93
718.28	314.29
718.61	313.10
718.94	311.36
719.27	310.40
719.61	308.90
719.94	306.83
720.27	304.50
720.60	303.14
720.94	301.88
721.27	300.62
721.60	299.57
721.93	298.29
722.27	298.17
722.60	297.26
722.93	296.26
723.26	295.52
723.59	294.19
723.93	293.40
724.26	292.64
724.59	291.48
724.92	290.81
725.25	290.48
725.59	289.36
725.92	288.90
726.25	287.71
726.58	287.14
726.91	286.19
727.24	285.40
727.57	284.50
727.91	283.50
728.24	282.83
728.57	281.67
728.90	280.90
729.23	279.40
729.56	279.38
729.89	278.52
730.22	277.48
730.55	276.76
730.89	276.10
731.22	275.21
731.55	274.62
731.88	273.88
732.21	272.67
732.54	271.64
732.87	270.64
733.20	270.29
733.53	269.55
733.86	269.29
734.19	268.40
734.52	267.90
734.85	268.50
735.18	267.40
735.51	267.81
735.84	267.31
736.17	267.31
736.50	265.69
736.83	267.12
737.16	266.95
737.49	266.43
737.82	265.64
738.15	265.57
738.48	264.95
738.81	264.19
739.14	263.40
739.47	263.02
739.80	262.74
740.13	262.36
740.46	261.50
740.79	260.50
741.12	260.02
741.45	259.12
741.78	257.88
742.11	258.07
742.44	256.76
742.77	256.74
743.10	256.00
743.43	255.50
743.75	252.86
744.08	254.81
744.41	254.19
744.74	253.52
745.07	252.29
745.40	252.29
745.73	252.86
746.06	252.38
746.39	252.29
746.71	251.52
747.04	250.55
747.37	250.10
747.70	249.88
748.03	249.67
748.36	249.74
748.68	249.10
749.01	248.17
749.34	247.90
749.67	247.07
750.00	246.95
750.33	248.14
750.65	248.10
750.98	245.07
751.31	244.83
751.64	245.00
751.97	246.00
752.29	245.40
752.62	243.93
752.95	243.71
753.28	242.88
753.60	242.57
753.93	243.00
754.26	242.93
754.59	242.07
754.91	241.62
755.24	240.86
755.57	240.43
755.90	240.05
756.22	239.45
756.55	239.07
756.88	238.24
757.20	236.55
757.53	235.81
757.86	235.50
758.19	235.36
758.51	234.79
758.84	233.52
759.17	233.26
759.49	233.26
759.82	233.86
760.15	233.90
760.47	233.79
760.80	232.83
761.13	232.98
761.45	232.74
761.78	232.36
762.11	232.40
762.43	232.31
762.76	231.93
763.08	232.12
763.41	232.02
763.74	231.88
764.06	231.48
764.39	231.38
764.71	231.17
765.04	230.60
765.37	230.40
765.69	230.21
766.02	229.86
766.34	229.52
766.67	228.55
767.00	228.52
767.32	229.14
767.65	230.40
767.97	229.79
768.30	229.81
768.62	229.69
768.95	229.36
769.27	228.88
769.60	229.21
769.92	228.71
770.25	228.26
770.57	227.69
770.90	227.60
771.22	226.95
771.55	226.88
771.87	226.93
772.20	226.62
772.52	228.19
772.85	230.69
773.17	230.43
773.50	230.26
773.82	230.02
774.15	228.86
774.47	227.67
774.80	227.55
775.12	227.52
775.45	227.45
775.77	227.26
776.09	227.29
776.42	227.17
776.74	227.83
777.07	227.62
777.39	227.86
777.72	227.83
778.04	227.98
778.36	227.67
778.69	227.79
779.01	227.81
779.33	225.95
779.66	223.33
779.98	223.12
780.31	223.21
780.63	223.95
780.95	224.43
781.28	224.19
781.60	223.88
781.92	223.62
782.25	223.55
782.57	223.52
782.89	223.48
783.22	223.29
783.54	222.64
783.86	222.95
784.19	222.57
784.51	222.74
784.83	222.50
785.16	222.36
