SpectraSuite Data File
++++++++++++++++++++++++++++++++++++
Date: Tue Apr 02 18:45:05 EDT 2013
User: group
Dark Spectrum Present: No
Reference Spectrum Present: No
Number of Sampled Component Spectra: 1
Spectrometers: USB2E7196
Integration Time (usec): 580000 (USB2E7196)
Spectra Averaged: 2 (USB2E7196)
Boxcar Smoothing: 10 (USB2E7196)
Correct for Electrical Dark: No (USB2E7196)
Strobe/Lamp Enabled: No (USB2E7196)
Correct for Detector Non-linearity: No (USB2E7196)
Correct for Stray Light: No (USB2E7196)
Number of Pixels in Processed Spectrum: 2048
>>>>>Begin Processed Spectral Data<<<<<
339.09	0.00
339.48	194.00
339.86	192.50
340.24	198.50
340.63	197.50
341.01	232.00
341.39	200.50
341.78	205.00
342.16	209.50
342.54	208.50
342.93	198.12
343.31	208.19
343.69	208.98
344.07	209.76
344.46	210.17
344.84	210.76
345.22	209.69
345.60	210.29
345.99	210.62
346.37	210.67
346.75	210.79
347.13	210.79
347.52	211.24
347.90	211.93
348.28	211.79
348.66	212.29
349.05	211.95
349.43	212.43
349.81	212.50
350.19	212.50
350.57	212.43
350.96	212.43
351.34	212.36
351.72	212.38
352.10	212.26
352.48	212.45
352.87	212.55
353.25	212.62
353.63	212.60
354.01	212.57
354.39	212.69
354.77	212.64
355.15	213.62
355.54	213.38
355.92	212.98
356.30	213.02
356.68	214.26
357.06	214.29
357.44	213.93
357.82	213.86
358.20	214.76
358.58	214.79
358.97	214.79
359.35	215.14
359.73	215.55
360.11	215.71
360.49	215.71
360.87	215.83
361.25	216.05
361.63	216.71
362.01	216.76
362.39	216.81
362.77	217.21
363.15	216.57
363.53	216.81
363.91	216.83
364.29	216.79
364.67	214.69
365.05	214.45
365.43	214.69
365.81	215.29
366.19	215.50
366.57	216.21
366.95	216.31
367.33	216.02
367.71	215.83
368.09	216.21
368.47	216.14
368.85	215.90
369.23	216.29
369.61	215.43
369.99	216.07
370.37	216.26
370.75	216.95
371.13	216.74
371.51	216.17
371.89	216.40
372.27	216.64
372.65	217.17
373.03	217.33
373.41	217.14
373.78	216.69
374.16	215.60
374.54	215.10
374.92	214.95
375.30	214.90
375.68	214.57
376.06	214.60
376.44	214.67
376.82	214.76
377.19	214.36
377.57	214.43
377.95	213.71
378.33	213.55
378.71	212.29
379.09	212.67
379.47	213.10
379.84	213.00
380.22	212.86
380.60	212.36
380.98	212.38
381.36	212.17
381.73	211.93
382.11	212.40
382.49	212.40
382.87	212.07
383.25	212.02
383.62	214.31
384.00	214.17
384.38	214.29
384.76	214.64
385.13	215.60
385.51	215.60
385.89	215.52
386.27	215.55
386.64	216.00
387.02	215.76
387.40	215.64
387.78	215.55
388.15	215.74
388.53	215.95
388.91	215.69
389.29	215.67
389.66	216.05
390.04	215.74
390.42	216.19
390.79	216.43
391.17	216.38
391.55	214.50
391.92	214.29
392.30	214.29
392.68	213.83
393.05	213.67
393.43	213.57
393.81	213.55
394.18	213.26
394.56	213.14
394.94	213.55
395.31	213.14
395.69	213.88
396.06	213.95
396.44	214.14
396.82	214.19
397.19	215.26
397.57	215.21
397.95	215.31
398.32	214.52
398.70	214.88
399.07	215.36
399.45	215.07
399.82	215.10
400.20	215.07
400.58	215.17
400.95	214.45
401.33	214.95
401.70	216.52
402.08	216.74
402.45	216.83
402.83	217.33
403.20	217.57
403.58	217.36
403.95	217.69
404.33	218.12
404.71	218.38
405.08	219.48
405.46	219.62
405.83	220.31
406.21	220.62
406.58	220.88
406.96	221.31
407.33	222.14
407.70	223.02
408.08	225.00
408.45	226.07
408.83	227.17
409.20	227.71
409.58	227.19
409.95	228.36
410.33	229.36
410.70	229.45
411.08	231.17
411.45	232.10
411.82	232.93
412.20	234.24
412.57	236.71
412.95	236.48
413.32	238.24
413.69	239.55
414.07	241.38
414.44	243.12
414.82	245.07
415.19	247.31
415.56	249.36
415.94	250.79
416.31	253.31
416.68	256.07
417.06	259.12
417.43	262.67
417.81	266.00
418.18	269.52
418.55	273.17
418.93	276.79
419.30	281.26
419.67	285.81
420.04	290.29
420.42	294.19
420.79	301.33
421.16	307.29
421.54	314.36
421.91	320.69
422.28	326.79
422.66	333.45
423.03	341.10
423.40	348.36
423.77	355.21
424.15	362.45
424.52	369.90
424.89	378.50
425.26	385.98
425.64	393.62
426.01	402.12
426.38	410.62
426.75	420.17
427.13	428.88
427.50	438.21
427.87	448.21
428.24	458.50
428.61	466.86
428.99	477.90
429.36	488.40
429.73	499.36
430.10	511.14
430.47	522.64
430.85	532.98
431.22	544.76
431.59	559.71
431.96	572.19
432.33	586.60
432.70	600.24
433.08	616.40
433.45	631.76
433.82	646.57
434.19	663.67
434.56	680.12
434.93	696.14
435.30	712.12
435.68	729.31
436.05	746.00
436.42	762.74
436.79	778.17
437.16	795.26
437.53	813.07
437.90	830.40
438.27	847.57
438.64	865.93
439.01	883.81
439.38	897.90
439.75	912.86
440.13	929.50
440.50	945.29
440.87	957.86
441.24	970.98
441.61	985.26
441.98	995.93
442.35	1007.95
442.72	1021.14
443.09	1034.57
443.46	1042.60
443.83	1048.50
444.20	1053.57
444.57	1059.12
444.94	1062.07
445.31	1065.12
445.68	1071.07
446.05	1073.00
446.42	1071.07
446.79	1069.40
447.16	1066.81
447.53	1066.24
447.90	1059.45
448.27	1052.88
448.64	1044.00
449.01	1037.79
449.37	1027.12
449.74	1017.02
450.11	1005.71
450.48	990.79
450.85	974.86
451.22	961.88
451.59	949.81
451.96	937.52
452.33	922.52
452.70	908.24
453.07	892.45
453.43	872.74
453.80	856.33
454.17	841.19
454.54	825.52
454.91	809.67
455.28	793.29
455.65	779.14
456.02	767.76
456.38	755.57
456.75	739.86
457.12	726.98
457.49	713.60
457.86	699.55
458.23	689.29
458.59	677.62
458.96	665.79
459.33	654.62
459.70	644.71
460.07	636.29
460.43	627.02
460.80	617.86
461.17	610.67
461.54	602.48
461.91	594.74
462.27	586.93
462.64	580.02
463.01	572.62
463.38	565.17
463.74	554.64
464.11	548.12
464.48	542.95
464.85	536.69
465.21	532.67
465.58	527.64
465.95	521.45
466.32	516.55
466.68	511.24
467.05	506.55
467.42	501.45
467.78	496.26
468.15	491.26
468.52	487.79
468.88	482.31
469.25	477.48
469.62	473.88
469.98	469.95
470.35	466.26
470.72	462.40
471.08	458.21
471.45	455.36
471.82	452.57
472.18	448.90
472.55	446.38
472.92	442.74
473.28	440.14
473.65	437.17
474.02	434.62
474.38	432.67
474.75	430.93
475.11	428.71
475.48	426.79
475.85	424.93
476.21	422.57
476.58	420.88
476.94	419.81
477.31	418.62
477.67	416.95
478.04	415.90
478.41	415.57
478.77	416.74
479.14	415.55
479.50	414.76
479.87	414.24
480.23	413.57
480.60	413.24
480.96	412.62
481.33	413.36
481.69	413.45
482.06	413.76
482.42	414.02
482.79	414.43
483.15	414.74
483.52	415.64
483.88	416.33
484.25	417.05
484.61	418.19
484.98	418.55
485.34	420.45
485.71	422.19
486.07	422.90
486.44	422.48
486.80	423.95
487.17	425.40
487.53	427.79
487.90	430.29
488.26	433.29
488.62	435.93
488.99	437.86
489.35	440.60
489.72	443.00
490.08	445.55
490.44	448.26
490.81	451.79
491.17	454.57
491.54	457.74
491.90	461.79
492.26	465.31
492.63	469.43
492.99	472.76
493.36	476.55
493.72	481.36
494.08	486.00
494.45	491.21
494.81	496.38
495.17	500.71
495.54	505.52
495.90	509.71
496.26	515.24
496.63	520.67
496.99	526.05
497.35	531.98
497.72	537.76
498.08	543.76
498.44	549.98
498.80	556.86
499.17	563.48
499.53	569.71
499.89	576.88
500.26	583.26
500.62	590.29
500.98	597.24
501.34	604.07
501.71	611.21
502.07	618.05
502.43	624.95
502.79	632.17
503.16	639.43
503.52	646.64
503.88	653.36
504.24	660.74
504.60	668.52
504.97	675.88
505.33	683.33
505.69	692.02
506.05	699.90
506.41	707.38
506.78	714.81
507.14	722.17
507.50	729.74
507.86	738.48
508.22	745.79
508.59	753.48
508.95	761.57
509.31	770.05
509.67	777.19
510.03	784.98
510.39	792.88
510.75	800.76
511.12	808.62
511.48	816.14
511.84	823.98
512.20	831.38
512.56	839.60
512.92	847.21
513.28	853.86
513.64	860.60
514.00	867.38
514.37	874.48
514.73	881.67
515.09	889.00
515.45	895.19
515.81	902.43
516.17	909.55
516.53	915.55
516.89	920.98
517.25	928.10
517.61	934.98
517.97	940.60
518.33	946.79
518.69	953.10
519.05	960.10
519.41	965.90
519.77	972.86
520.13	978.33
520.49	984.19
520.85	989.90
521.21	996.95
521.57	1002.74
521.93	1008.48
522.29	1014.21
522.65	1018.38
523.01	1023.52
523.37	1028.74
523.73	1033.98
524.09	1039.10
524.45	1044.36
524.81	1049.10
525.17	1053.14
525.53	1058.45
525.89	1063.33
526.25	1068.31
526.61	1071.74
526.97	1075.64
527.33	1079.38
527.68	1085.05
528.04	1089.31
528.40	1094.02
528.76	1097.07
529.12	1101.24
529.48	1105.88
529.84	1109.90
530.20	1114.45
530.56	1118.95
530.91	1123.76
531.27	1127.48
531.63	1131.83
531.99	1135.90
532.35	1139.93
532.71	1144.60
533.07	1149.29
533.42	1154.71
533.78	1158.36
534.14	1164.17
534.50	1168.62
534.86	1172.67
535.21	1175.24
535.57	1179.69
535.93	1182.88
536.29	1187.62
536.65	1192.50
537.00	1194.83
537.36	1198.24
537.72	1202.33
538.08	1205.86
538.44	1208.40
538.79	1211.60
539.15	1214.14
539.51	1217.71
539.87	1221.43
540.22	1224.98
540.58	1228.29
540.94	1229.98
541.29	1233.43
541.65	1235.38
542.01	1238.88
542.37	1241.71
542.72	1244.02
543.08	1245.14
543.44	1247.21
543.79	1248.24
544.15	1250.76
544.51	1254.17
544.87	1257.26
545.22	1259.57
545.58	1262.38
545.94	1264.90
546.29	1267.52
546.65	1270.52
547.01	1273.00
547.36	1275.19
547.72	1277.00
548.07	1279.43
548.43	1281.40
548.79	1283.62
549.14	1286.02
549.50	1289.05
549.86	1291.21
550.21	1293.48
550.57	1297.60
550.92	1300.55
551.28	1304.88
551.64	1307.31
551.99	1310.76
552.35	1313.86
552.70	1317.05
553.06	1320.40
553.41	1323.31
553.77	1328.10
554.13	1332.12
554.48	1336.45
554.84	1340.74
555.19	1344.48
555.55	1349.14
555.90	1353.10
556.26	1356.45
556.61	1359.81
556.97	1362.14
557.32	1365.33
557.68	1369.43
558.03	1373.21
558.39	1377.48
558.74	1380.86
559.10	1385.19
559.45	1388.64
559.81	1392.98
560.16	1396.71
560.52	1400.38
560.87	1405.07
561.23	1407.62
561.58	1412.57
561.94	1415.60
562.29	1420.00
562.64	1425.10
563.00	1428.40
563.35	1433.57
563.71	1438.48
564.06	1443.71
564.42	1449.86
564.77	1456.29
565.12	1462.50
565.48	1469.93
565.83	1475.93
566.19	1481.12
566.54	1486.31
566.89	1492.93
567.25	1498.90
567.60	1506.07
567.96	1513.55
568.31	1520.24
568.66	1527.69
569.02	1532.76
569.37	1538.17
569.72	1544.10
570.08	1549.45
570.43	1554.86
570.78	1560.86
571.14	1566.95
571.49	1572.21
571.84	1576.67
572.20	1581.02
572.55	1586.05
572.90	1588.38
573.26	1592.36
573.61	1597.50
573.96	1601.95
574.31	1605.67
574.67	1608.60
575.02	1611.60
575.37	1614.48
575.72	1618.12
576.08	1621.74
576.43	1624.69
576.78	1629.19
577.13	1632.31
577.49	1636.17
577.84	1640.24
578.19	1643.29
578.54	1647.98
578.90	1652.79
579.25	1656.57
579.60	1659.14
579.95	1662.57
580.30	1666.67
580.66	1670.48
581.01	1673.67
581.36	1677.50
581.71	1681.12
582.06	1686.29
582.42	1690.02
582.77	1692.12
583.12	1695.07
583.47	1697.55
583.82	1701.86
584.17	1705.02
584.53	1707.93
584.88	1710.52
585.23	1713.83
585.58	1716.67
585.93	1718.26
586.28	1720.74
586.63	1724.48
586.98	1728.33
587.34	1731.60
587.69	1734.21
588.04	1737.36
588.39	1739.86
588.74	1740.14
589.09	1742.38
589.44	1742.88
589.79	1744.43
590.14	1747.17
590.49	1748.67
590.84	1750.64
591.19	1751.95
591.54	1753.43
591.89	1754.76
592.25	1758.55
592.60	1759.76
592.95	1760.43
593.30	1762.19
593.65	1762.17
594.00	1762.21
594.35	1769.12
594.70	1768.71
595.05	1769.86
595.40	1769.83
595.75	1771.00
596.10	1773.62
596.45	1774.40
596.80	1775.76
597.15	1776.38
597.50	1776.88
597.85	1778.21
598.19	1778.33
598.54	1779.00
598.89	1779.57
599.24	1780.93
599.59	1778.69
599.94	1778.21
600.29	1778.79
600.64	1778.31
600.99	1779.45
601.34	1779.17
601.69	1773.33
602.04	1773.21
602.39	1773.14
602.74	1773.69
603.08	1772.24
603.43	1771.76
603.78	1771.36
604.13	1770.52
604.48	1770.12
604.83	1770.36
605.18	1769.79
605.53	1770.19
605.87	1769.67
606.22	1769.19
606.57	1767.74
606.92	1767.10
607.27	1766.64
607.62	1766.36
607.96	1765.81
608.31	1765.24
608.66	1765.67
609.01	1764.24
609.36	1763.83
609.70	1761.93
610.05	1760.17
610.40	1759.31
610.75	1757.36
611.10	1756.07
611.44	1754.45
611.79	1751.90
612.14	1749.79
612.49	1746.69
612.83	1742.31
613.18	1739.05
613.53	1735.69
613.88	1732.10
614.22	1729.12
614.57	1725.31
614.92	1721.43
615.27	1718.00
615.61	1713.26
615.96	1708.81
616.31	1705.14
616.65	1701.86
617.00	1698.50
617.35	1695.48
617.70	1691.79
618.04	1688.93
618.39	1684.62
618.74	1681.14
619.08	1677.14
619.43	1673.67
619.78	1670.29
620.12	1668.07
620.47	1664.55
620.82	1660.81
621.16	1657.14
621.51	1654.57
621.85	1651.00
622.20	1647.10
622.55	1642.33
622.89	1638.93
623.24	1636.05
623.59	1632.43
623.93	1628.05
624.28	1623.90
624.62	1621.60
624.97	1619.14
625.32	1613.90
625.66	1610.26
626.01	1606.43
626.35	1603.64
626.70	1599.10
627.04	1595.76
627.39	1592.38
627.73	1589.93
628.08	1586.57
628.43	1582.83
628.77	1577.79
629.12	1574.21
629.46	1571.12
629.81	1567.86
630.15	1563.07
630.50	1557.83
630.84	1553.74
631.19	1549.24
631.53	1544.90
631.88	1538.29
632.22	1531.64
632.57	1528.14
632.91	1522.95
633.26	1518.48
633.60	1513.14
633.95	1507.60
634.29	1501.95
634.64	1496.88
634.98	1491.24
635.32	1487.74
635.67	1483.67
636.01	1480.00
636.36	1474.76
636.70	1470.31
637.05	1465.74
637.39	1462.21
637.73	1458.52
638.08	1454.19
638.42	1450.40
638.77	1446.67
639.11	1442.60
639.45	1438.12
639.80	1433.02
640.14	1428.83
640.49	1423.67
640.83	1418.64
641.17	1415.21
641.52	1410.74
641.86	1405.48
642.20	1401.21
642.55	1395.10
642.89	1389.86
643.23	1384.55
643.58	1380.93
643.92	1374.00
644.26	1368.48
644.61	1363.29
644.95	1357.24
645.29	1351.31
645.64	1345.74
645.98	1339.79
646.32	1334.52
646.66	1329.07
647.01	1323.33
647.35	1318.10
647.69	1312.67
648.04	1308.29
648.38	1301.69
648.72	1295.88
649.06	1289.57
649.41	1283.31
649.75	1277.07
650.09	1271.43
650.43	1264.40
650.78	1257.36
651.12	1252.14
651.46	1245.76
651.80	1239.36
652.14	1233.52
652.49	1227.69
652.83	1220.93
653.17	1213.90
653.51	1206.38
653.85	1200.95
654.20	1195.31
654.54	1187.60
654.88	1180.38
655.22	1174.05
655.56	1167.90
655.90	1161.64
656.25	1155.52
656.59	1148.60
656.93	1142.67
657.27	1136.71
657.61	1130.05
657.95	1123.93
658.29	1117.45
658.64	1111.95
658.98	1105.12
659.32	1098.29
659.66	1091.50
660.00	1085.02
660.34	1079.52
660.68	1073.52
661.02	1067.00
661.36	1060.05
661.70	1054.67
662.05	1049.10
662.39	1042.74
662.73	1036.79
663.07	1032.00
663.41	1026.02
663.75	1020.67
664.09	1014.79
664.43	1008.02
664.77	1003.19
665.11	997.07
665.45	991.57
665.79	986.33
666.13	980.55
666.47	974.71
666.81	969.57
667.15	964.26
667.49	959.00
667.83	954.05
668.17	948.10
668.51	942.60
668.85	937.48
669.19	933.21
669.53	927.00
669.87	921.17
670.21	914.67
670.55	908.90
670.89	903.86
671.23	898.26
671.57	893.31
671.91	887.74
672.25	882.24
672.58	877.19
672.92	871.07
673.26	865.74
673.60	860.60
673.94	855.17
674.28	850.02
674.62	845.21
674.96	839.83
675.30	835.38
675.64	830.52
675.97	825.48
676.31	819.05
676.65	814.14
676.99	810.40
677.33	805.05
677.67	800.95
678.01	795.02
678.34	789.83
678.68	785.17
679.02	779.76
679.36	774.88
679.70	769.43
680.04	764.45
680.37	759.48
680.71	754.74
681.05	749.95
681.39	744.67
681.73	739.26
682.06	734.33
682.40	729.69
682.74	725.26
683.08	721.40
683.42	716.60
683.75	711.86
684.09	706.07
684.43	701.74
684.77	696.48
685.10	692.05
685.44	687.48
685.78	682.45
686.12	678.07
686.45	673.52
686.79	669.05
687.13	665.29
687.46	661.21
687.80	657.26
688.14	653.00
688.48	649.21
688.81	644.90
689.15	641.14
689.49	635.86
689.82	631.43
690.16	625.33
690.50	621.36
690.83	616.86
691.17	612.26
691.51	607.76
691.84	603.81
692.18	599.60
692.52	595.90
692.85	591.98
693.19	589.10
693.52	584.83
693.86	580.12
694.20	575.40
694.53	571.10
694.87	566.52
695.21	562.26
695.54	558.69
695.88	554.26
696.21	549.50
696.55	546.07
696.88	541.86
697.22	538.67
697.56	535.31
697.89	531.74
698.23	528.50
698.56	524.71
698.90	520.88
699.23	517.07
699.57	512.88
699.90	509.05
700.24	504.14
700.58	500.93
700.91	498.50
701.25	496.76
701.58	494.29
701.92	491.57
702.25	488.62
702.59	484.81
702.92	481.45
703.26	478.71
703.59	475.43
703.93	474.10
704.26	471.10
704.60	468.07
704.93	465.02
705.26	461.86
705.60	459.36
705.93	456.12
706.27	453.83
706.60	451.64
706.94	449.62
707.27	446.79
707.61	444.05
707.94	441.12
708.27	436.88
708.61	433.52
708.94	430.52
709.28	428.14
709.61	425.26
709.94	422.83
710.28	420.19
710.61	418.07
710.95	414.05
711.28	412.76
711.61	410.17
711.95	408.62
712.28	406.19
712.61	403.71
712.95	402.50
713.28	401.14
713.61	398.76
713.95	395.74
714.28	394.07
714.61	391.67
714.95	389.52
715.28	387.02
715.61	384.83
715.95	382.81
716.28	380.02
716.61	378.74
716.95	376.76
717.28	374.60
717.61	372.07
717.94	370.00
718.28	366.71
718.61	364.71
718.94	362.21
719.27	360.31
719.61	358.43
719.94	356.14
720.27	352.71
720.60	350.45
720.94	348.98
721.27	347.19
721.60	346.07
721.93	344.29
722.27	343.24
722.60	341.90
722.93	340.19
723.26	339.07
723.59	336.86
723.93	335.64
724.26	334.69
724.59	333.57
724.92	331.98
725.25	331.19
725.59	329.86
725.92	328.55
726.25	327.43
726.58	326.55
726.91	325.12
727.24	324.12
727.57	322.74
727.91	320.98
728.24	319.90
728.57	318.55
728.90	317.55
729.23	315.90
729.56	315.55
729.89	314.36
730.22	312.79
730.55	311.33
730.89	309.93
731.22	308.55
731.55	307.36
731.88	306.69
732.21	305.40
732.54	303.83
732.87	302.86
733.20	301.90
733.53	300.83
733.86	300.07
734.19	299.00
734.52	298.57
734.85	299.12
735.18	297.86
735.51	297.31
735.84	296.67
736.17	296.12
736.50	294.05
736.83	295.62
737.16	295.02
737.49	294.50
737.82	293.74
738.15	293.02
738.48	292.19
738.81	290.93
739.14	289.81
739.47	289.02
739.80	287.83
740.13	287.00
740.46	285.79
740.79	284.48
741.12	283.57
741.45	282.52
741.78	280.55
742.11	280.33
742.44	279.21
742.77	278.38
743.10	277.40
743.43	276.40
743.75	273.40
744.08	275.17
744.41	274.36
744.74	273.33
745.07	272.29
745.40	271.95
745.73	272.40
746.06	271.74
746.39	271.38
746.71	271.05
747.04	270.00
747.37	269.05
747.70	268.76
748.03	268.29
748.36	267.76
748.68	266.88
749.01	265.52
749.34	264.76
749.67	264.19
750.00	264.12
750.33	265.60
750.65	265.26
750.98	262.21
751.31	261.71
751.64	261.43
751.97	262.00
752.29	261.14
752.62	259.40
752.95	258.79
753.28	257.90
753.60	257.19
753.93	257.14
754.26	256.62
754.59	255.57
754.91	254.81
755.24	254.31
755.57	253.95
755.90	253.43
756.22	252.55
756.55	251.67
756.88	250.57
757.20	248.29
757.53	247.10
757.86	246.71
758.19	246.33
758.51	245.48
758.84	244.12
759.17	243.45
759.49	243.31
759.82	243.55
760.15	243.38
760.47	242.79
760.80	242.00
761.13	242.52
761.45	242.29
761.78	242.21
762.11	241.67
762.43	241.12
762.76	240.71
763.08	240.67
763.41	240.43
763.74	240.17
764.06	240.05
764.39	239.93
764.71	239.40
765.04	238.95
765.37	238.86
765.69	238.43
766.02	238.12
766.34	237.93
766.67	237.12
767.00	237.00
767.32	237.90
767.65	238.76
767.97	237.88
768.30	237.55
768.62	236.95
768.95	236.50
769.27	236.24
769.60	236.36
769.92	236.07
770.25	235.48
770.57	234.74
770.90	234.40
771.22	234.00
771.55	233.74
771.87	233.62
772.20	233.21
772.52	234.67
772.85	236.98
773.17	236.64
773.50	236.33
773.82	235.86
774.15	234.43
774.47	232.93
774.80	232.48
775.12	232.40
775.45	232.36
775.77	232.21
776.09	232.07
776.42	232.07
776.74	232.10
777.07	232.14
777.39	232.14
777.72	231.79
778.04	231.83
778.36	231.38
778.69	231.12
779.01	231.21
779.33	229.24
779.66	226.64
779.98	226.21
780.31	226.10
780.63	226.83
780.95	227.36
781.28	227.24
781.60	227.12
781.92	226.81
782.25	226.24
782.57	226.19
782.89	226.02
783.22	225.60
783.54	225.02
783.86	225.02
784.19	224.88
784.51	225.36
784.83	224.79
785.16	224.79
