SpectraSuite Data File
++++++++++++++++++++++++++++++++++++
Date: Tue Apr 02 18:40:31 EDT 2013
User: group
Dark Spectrum Present: No
Reference Spectrum Present: No
Number of Sampled Component Spectra: 1
Spectrometers: USB2E7196
Integration Time (usec): 580000 (USB2E7196)
Spectra Averaged: 2 (USB2E7196)
Boxcar Smoothing: 10 (USB2E7196)
Correct for Electrical Dark: No (USB2E7196)
Strobe/Lamp Enabled: No (USB2E7196)
Correct for Detector Non-linearity: No (USB2E7196)
Correct for Stray Light: No (USB2E7196)
Number of Pixels in Processed Spectrum: 2048
>>>>>Begin Processed Spectral Data<<<<<
339.09	0.00
339.48	194.00
339.86	195.00
340.24	197.00
340.63	194.50
341.01	229.50
341.39	199.50
341.78	208.00
342.16	209.50
342.54	208.00
342.93	197.86
343.31	207.74
343.69	208.26
344.07	208.83
344.46	209.48
344.84	210.21
345.22	209.02
345.60	209.55
345.99	209.67
346.37	209.71
346.75	209.60
347.13	209.38
347.52	209.45
347.90	210.17
348.28	210.26
348.66	210.52
349.05	209.76
349.43	210.05
349.81	210.00
350.19	210.00
350.57	210.17
350.96	210.38
351.34	210.50
351.72	210.81
352.10	210.81
352.48	210.57
352.87	210.24
353.25	210.45
353.63	210.21
354.01	210.33
354.39	210.43
354.77	210.36
355.15	210.90
355.54	210.52
355.92	209.62
356.30	209.52
356.68	210.67
357.06	210.81
357.44	210.33
357.82	210.38
358.20	211.40
358.58	211.24
358.97	211.31
359.35	211.76
359.73	212.02
360.11	211.95
360.49	212.12
360.87	212.17
361.25	212.33
361.63	213.14
362.01	213.12
362.39	212.86
362.77	213.26
363.15	213.24
363.53	213.43
363.91	213.64
364.29	213.81
364.67	212.02
365.05	212.17
365.43	212.45
365.81	212.55
366.19	212.33
366.57	213.31
366.95	213.05
367.33	212.43
367.71	212.07
368.09	212.38
368.47	212.38
368.85	212.52
369.23	212.93
369.61	212.26
369.99	212.83
370.37	213.00
370.75	213.95
371.13	213.50
371.51	213.31
371.89	213.69
372.27	213.81
372.65	213.95
373.03	214.02
373.41	213.93
373.78	213.93
374.16	213.02
374.54	212.29
374.92	212.26
375.30	212.52
375.68	212.52
376.06	212.69
376.44	212.62
376.82	212.88
377.19	212.69
377.57	212.76
377.95	212.26
378.33	212.21
378.71	211.02
379.09	211.57
379.47	211.64
379.84	211.40
380.22	211.21
380.60	211.02
380.98	210.98
381.36	211.00
381.73	210.76
382.11	211.21
382.49	211.29
382.87	210.95
383.25	211.00
383.62	213.26
384.00	212.93
384.38	213.07
384.76	213.57
385.13	214.33
385.51	214.43
385.89	214.05
386.27	214.24
386.64	214.69
387.02	214.14
387.40	214.19
387.78	214.36
388.15	214.36
388.53	214.07
388.91	214.07
389.29	214.19
389.66	214.62
390.04	214.33
390.42	214.67
390.79	215.00
391.17	214.90
391.55	212.79
391.92	212.86
392.30	213.10
392.68	212.55
393.05	212.43
393.43	212.36
393.81	212.55
394.18	212.33
394.56	212.40
394.94	213.00
395.31	212.93
395.69	213.26
396.06	213.71
396.44	214.05
396.82	213.98
397.19	214.98
397.57	214.79
397.95	215.45
398.32	214.98
398.70	215.17
399.07	215.62
399.45	215.45
399.82	215.45
400.20	215.36
400.58	215.45
400.95	214.76
401.33	215.29
401.70	216.98
402.08	216.93
402.45	216.76
402.83	217.38
403.20	217.71
403.58	217.50
403.95	218.00
404.33	218.60
404.71	219.07
405.08	220.21
405.46	220.64
405.83	220.90
406.21	221.29
406.58	221.90
406.96	222.36
407.33	223.07
407.70	223.74
408.08	225.93
408.45	226.71
408.83	227.86
409.20	228.21
409.58	227.71
409.95	229.07
410.33	230.31
410.70	230.57
411.08	231.69
411.45	233.12
411.82	233.86
412.20	235.67
412.57	238.00
412.95	237.81
413.32	239.74
413.69	241.29
414.07	243.14
414.44	245.14
414.82	247.17
415.19	249.69
415.56	252.29
415.94	253.79
416.31	256.90
416.68	259.57
417.06	263.26
417.43	267.10
417.81	270.69
418.18	274.67
418.55	278.81
418.93	283.14
419.30	287.40
419.67	292.07
420.04	296.67
420.42	301.31
420.79	308.62
421.16	314.33
421.54	321.50
421.91	328.00
422.28	334.24
422.66	341.05
423.03	349.17
423.40	356.33
423.77	363.88
424.15	371.48
424.52	379.45
424.89	388.33
425.26	396.43
425.64	404.67
426.01	413.05
426.38	422.43
426.75	432.17
427.13	442.10
427.50	452.14
427.87	462.74
428.24	472.95
428.61	482.10
428.99	494.33
429.36	504.95
429.73	516.81
430.10	528.88
430.47	541.50
430.85	552.62
431.22	565.76
431.59	581.45
431.96	595.05
432.33	610.48
432.70	625.14
433.08	642.29
433.45	657.88
433.82	674.29
434.19	692.00
434.56	709.64
434.93	726.38
435.30	743.50
435.68	762.10
436.05	780.81
436.42	798.90
436.79	815.81
437.16	834.79
437.53	854.07
437.90	872.69
438.27	891.81
438.64	911.07
439.01	929.07
439.38	943.24
439.75	958.45
440.13	976.17
440.50	992.71
440.87	1006.12
441.24	1020.43
441.61	1035.88
441.98	1047.62
442.35	1060.29
442.72	1074.57
443.09	1088.79
443.46	1096.62
443.83	1101.64
444.20	1106.45
444.57	1112.48
444.94	1115.93
445.31	1119.67
445.68	1125.62
446.05	1126.88
446.42	1126.02
446.79	1125.02
447.16	1123.24
447.53	1122.36
447.90	1114.88
448.27	1108.00
448.64	1098.19
449.01	1092.36
449.37	1080.64
449.74	1068.74
450.11	1057.19
450.48	1040.76
450.85	1023.55
451.22	1010.10
451.59	997.79
451.96	985.02
452.33	968.83
452.70	953.76
453.07	935.12
453.43	915.05
453.80	896.86
454.17	879.21
454.54	862.74
454.91	845.98
455.28	829.07
455.65	813.62
456.02	800.74
456.38	787.93
456.75	770.98
457.12	756.55
457.49	742.98
457.86	727.57
458.23	717.29
458.59	705.43
458.96	692.95
459.33	681.40
459.70	670.74
460.07	661.62
460.43	650.86
460.80	641.71
461.17	633.55
461.54	625.43
461.91	617.64
462.27	608.98
462.64	601.19
463.01	593.26
463.38	586.17
463.74	575.48
464.11	568.21
464.48	562.02
464.85	555.40
465.21	550.90
465.58	546.19
465.95	538.67
466.32	533.31
466.68	527.60
467.05	522.43
467.42	517.21
467.78	511.29
468.15	506.12
468.52	502.31
468.88	496.52
469.25	491.71
469.62	488.33
469.98	484.43
470.35	480.24
470.72	476.52
471.08	472.19
471.45	469.21
471.82	466.31
472.18	462.67
472.55	460.26
472.92	456.26
473.28	452.76
473.65	450.12
474.02	447.07
474.38	445.26
474.75	442.98
475.11	440.55
475.48	438.98
475.85	437.19
476.21	435.00
476.58	433.90
476.94	432.50
477.31	430.79
477.67	429.29
478.04	428.24
478.41	427.36
478.77	428.05
479.14	426.83
479.50	426.48
479.87	426.38
480.23	425.90
480.60	425.64
480.96	425.67
481.33	426.31
481.69	426.26
482.06	426.29
482.42	426.64
482.79	426.88
483.15	427.07
483.52	428.43
483.88	429.14
484.25	429.48
484.61	430.64
484.98	431.52
485.34	433.40
485.71	435.29
486.07	436.52
486.44	436.93
486.80	438.40
487.17	440.02
487.53	442.36
487.90	444.88
488.26	448.38
488.62	451.36
488.99	453.43
489.35	456.40
489.72	459.14
490.08	461.81
490.44	464.60
490.81	467.86
491.17	470.64
491.54	474.60
491.90	478.57
492.26	481.90
492.63	485.55
492.99	489.14
493.36	493.40
493.72	498.19
494.08	502.88
494.45	508.26
494.81	513.31
495.17	517.88
495.54	523.52
495.90	527.76
496.26	532.83
496.63	538.64
496.99	544.07
497.35	549.88
497.72	556.60
498.08	563.12
498.44	569.57
498.80	576.02
499.17	582.48
499.53	589.19
499.89	596.48
500.26	603.95
500.62	611.07
500.98	618.48
501.34	626.07
501.71	633.90
502.07	641.21
502.43	648.95
502.79	656.64
503.16	663.26
503.52	671.43
503.88	678.45
504.24	686.43
504.60	695.00
504.97	703.55
505.33	711.36
505.69	720.52
506.05	729.19
506.41	737.57
506.78	745.45
507.14	753.26
507.50	761.83
507.86	770.45
508.22	778.79
508.59	786.26
508.95	793.83
509.31	802.67
509.67	811.00
510.03	818.48
510.39	826.79
510.75	835.52
511.12	843.07
511.48	851.90
511.84	860.14
512.20	868.29
512.56	876.36
512.92	884.98
513.28	893.05
513.64	900.81
514.00	908.64
514.37	917.26
514.73	926.02
515.09	933.45
515.45	941.00
515.81	948.64
516.17	956.76
516.53	964.45
516.89	970.43
517.25	978.02
517.61	986.83
517.97	994.00
518.33	1001.07
518.69	1008.81
519.05	1016.14
519.41	1022.55
519.77	1030.60
520.13	1036.64
520.49	1042.60
520.85	1048.86
521.21	1056.36
521.57	1064.07
521.93	1070.12
522.29	1076.17
522.65	1082.48
523.01	1088.55
523.37	1094.57
523.73	1100.79
524.09	1106.71
524.45	1112.67
524.81	1117.67
525.17	1122.57
525.53	1127.81
525.89	1133.14
526.25	1139.07
526.61	1143.52
526.97	1149.98
527.33	1154.38
527.68	1161.74
528.04	1167.36
528.40	1172.14
528.76	1176.38
529.12	1180.83
529.48	1186.57
529.84	1191.33
530.20	1196.48
530.56	1201.60
530.91	1206.55
531.27	1211.67
531.63	1216.38
531.99	1221.05
532.35	1225.90
532.71	1230.67
533.07	1235.71
533.42	1243.40
533.78	1247.93
534.14	1253.26
534.50	1256.71
534.86	1262.07
535.21	1265.43
535.57	1270.79
535.93	1275.38
536.29	1280.98
536.65	1285.50
537.00	1288.79
537.36	1293.10
537.72	1297.33
538.08	1301.62
538.44	1305.60
538.79	1310.40
539.15	1314.69
539.51	1319.00
539.87	1323.31
540.22	1327.19
540.58	1331.45
540.94	1333.93
541.29	1337.45
541.65	1340.74
542.01	1345.45
542.37	1348.00
542.72	1351.21
543.08	1353.29
543.44	1357.31
543.79	1359.57
544.15	1363.64
544.51	1369.00
544.87	1373.31
545.22	1377.24
545.58	1381.10
545.94	1384.83
546.29	1387.81
546.65	1391.48
547.01	1394.88
547.36	1397.88
547.72	1401.38
548.07	1404.62
548.43	1407.24
548.79	1411.31
549.14	1414.90
549.50	1418.36
549.86	1421.71
550.21	1425.36
550.57	1430.07
550.92	1432.29
551.28	1436.55
551.64	1439.21
551.99	1442.02
552.35	1445.21
552.70	1448.31
553.06	1451.69
553.41	1454.81
553.77	1459.55
554.13	1463.62
554.48	1469.71
554.84	1474.90
555.19	1479.57
555.55	1485.43
555.90	1489.76
556.26	1492.98
556.61	1498.00
556.97	1502.05
557.32	1506.48
557.68	1510.29
558.03	1513.43
558.39	1518.74
558.74	1523.07
559.10	1528.29
559.45	1532.52
559.81	1537.43
560.16	1541.64
560.52	1546.00
560.87	1552.12
561.23	1555.57
561.58	1562.19
561.94	1565.79
562.29	1569.93
562.64	1574.81
563.00	1578.81
563.35	1583.12
563.71	1588.26
564.06	1593.33
564.42	1598.45
564.77	1604.48
565.12	1610.69
565.48	1618.81
565.83	1625.02
566.19	1630.50
566.54	1635.19
566.89	1640.64
567.25	1646.40
567.60	1653.14
567.96	1660.62
568.31	1666.57
568.66	1672.79
569.02	1675.52
569.37	1679.48
569.72	1684.81
570.08	1689.79
570.43	1694.29
570.78	1700.36
571.14	1705.29
571.49	1709.67
571.84	1714.81
572.20	1718.38
572.55	1722.86
572.90	1725.62
573.26	1728.60
573.61	1732.45
573.96	1736.26
574.31	1739.64
574.67	1742.90
575.02	1745.76
575.37	1747.88
575.72	1749.88
576.08	1752.69
576.43	1756.00
576.78	1758.98
577.13	1761.79
577.49	1763.88
577.84	1766.50
578.19	1768.21
578.54	1771.88
578.90	1774.86
579.25	1776.45
579.60	1777.81
579.95	1778.93
580.30	1780.36
580.66	1783.52
581.01	1785.83
581.36	1787.55
581.71	1789.62
582.06	1792.29
582.42	1794.57
582.77	1795.76
583.12	1797.48
583.47	1798.48
583.82	1800.29
584.17	1802.19
584.53	1803.95
584.88	1804.93
585.23	1806.38
585.58	1808.05
585.93	1807.93
586.28	1808.67
586.63	1810.26
586.98	1812.76
587.34	1815.31
587.69	1816.52
588.04	1816.26
588.39	1816.38
588.74	1815.60
589.09	1816.19
589.44	1815.43
589.79	1815.69
590.14	1815.26
590.49	1815.29
590.84	1814.90
591.19	1815.21
591.54	1815.57
591.89	1814.40
592.25	1817.14
592.60	1816.33
592.95	1815.57
593.30	1815.43
593.65	1815.07
594.00	1813.36
594.35	1818.43
594.70	1815.50
595.05	1814.88
595.40	1814.29
595.75	1813.48
596.10	1814.55
596.45	1814.00
596.80	1813.50
597.15	1812.05
597.50	1811.02
597.85	1810.64
598.19	1809.60
598.54	1807.52
598.89	1805.74
599.24	1805.38
599.59	1801.74
599.94	1799.98
600.29	1798.93
600.64	1797.55
600.99	1795.10
601.34	1794.81
601.69	1786.74
602.04	1784.88
602.39	1782.71
602.74	1781.12
603.08	1777.71
603.43	1776.02
603.78	1773.55
604.13	1771.40
604.48	1768.95
604.83	1767.14
605.18	1764.57
605.53	1763.31
605.87	1762.07
606.22	1759.52
606.57	1756.55
606.92	1753.38
607.27	1751.95
607.62	1749.55
607.96	1747.02
608.31	1744.67
608.66	1741.76
609.01	1739.21
609.36	1737.17
609.70	1733.83
610.05	1729.57
610.40	1727.71
610.75	1723.14
611.10	1720.29
611.44	1716.14
611.79	1711.83
612.14	1708.21
612.49	1703.62
612.83	1698.74
613.18	1693.24
613.53	1689.00
613.88	1684.90
614.22	1680.98
614.57	1675.62
614.92	1670.14
615.27	1665.33
615.61	1660.24
615.96	1654.81
616.31	1649.48
616.65	1645.10
617.00	1640.40
617.35	1636.17
617.70	1631.48
618.04	1626.62
618.39	1620.14
618.74	1614.64
619.08	1610.00
619.43	1604.76
619.78	1599.67
620.12	1595.19
620.47	1590.83
620.82	1585.12
621.16	1578.69
621.51	1574.17
621.85	1568.24
622.20	1562.57
622.55	1556.10
622.89	1550.83
623.24	1545.79
623.59	1541.02
623.93	1535.60
624.28	1530.43
624.62	1527.48
624.97	1524.00
625.32	1519.64
625.66	1515.29
626.01	1510.12
626.35	1505.00
626.70	1499.33
627.04	1495.10
627.39	1488.95
627.73	1484.36
628.08	1480.36
628.43	1476.74
628.77	1470.83
629.12	1466.26
629.46	1461.74
629.81	1457.07
630.15	1451.71
630.50	1445.71
630.84	1439.69
631.19	1434.07
631.53	1428.00
631.88	1418.81
632.22	1409.33
632.57	1404.45
632.91	1398.12
633.26	1392.60
633.60	1386.50
633.95	1380.79
634.29	1374.24
634.64	1368.98
634.98	1362.12
635.32	1355.93
635.67	1350.05
636.01	1344.86
636.36	1338.86
636.70	1334.12
637.05	1328.02
637.39	1322.69
637.73	1317.60
638.08	1312.76
638.42	1306.90
638.77	1301.50
639.11	1297.26
639.45	1292.45
639.80	1285.24
640.14	1279.48
640.49	1272.90
640.83	1266.38
641.17	1260.40
641.52	1254.57
641.86	1248.33
642.20	1243.00
642.55	1235.57
642.89	1228.33
643.23	1220.79
643.58	1215.24
643.92	1207.12
644.26	1201.19
644.61	1194.43
644.95	1187.10
645.29	1178.79
645.64	1172.93
645.98	1166.50
646.32	1159.31
646.66	1152.10
647.01	1144.57
647.35	1138.05
647.69	1132.02
648.04	1126.81
648.38	1120.98
648.72	1114.33
649.06	1107.24
649.41	1099.79
649.75	1093.36
650.09	1087.40
650.43	1080.74
650.78	1073.67
651.12	1066.45
651.46	1059.52
651.80	1052.19
652.14	1046.31
652.49	1041.33
652.83	1033.83
653.17	1027.24
653.51	1020.55
653.85	1014.38
654.20	1008.76
654.54	1002.12
654.88	995.36
655.22	989.19
655.56	981.71
655.90	974.71
656.25	968.71
656.59	962.45
656.93	957.12
657.27	951.57
657.61	945.50
657.95	939.52
658.29	933.79
658.64	927.79
658.98	921.69
659.32	914.88
659.66	908.14
660.00	902.60
660.34	896.10
660.68	890.26
661.02	885.07
661.36	878.43
661.70	872.43
662.05	866.81
662.39	860.79
662.73	855.81
663.07	851.45
663.41	845.60
663.75	839.86
664.09	833.67
664.43	826.52
664.77	820.55
665.11	814.57
665.45	808.95
665.79	803.76
666.13	798.60
666.47	793.98
666.81	789.21
667.15	783.36
667.49	778.52
667.83	773.67
668.17	768.90
668.51	764.10
668.85	758.98
669.19	754.64
669.53	748.50
669.87	742.95
670.21	736.95
670.55	731.50
670.89	727.17
671.23	722.40
671.57	718.10
671.91	713.81
672.25	709.31
672.58	706.02
672.92	701.24
673.26	696.90
673.60	691.79
673.94	686.98
674.28	682.60
674.62	678.33
674.96	673.64
675.30	668.33
675.64	663.88
675.97	659.79
676.31	654.64
676.65	650.38
676.99	646.36
677.33	641.71
677.67	637.69
678.01	633.24
678.34	629.00
678.68	625.24
679.02	620.33
679.36	615.95
679.70	610.83
680.04	606.45
680.37	601.88
680.71	597.79
681.05	593.71
681.39	589.33
681.73	584.74
682.06	580.38
682.40	576.10
682.74	572.62
683.08	569.38
683.42	564.81
683.75	560.86
684.09	556.64
684.43	552.76
684.77	548.93
685.10	545.14
685.44	541.50
685.78	537.02
686.12	533.81
686.45	529.76
686.79	525.74
687.13	522.50
687.46	519.00
687.80	515.83
688.14	512.14
688.48	509.21
688.81	505.38
689.15	503.00
689.49	499.79
689.82	496.33
690.16	491.86
690.50	488.62
690.83	485.43
691.17	481.69
691.51	478.17
691.84	475.26
692.18	471.52
692.52	468.33
692.85	465.71
693.19	463.19
693.52	459.98
693.86	456.86
694.20	453.29
694.53	450.45
694.87	447.02
695.21	443.74
695.54	440.52
695.88	437.64
696.21	433.33
696.55	430.07
696.88	426.95
697.22	424.19
697.56	421.95
697.89	419.07
698.23	416.79
698.56	414.12
698.90	411.43
699.23	408.62
699.57	406.12
699.90	403.12
700.24	399.88
700.58	397.83
700.91	395.64
701.25	395.07
701.58	393.48
701.92	391.57
702.25	389.21
702.59	386.62
702.92	384.71
703.26	383.02
703.59	381.12
703.93	380.76
704.26	378.74
704.60	376.40
704.93	374.07
705.26	372.02
705.60	370.95
705.93	368.48
706.27	367.24
706.60	365.52
706.94	364.81
707.27	362.88
707.61	361.29
707.94	359.40
708.27	355.95
708.61	353.17
708.94	351.36
709.28	349.95
709.61	348.29
709.94	346.90
710.28	344.79
710.61	343.24
710.95	339.71
711.28	339.38
711.61	338.00
711.95	337.17
712.28	335.45
712.61	333.60
712.95	333.38
713.28	332.74
713.61	330.98
713.95	328.81
714.28	327.43
714.61	325.62
714.95	324.05
715.28	322.40
715.61	321.21
715.95	319.81
716.28	318.07
716.61	317.10
716.95	315.24
717.28	314.05
717.61	312.67
717.94	311.52
718.28	309.07
718.61	307.83
718.94	306.10
719.27	304.79
719.61	303.52
719.94	301.64
720.27	299.33
720.60	297.88
720.94	296.50
721.27	295.69
721.60	294.76
721.93	293.90
722.27	294.14
722.60	293.29
722.93	292.12
723.26	291.31
723.59	290.10
723.93	289.33
724.26	288.69
724.59	287.76
724.92	286.71
725.25	286.26
725.59	285.38
725.92	284.76
726.25	283.90
726.58	282.86
726.91	282.05
727.24	281.55
727.57	280.90
727.91	279.81
728.24	279.26
728.57	278.21
728.90	277.60
729.23	275.74
729.56	275.88
729.89	274.79
730.22	274.00
730.55	273.12
730.89	272.36
731.22	271.67
731.55	270.95
731.88	270.67
732.21	269.48
732.54	268.45
732.87	268.02
733.20	267.60
733.53	267.31
733.86	266.71
734.19	265.79
734.52	265.38
734.85	266.52
735.18	265.40
735.51	265.69
735.84	265.10
736.17	265.17
736.50	263.36
736.83	265.40
737.16	264.81
737.49	264.43
737.82	263.76
738.15	263.21
738.48	262.69
738.81	261.98
739.14	261.29
739.47	260.69
739.80	259.74
740.13	259.33
740.46	258.29
740.79	257.69
741.12	257.33
741.45	256.86
741.78	254.90
742.11	255.19
742.44	254.17
742.77	254.14
743.10	253.14
743.43	252.50
743.75	249.81
744.08	251.93
744.41	251.33
744.74	250.88
745.07	250.21
745.40	250.05
745.73	250.76
746.06	250.52
746.39	250.81
746.71	250.45
747.04	249.95
747.37	249.76
747.70	249.55
748.03	249.12
748.36	249.02
748.68	248.81
749.01	247.95
749.34	247.52
749.67	246.88
750.00	247.19
750.33	248.62
750.65	248.40
750.98	245.62
751.31	245.43
751.64	245.33
751.97	246.24
752.29	245.83
752.62	244.21
752.95	243.93
753.28	243.00
753.60	242.52
753.93	242.62
754.26	242.33
754.59	241.33
754.91	240.71
755.24	240.07
755.57	239.88
755.90	239.43
756.22	239.02
756.55	238.48
756.88	237.60
757.20	236.12
757.53	235.36
757.86	234.98
758.19	235.00
758.51	234.69
758.84	233.36
759.17	233.12
759.49	232.98
759.82	233.60
760.15	233.60
760.47	233.36
760.80	232.43
761.13	232.48
761.45	232.43
761.78	232.36
762.11	232.14
762.43	231.62
762.76	231.26
763.08	231.29
763.41	231.21
763.74	230.93
764.06	230.67
764.39	230.64
764.71	230.43
765.04	229.81
765.37	229.31
765.69	229.29
766.02	228.95
766.34	228.90
766.67	227.93
767.00	228.21
767.32	229.05
767.65	230.12
767.97	229.81
768.30	229.88
768.62	230.02
768.95	229.48
769.27	229.24
769.60	229.48
769.92	229.19
770.25	228.95
770.57	228.64
770.90	228.36
771.22	228.07
771.55	227.98
771.87	227.93
772.20	227.71
772.52	229.14
772.85	231.62
773.17	231.31
773.50	231.19
773.82	230.71
774.15	229.83
774.47	228.50
774.80	227.98
775.12	227.60
775.45	227.07
775.77	227.31
776.09	227.48
776.42	227.36
776.74	227.76
777.07	227.40
777.39	227.45
777.72	227.14
778.04	227.26
778.36	227.02
778.69	226.86
779.01	227.02
779.33	225.19
779.66	222.67
779.98	222.62
780.31	222.24
780.63	222.83
780.95	223.19
781.28	223.10
781.60	223.07
781.92	222.95
782.25	222.81
782.57	222.62
782.89	222.14
783.22	221.83
783.54	221.26
783.86	221.40
784.19	221.07
784.51	221.50
784.83	221.19
785.16	221.02
