SpectraSuite Data File
++++++++++++++++++++++++++++++++++++
Date: Tue Apr 02 18:40:10 EDT 2013
User: group
Dark Spectrum Present: No
Reference Spectrum Present: No
Number of Sampled Component Spectra: 1
Spectrometers: USB2E7196
Integration Time (usec): 580000 (USB2E7196)
Spectra Averaged: 2 (USB2E7196)
Boxcar Smoothing: 10 (USB2E7196)
Correct for Electrical Dark: No (USB2E7196)
Strobe/Lamp Enabled: No (USB2E7196)
Correct for Detector Non-linearity: No (USB2E7196)
Correct for Stray Light: No (USB2E7196)
Number of Pixels in Processed Spectrum: 2048
>>>>>Begin Processed Spectral Data<<<<<
339.09	0.00
339.48	194.00
339.86	195.50
340.24	196.00
340.63	204.00
341.01	236.50
341.39	200.00
341.78	206.50
342.16	214.00
342.54	208.00
342.93	200.14
343.31	210.12
343.69	210.69
344.07	211.21
344.46	211.93
344.84	212.29
345.22	210.93
345.60	211.48
345.99	211.64
346.37	211.64
346.75	211.62
347.13	211.48
347.52	211.45
347.90	211.90
348.28	211.90
348.66	212.14
349.05	211.45
349.43	211.98
349.81	211.93
350.19	212.02
350.57	211.90
350.96	212.33
351.34	212.24
351.72	212.48
352.10	212.55
352.48	212.33
352.87	212.00
353.25	212.12
353.63	211.90
354.01	211.81
354.39	211.71
354.77	211.69
355.15	212.24
355.54	212.02
355.92	211.38
356.30	211.31
356.68	212.36
357.06	212.38
357.44	211.62
357.82	211.31
358.20	212.17
358.58	212.02
358.97	211.74
359.35	212.21
359.73	212.40
360.11	212.43
360.49	212.57
360.87	212.86
361.25	213.02
361.63	213.88
362.01	214.19
362.39	214.05
362.77	214.43
363.15	214.38
363.53	214.38
363.91	214.48
364.29	214.55
364.67	212.79
365.05	212.81
365.43	213.21
365.81	213.45
366.19	213.33
366.57	214.31
366.95	214.36
367.33	213.95
367.71	213.95
368.09	214.19
368.47	214.14
368.85	214.12
369.23	214.50
369.61	213.74
369.99	214.19
370.37	214.24
370.75	214.88
371.13	214.55
371.51	214.05
371.89	214.17
372.27	214.33
372.65	214.48
373.03	214.69
373.41	214.36
373.78	214.48
374.16	213.55
374.54	212.88
374.92	212.74
375.30	212.67
375.68	212.19
376.06	212.45
376.44	212.33
376.82	212.29
377.19	211.90
377.57	211.52
377.95	210.86
378.33	210.88
378.71	210.02
379.09	210.24
379.47	210.64
379.84	210.64
380.22	210.36
380.60	210.07
380.98	210.00
381.36	210.00
381.73	209.76
382.11	210.19
382.49	210.21
382.87	210.00
383.25	209.98
383.62	212.64
384.00	212.10
384.38	212.21
384.76	212.64
385.13	214.00
385.51	214.33
385.89	214.05
386.27	214.21
386.64	214.40
387.02	214.38
387.40	214.50
387.78	214.64
388.15	214.93
388.53	214.98
388.91	214.98
389.29	214.95
389.66	215.36
390.04	215.10
390.42	215.45
390.79	215.52
391.17	215.98
391.55	213.60
391.92	213.76
392.30	214.12
392.68	213.74
393.05	213.17
393.43	213.31
393.81	213.69
394.18	213.31
394.56	213.48
394.94	213.90
395.31	213.71
395.69	214.24
396.06	214.50
396.44	214.67
396.82	214.38
397.19	215.50
397.57	215.07
397.95	215.48
398.32	215.05
398.70	215.26
399.07	215.33
399.45	215.40
399.82	215.36
400.20	215.29
400.58	215.29
400.95	214.67
401.33	215.05
401.70	216.43
402.08	216.67
402.45	216.62
402.83	217.26
403.20	217.36
403.58	217.17
403.95	217.67
404.33	218.02
404.71	218.62
405.08	219.83
405.46	220.14
405.83	220.45
406.21	220.50
406.58	220.98
406.96	221.14
407.33	221.60
407.70	222.36
408.08	224.55
408.45	225.76
408.83	226.74
409.20	227.21
409.58	227.07
409.95	228.50
410.33	229.62
410.70	229.93
411.08	231.26
411.45	232.62
411.82	233.26
412.20	235.02
412.57	237.40
412.95	237.00
413.32	239.07
413.69	240.76
414.07	242.88
414.44	245.19
414.82	247.62
415.19	250.14
415.56	252.62
415.94	253.86
416.31	256.62
416.68	259.62
417.06	263.33
417.43	267.02
417.81	270.50
418.18	274.50
418.55	278.21
418.93	282.60
419.30	286.88
419.67	291.79
420.04	296.29
420.42	300.83
420.79	308.74
421.16	314.98
421.54	322.24
421.91	329.00
422.28	335.67
422.66	342.64
423.03	351.29
423.40	358.74
423.77	366.43
424.15	374.17
424.52	382.21
424.89	391.10
425.26	399.36
425.64	407.52
426.01	416.19
426.38	425.93
426.75	436.24
427.13	446.12
427.50	456.45
427.87	467.57
428.24	478.45
428.61	487.69
428.99	499.69
429.36	511.10
429.73	523.21
430.10	535.14
430.47	547.55
430.85	558.90
431.22	572.36
431.59	588.38
431.96	602.24
432.33	617.43
432.70	631.81
433.08	649.40
433.45	666.07
433.82	682.21
434.19	700.40
434.56	718.50
434.93	734.98
435.30	751.79
435.68	770.57
436.05	789.69
436.42	807.33
436.79	824.05
437.16	842.07
437.53	861.55
437.90	881.40
438.27	900.74
438.64	920.71
439.01	938.88
439.38	954.12
439.75	969.88
440.13	988.10
440.50	1004.95
440.87	1018.10
441.24	1031.88
441.61	1048.40
441.98	1060.26
442.35	1072.64
442.72	1087.14
443.09	1101.93
443.46	1110.19
443.83	1115.36
444.20	1120.81
444.57	1126.76
444.94	1130.79
445.31	1134.40
445.68	1139.43
446.05	1140.33
446.42	1138.62
446.79	1137.24
447.16	1134.57
447.53	1133.67
447.90	1127.10
448.27	1120.52
448.64	1110.95
449.01	1104.67
449.37	1092.07
449.74	1079.40
450.11	1067.31
450.48	1051.69
450.85	1033.98
451.22	1020.83
451.59	1007.83
451.96	995.67
452.33	979.76
452.70	964.76
453.07	946.29
453.43	925.55
453.80	908.48
454.17	891.29
454.54	874.71
454.91	857.50
455.28	839.81
455.65	823.67
456.02	811.19
456.38	798.26
456.75	781.29
457.12	766.95
457.49	754.00
457.86	738.95
458.23	727.62
458.59	715.83
458.96	702.14
459.33	690.90
459.70	679.14
460.07	669.69
460.43	658.95
460.80	649.79
461.17	641.74
461.54	633.02
461.91	624.57
462.27	616.00
462.64	608.17
463.01	600.26
463.38	593.07
463.74	581.81
464.11	574.26
464.48	568.33
464.85	561.83
465.21	556.90
465.58	551.43
465.95	544.57
466.32	539.29
466.68	534.02
467.05	527.81
467.42	522.64
467.78	517.21
468.15	511.98
468.52	507.88
468.88	501.98
469.25	496.62
469.62	492.88
469.98	488.52
470.35	485.02
470.72	480.95
471.08	475.57
471.45	472.57
471.82	469.45
472.18	465.69
472.55	462.98
472.92	458.74
473.28	455.52
473.65	452.62
474.02	449.50
474.38	447.21
474.75	445.55
475.11	443.14
475.48	441.43
475.85	439.71
476.21	437.38
476.58	436.43
476.94	435.26
477.31	433.57
477.67	432.48
478.04	430.86
478.41	430.55
478.77	432.24
479.14	431.14
479.50	430.57
479.87	430.45
480.23	429.98
480.60	429.71
480.96	429.52
481.33	430.48
481.69	430.36
482.06	430.33
482.42	430.83
482.79	430.90
483.15	431.24
483.52	431.90
483.88	432.50
484.25	433.05
484.61	433.95
484.98	434.81
485.34	436.26
485.71	438.21
486.07	439.69
486.44	439.40
486.80	440.95
487.17	442.90
487.53	444.81
487.90	447.21
488.26	450.36
488.62	453.14
488.99	454.64
489.35	457.50
489.72	460.33
490.08	463.12
490.44	466.19
490.81	469.36
491.17	472.50
491.54	476.17
491.90	480.00
492.26	483.64
492.63	488.02
492.99	491.95
493.36	496.36
493.72	501.14
494.08	505.81
494.45	511.31
494.81	516.90
495.17	522.07
495.54	527.57
495.90	532.95
496.26	538.36
496.63	544.52
496.99	550.36
497.35	556.69
497.72	563.14
498.08	569.40
498.44	575.93
498.80	582.81
499.17	589.67
499.53	596.55
499.89	603.95
500.26	610.98
500.62	618.07
500.98	625.29
501.34	632.52
501.71	640.64
502.07	647.71
502.43	654.69
502.79	662.40
503.16	670.48
503.52	678.24
503.88	685.79
504.24	694.17
504.60	703.12
504.97	711.17
505.33	719.33
505.69	729.21
506.05	738.14
506.41	746.50
506.78	755.05
507.14	763.38
507.50	772.79
507.86	781.31
508.22	790.48
508.59	798.74
508.95	808.00
509.31	817.31
509.67	826.00
510.03	834.98
510.39	843.64
510.75	852.29
511.12	860.83
511.48	869.95
511.84	877.86
512.20	886.07
512.56	894.88
512.92	903.81
513.28	911.86
513.64	919.83
514.00	928.67
514.37	937.26
514.73	946.12
515.09	954.07
515.45	962.00
515.81	969.52
516.17	977.45
516.53	983.79
516.89	990.71
517.25	998.62
517.61	1006.74
517.97	1014.19
518.33	1020.74
518.69	1028.07
519.05	1035.90
519.41	1043.79
519.77	1051.76
520.13	1058.52
520.49	1064.93
520.85	1071.02
521.21	1078.64
521.57	1085.57
521.93	1091.29
522.29	1096.60
522.65	1102.45
523.01	1108.83
523.37	1115.24
523.73	1122.50
524.09	1129.67
524.45	1135.45
524.81	1140.98
525.17	1146.14
525.53	1151.43
525.89	1158.55
526.25	1164.79
526.61	1169.31
526.97	1174.36
527.33	1180.43
527.68	1187.88
528.04	1193.19
528.40	1198.40
528.76	1202.86
529.12	1207.38
529.48	1213.64
529.84	1219.83
530.20	1226.21
530.56	1232.07
530.91	1237.17
531.27	1241.93
531.63	1247.38
531.99	1251.98
532.35	1257.12
532.71	1262.12
533.07	1267.95
533.42	1274.12
533.78	1279.07
534.14	1285.07
534.50	1290.67
534.86	1294.81
535.21	1298.10
535.57	1303.43
535.93	1308.64
536.29	1314.83
536.65	1319.38
537.00	1323.33
537.36	1327.74
537.72	1330.71
538.08	1335.02
538.44	1339.81
538.79	1344.07
539.15	1347.64
539.51	1352.36
539.87	1357.10
540.22	1362.19
540.58	1366.60
540.94	1369.02
541.29	1373.02
541.65	1376.33
542.01	1380.07
542.37	1383.90
542.72	1387.02
543.08	1389.40
543.44	1393.24
543.79	1394.33
544.15	1399.19
544.51	1403.69
544.87	1408.93
545.22	1413.55
545.58	1417.95
545.94	1421.71
546.29	1425.24
546.65	1429.07
547.01	1432.81
547.36	1436.38
547.72	1439.69
548.07	1444.00
548.43	1447.98
548.79	1451.10
549.14	1454.74
549.50	1459.55
549.86	1462.64
550.21	1466.29
550.57	1471.43
550.92	1474.07
551.28	1479.14
551.64	1482.67
551.99	1486.57
552.35	1488.45
552.70	1492.79
553.06	1496.43
553.41	1499.57
553.77	1505.29
554.13	1510.33
554.48	1516.21
554.84	1521.67
555.19	1526.26
555.55	1531.45
555.90	1536.00
556.26	1541.05
556.61	1544.55
556.97	1546.98
557.32	1551.60
557.68	1556.81
558.03	1561.07
558.39	1566.19
558.74	1570.71
559.10	1574.86
559.45	1579.52
559.81	1584.95
560.16	1589.02
560.52	1593.10
560.87	1598.86
561.23	1602.62
561.58	1608.02
561.94	1611.29
562.29	1614.05
562.64	1618.52
563.00	1622.19
563.35	1625.71
563.71	1630.71
564.06	1637.45
564.42	1642.76
564.77	1648.24
565.12	1654.17
565.48	1660.88
565.83	1667.29
566.19	1673.50
566.54	1679.40
566.89	1683.33
567.25	1689.76
567.60	1696.17
567.96	1703.57
568.31	1709.31
568.66	1714.67
569.02	1717.93
569.37	1722.76
569.72	1728.52
570.08	1733.02
570.43	1736.71
570.78	1742.17
571.14	1746.19
571.49	1749.05
571.84	1753.50
572.20	1757.19
572.55	1760.29
572.90	1762.67
573.26	1765.17
573.61	1767.67
573.96	1770.00
574.31	1774.14
574.67	1775.88
575.02	1776.88
575.37	1777.74
575.72	1779.17
576.08	1782.29
576.43	1784.93
576.78	1786.71
577.13	1788.31
577.49	1790.60
577.84	1794.07
578.19	1795.79
578.54	1797.95
578.90	1801.50
579.25	1803.79
579.60	1804.86
579.95	1805.50
580.30	1807.14
580.66	1809.69
581.01	1811.02
581.36	1812.69
581.71	1813.62
582.06	1815.67
582.42	1817.26
582.77	1818.26
583.12	1819.10
583.47	1818.31
583.82	1819.29
584.17	1820.79
584.53	1822.10
584.88	1823.29
585.23	1824.14
585.58	1824.17
585.93	1824.24
586.28	1823.57
586.63	1823.74
586.98	1824.64
587.34	1826.31
587.69	1825.83
588.04	1825.50
588.39	1826.36
588.74	1824.50
589.09	1824.48
589.44	1822.19
589.79	1822.62
590.14	1822.48
590.49	1821.86
590.84	1821.17
591.19	1821.10
591.54	1820.02
591.89	1819.95
592.25	1820.26
592.60	1817.90
592.95	1817.86
593.30	1816.98
593.65	1815.50
594.00	1813.48
594.35	1816.62
594.70	1814.69
595.05	1813.40
595.40	1811.02
595.75	1808.17
596.10	1808.60
596.45	1807.00
596.80	1806.57
597.15	1804.81
597.50	1803.29
597.85	1802.36
598.19	1800.38
598.54	1797.26
598.89	1795.69
599.24	1792.79
599.59	1789.19
599.94	1786.43
600.29	1784.19
600.64	1782.02
600.99	1781.14
601.34	1780.31
601.69	1772.62
602.04	1769.38
602.39	1767.38
602.74	1765.43
603.08	1764.00
603.43	1762.90
603.78	1760.48
604.13	1758.31
604.48	1755.21
604.83	1753.14
605.18	1750.43
605.53	1747.93
605.87	1744.83
606.22	1742.07
606.57	1739.62
606.92	1736.29
607.27	1734.48
607.62	1731.40
607.96	1728.74
608.31	1725.52
608.66	1721.79
609.01	1719.07
609.36	1716.38
609.70	1712.43
610.05	1709.24
610.40	1705.05
610.75	1699.14
611.10	1695.55
611.44	1690.17
611.79	1686.05
612.14	1680.24
612.49	1675.50
612.83	1670.60
613.18	1666.43
613.53	1660.95
613.88	1655.19
614.22	1649.71
614.57	1644.19
614.92	1638.79
615.27	1633.48
615.61	1626.69
615.96	1620.24
616.31	1614.12
616.65	1610.14
617.00	1604.93
617.35	1598.50
617.70	1593.05
618.04	1588.12
618.39	1581.21
618.74	1575.93
619.08	1569.07
619.43	1563.43
619.78	1558.17
620.12	1553.74
620.47	1548.19
620.82	1542.76
621.16	1536.71
621.51	1532.74
621.85	1527.29
622.20	1521.26
622.55	1514.38
622.89	1509.36
623.24	1505.02
623.59	1500.12
623.93	1493.26
624.28	1488.00
624.62	1485.55
624.97	1482.00
625.32	1476.88
625.66	1472.45
626.01	1467.31
626.35	1463.19
626.70	1457.71
627.04	1452.43
627.39	1446.71
627.73	1442.62
628.08	1437.71
628.43	1433.33
628.77	1427.90
629.12	1422.48
629.46	1417.45
629.81	1413.12
630.15	1407.17
630.50	1401.05
630.84	1395.05
631.19	1389.07
631.53	1383.48
631.88	1374.17
632.22	1365.95
632.57	1359.62
632.91	1353.36
633.26	1347.40
633.60	1341.52
633.95	1335.21
634.29	1328.19
634.64	1321.88
634.98	1314.52
635.32	1309.57
635.67	1303.38
636.01	1296.29
636.36	1289.62
636.70	1284.33
637.05	1278.45
637.39	1273.26
637.73	1267.52
638.08	1263.07
638.42	1257.33
638.77	1251.60
639.11	1246.71
639.45	1241.29
639.80	1235.24
640.14	1229.33
640.49	1222.90
640.83	1215.62
641.17	1210.24
641.52	1204.33
641.86	1198.45
642.20	1193.05
642.55	1184.86
642.89	1178.86
643.23	1173.00
643.58	1168.24
643.92	1160.38
644.26	1153.95
644.61	1147.36
644.95	1140.21
645.29	1132.43
645.64	1126.14
645.98	1119.05
646.32	1112.67
646.66	1105.31
647.01	1098.38
647.35	1092.38
647.69	1086.21
648.04	1079.98
648.38	1073.64
648.72	1067.52
649.06	1061.07
649.41	1054.00
649.75	1047.02
650.09	1040.64
650.43	1034.12
650.78	1026.14
651.12	1019.81
651.46	1013.00
651.80	1006.29
652.14	1000.55
652.49	994.83
652.83	988.12
653.17	981.24
653.51	974.67
653.85	968.83
654.20	962.90
654.54	955.55
654.88	948.50
655.22	943.24
655.56	936.55
655.90	929.52
656.25	922.60
656.59	916.74
656.93	911.55
657.27	906.52
657.61	899.83
657.95	894.40
658.29	888.90
658.64	883.36
658.98	877.40
659.32	870.69
659.66	864.74
660.00	859.21
660.34	853.45
660.68	847.40
661.02	841.62
661.36	835.50
661.70	829.86
662.05	824.57
662.39	818.57
662.73	814.24
663.07	810.00
663.41	805.33
663.75	799.29
664.09	793.52
664.43	786.24
664.77	780.69
665.11	774.55
665.45	768.93
665.79	763.07
666.13	757.38
666.47	752.79
666.81	746.71
667.15	740.88
667.49	736.29
667.83	731.67
668.17	726.33
668.51	721.29
668.85	716.45
669.19	712.48
669.53	706.86
669.87	700.88
670.21	694.69
670.55	689.29
670.89	685.17
671.23	681.07
671.57	676.55
671.91	672.12
672.25	668.00
672.58	664.24
672.92	659.14
673.26	654.76
673.60	650.24
673.94	645.95
674.28	642.12
674.62	637.93
674.96	633.36
675.30	629.10
675.64	624.79
675.97	620.88
676.31	615.95
676.65	611.69
676.99	608.17
677.33	604.40
677.67	600.79
678.01	595.98
678.34	591.60
678.68	588.36
679.02	584.31
679.36	580.02
679.70	575.24
680.04	571.38
680.37	567.29
680.71	563.07
681.05	559.90
681.39	555.83
681.73	551.62
682.06	547.48
682.40	544.05
682.74	540.79
683.08	537.17
683.42	533.36
683.75	530.14
684.09	525.55
684.43	521.93
684.77	517.69
685.10	514.05
685.44	510.43
685.78	506.19
686.12	502.50
686.45	499.21
686.79	496.02
687.13	492.98
687.46	489.67
687.80	486.67
688.14	483.05
688.48	480.05
688.81	476.95
689.15	474.55
689.49	471.10
689.82	467.71
690.16	463.69
690.50	460.43
690.83	457.36
691.17	454.26
691.51	451.38
691.84	448.57
692.18	445.98
692.52	442.71
692.85	440.57
693.19	438.50
693.52	435.24
693.86	432.05
694.20	429.31
694.53	426.83
694.87	423.95
695.21	420.52
695.54	417.76
695.88	414.62
696.21	411.02
696.55	408.50
696.88	405.81
697.22	403.93
697.56	401.69
697.89	399.10
698.23	396.93
698.56	394.52
698.90	392.60
699.23	389.90
699.57	387.76
699.90	385.02
700.24	382.10
700.58	380.33
700.91	378.36
701.25	378.02
701.58	376.88
701.92	375.14
702.25	373.71
702.59	371.62
702.92	369.71
703.26	368.29
703.59	366.45
703.93	366.36
704.26	364.76
704.60	362.95
704.93	361.07
705.26	359.05
705.60	357.57
705.93	355.26
706.27	354.26
706.60	353.17
706.94	352.14
707.27	350.74
707.61	348.71
707.94	347.10
708.27	343.55
708.61	340.67
708.94	339.12
709.28	337.55
709.61	335.83
709.94	334.67
710.28	332.60
710.61	330.79
710.95	327.24
711.28	326.86
711.61	325.38
711.95	324.52
712.28	323.26
712.61	321.62
712.95	321.21
713.28	320.67
713.61	319.07
713.95	317.38
714.28	315.93
714.61	315.12
714.95	313.95
715.28	312.38
715.61	311.45
715.95	309.83
716.28	308.31
716.61	307.12
716.95	305.52
717.28	304.57
717.61	303.71
717.94	302.83
718.28	300.38
718.61	299.14
718.94	297.43
719.27	296.19
719.61	294.98
719.94	293.57
720.27	291.55
720.60	290.10
720.94	288.71
721.27	287.81
721.60	286.83
721.93	285.57
722.27	285.81
722.60	285.00
722.93	283.98
723.26	283.24
723.59	282.26
723.93	281.86
724.26	281.24
724.59	280.17
724.92	279.55
725.25	279.26
725.59	278.60
725.92	278.26
726.25	277.62
726.58	277.02
726.91	276.00
727.24	275.55
727.57	275.02
727.91	274.14
728.24	273.52
728.57	272.64
728.90	272.50
729.23	271.00
729.56	271.33
729.89	270.67
730.22	270.14
730.55	269.57
730.89	268.64
731.22	268.05
731.55	267.38
731.88	266.67
732.21	265.64
732.54	264.90
732.87	264.14
733.20	263.74
733.53	263.40
733.86	263.21
734.19	261.93
734.52	261.60
734.85	262.45
735.18	261.60
735.51	261.76
735.84	261.17
736.17	261.07
736.50	259.52
736.83	261.36
737.16	260.76
737.49	260.33
737.82	259.83
738.15	259.36
738.48	258.88
738.81	258.55
739.14	257.48
739.47	256.88
739.80	256.40
740.13	256.00
740.46	255.21
740.79	254.21
741.12	254.10
741.45	253.29
741.78	251.71
742.11	251.90
742.44	251.05
742.77	250.79
743.10	249.83
743.43	249.21
743.75	246.69
744.08	248.79
744.41	248.36
744.74	248.26
745.07	247.74
745.40	247.71
745.73	248.05
746.06	247.90
746.39	248.07
746.71	247.55
747.04	246.74
747.37	246.50
747.70	246.50
748.03	246.40
748.36	246.40
748.68	246.45
749.01	245.36
749.34	244.69
749.67	244.48
750.00	244.60
750.33	245.64
750.65	245.60
750.98	242.79
751.31	242.67
751.64	242.05
751.97	242.76
752.29	242.31
752.62	240.98
752.95	241.07
753.28	240.36
753.60	239.93
753.93	240.50
754.26	240.05
754.59	239.36
754.91	238.64
755.24	238.17
755.57	237.43
755.90	237.19
756.22	237.12
756.55	236.26
756.88	235.71
757.20	234.19
757.53	233.36
757.86	233.05
758.19	232.95
758.51	232.83
758.84	231.57
759.17	231.00
759.49	230.74
759.82	231.17
760.15	231.02
760.47	231.00
760.80	230.24
761.13	230.36
761.45	229.83
761.78	229.62
762.11	229.55
762.43	229.36
762.76	229.45
763.08	229.29
763.41	229.48
763.74	229.29
764.06	229.19
764.39	229.17
764.71	229.21
765.04	228.48
765.37	227.95
765.69	227.74
766.02	227.69
766.34	227.57
766.67	226.52
767.00	226.71
767.32	227.26
767.65	228.31
767.97	228.00
768.30	228.29
768.62	228.17
768.95	227.81
769.27	227.50
769.60	227.55
769.92	227.21
770.25	226.71
770.57	226.26
770.90	226.24
771.22	225.95
771.55	225.67
771.87	225.71
772.20	225.57
772.52	227.29
772.85	229.67
773.17	229.50
773.50	229.60
773.82	229.36
774.15	228.69
774.47	226.98
774.80	226.74
775.12	226.62
775.45	226.64
775.77	226.48
776.09	226.36
776.42	226.10
776.74	226.67
777.07	226.48
777.39	226.52
777.72	226.24
778.04	226.43
778.36	226.38
778.69	226.43
779.01	226.48
779.33	224.45
779.66	221.90
779.98	221.79
780.31	221.55
780.63	222.29
780.95	222.21
781.28	222.29
781.60	222.02
781.92	221.76
782.25	221.55
782.57	221.64
782.89	221.57
783.22	221.38
783.54	220.67
783.86	220.79
784.19	220.50
784.51	220.93
784.83	220.57
785.16	220.21
785.48	220.12
