SpectraSuite Data File
++++++++++++++++++++++++++++++++++++
Date: Tue Apr 02 18:37:56 EDT 2013
User: group
Dark Spectrum Present: No
Reference Spectrum Present: No
Number of Sampled Component Spectra: 1
Spectrometers: USB2E7196
Integration Time (usec): 580000 (USB2E7196)
Spectra Averaged: 2 (USB2E7196)
Boxcar Smoothing: 10 (USB2E7196)
Correct for Electrical Dark: No (USB2E7196)
Strobe/Lamp Enabled: No (USB2E7196)
Correct for Detector Non-linearity: No (USB2E7196)
Correct for Stray Light: No (USB2E7196)
Number of Pixels in Processed Spectrum: 2048
>>>>>Begin Processed Spectral Data<<<<<
339.09	0.00
339.48	193.00
339.86	193.50
340.24	194.50
340.63	197.00
341.01	233.00
341.39	201.00
341.78	205.00
342.16	211.00
342.54	206.50
342.93	197.38
343.31	207.26
343.69	207.74
344.07	208.21
344.46	208.90
344.84	209.48
345.22	208.40
345.60	208.69
345.99	208.74
346.37	208.50
346.75	208.62
347.13	208.71
347.52	208.74
347.90	209.57
348.28	209.57
348.66	209.83
349.05	209.19
349.43	209.62
349.81	209.62
350.19	209.69
350.57	209.62
350.96	209.62
351.34	209.83
351.72	210.12
352.10	210.17
352.48	209.98
352.87	209.83
353.25	209.60
353.63	209.52
354.01	209.69
354.39	209.90
354.77	209.93
355.15	210.55
355.54	210.31
355.92	209.86
356.30	209.90
356.68	211.00
357.06	211.12
357.44	210.79
357.82	210.64
358.20	211.43
358.58	211.52
358.97	211.60
359.35	212.10
359.73	212.36
360.11	212.48
360.49	212.64
360.87	212.88
361.25	213.43
361.63	214.26
362.01	214.43
362.39	214.67
362.77	214.76
363.15	214.79
363.53	214.88
363.91	214.98
364.29	215.17
364.67	213.38
365.05	213.67
365.43	213.88
365.81	214.10
366.19	214.52
366.57	215.40
366.95	215.45
367.33	214.67
367.71	214.93
368.09	215.29
368.47	215.55
368.85	215.55
369.23	215.98
369.61	215.57
369.99	216.26
370.37	216.24
370.75	217.40
371.13	217.00
371.51	216.81
371.89	217.10
372.27	217.19
372.65	217.64
373.03	217.60
373.41	217.55
373.78	217.74
374.16	216.38
374.54	215.76
374.92	215.76
375.30	216.12
375.68	215.52
376.06	215.79
376.44	215.57
376.82	215.81
377.19	215.67
377.57	215.48
377.95	214.64
378.33	214.69
378.71	213.33
379.09	213.90
379.47	214.31
379.84	214.00
380.22	213.95
380.60	213.67
380.98	213.52
381.36	213.60
381.73	213.21
382.11	213.76
382.49	213.90
382.87	213.76
383.25	213.86
383.62	216.43
384.00	215.98
384.38	216.10
384.76	216.24
385.13	217.02
385.51	216.93
385.89	216.95
386.27	216.81
386.64	217.17
387.02	216.88
387.40	216.64
387.78	216.69
388.15	216.69
388.53	216.50
388.91	216.43
389.29	216.21
389.66	216.62
390.04	216.19
390.42	216.55
390.79	216.45
391.17	216.24
391.55	213.95
391.92	214.12
392.30	214.17
392.68	213.71
393.05	213.29
393.43	213.36
393.81	213.36
394.18	213.31
394.56	213.33
394.94	213.55
395.31	213.45
395.69	214.19
396.06	214.45
396.44	214.67
396.82	214.67
397.19	215.93
397.57	215.71
397.95	216.10
398.32	215.31
398.70	215.52
399.07	215.79
399.45	215.86
399.82	215.64
400.20	215.50
400.58	215.64
400.95	214.95
401.33	215.52
401.70	217.24
402.08	217.26
402.45	217.50
402.83	217.95
403.20	218.14
403.58	217.98
403.95	218.55
404.33	218.79
404.71	219.24
405.08	220.40
405.46	220.67
405.83	221.21
406.21	221.71
406.58	222.26
406.96	222.93
407.33	223.57
407.70	224.60
408.08	226.95
408.45	228.14
408.83	229.29
409.20	229.83
409.58	229.38
409.95	230.67
410.33	231.67
410.70	232.10
411.08	233.88
411.45	235.10
411.82	235.90
412.20	237.90
412.57	240.36
412.95	240.19
413.32	242.26
413.69	243.76
414.07	245.81
414.44	248.05
414.82	250.40
415.19	253.10
415.56	255.83
415.94	257.36
416.31	260.76
416.68	264.07
417.06	268.17
417.43	272.26
417.81	276.21
418.18	280.50
418.55	285.12
418.93	289.64
419.30	294.79
419.67	300.19
420.04	305.12
420.42	310.24
420.79	318.55
421.16	325.00
421.54	333.05
421.91	340.38
422.28	347.50
422.66	354.88
423.03	363.67
423.40	371.55
423.77	379.62
424.15	387.95
424.52	396.71
424.89	406.21
425.26	415.21
425.64	424.19
426.01	433.74
426.38	444.10
426.75	455.02
427.13	465.83
427.50	477.24
427.87	489.48
428.24	501.50
428.61	511.40
428.99	525.10
429.36	537.48
429.73	550.76
430.10	564.24
430.47	578.62
430.85	591.17
431.22	606.02
431.59	623.57
431.96	638.40
432.33	655.12
432.70	671.40
433.08	689.95
433.45	708.31
433.82	726.62
434.19	747.14
434.56	767.14
434.93	785.81
435.30	804.76
435.68	826.12
436.05	846.50
436.42	866.64
436.79	885.40
437.16	906.79
437.53	928.74
437.90	950.93
438.27	972.83
438.64	995.05
439.01	1016.02
439.38	1033.67
439.75	1051.64
440.13	1072.07
440.50	1091.19
440.87	1108.12
441.24	1124.71
441.61	1143.14
441.98	1155.71
442.35	1170.33
442.72	1185.93
443.09	1201.60
443.46	1210.48
443.83	1217.02
444.20	1223.79
444.57	1231.50
444.94	1235.07
445.31	1239.19
445.68	1244.86
446.05	1245.81
446.42	1245.33
446.79	1244.02
447.16	1241.93
447.53	1241.17
447.90	1234.50
448.27	1226.48
448.64	1215.74
449.01	1208.40
449.37	1194.81
449.74	1182.38
450.11	1168.67
450.48	1151.60
450.85	1133.29
451.22	1118.57
451.59	1104.81
451.96	1090.45
452.33	1071.31
452.70	1054.69
453.07	1033.88
453.43	1011.55
453.80	992.14
454.17	972.50
454.54	953.55
454.91	933.67
455.28	914.12
455.65	896.17
456.02	882.67
456.38	867.26
456.75	848.55
457.12	832.38
457.49	816.60
457.86	800.10
458.23	787.40
458.59	773.24
458.96	758.69
459.33	745.86
459.70	733.43
460.07	723.81
460.43	711.76
460.80	701.74
461.17	692.43
461.54	682.24
461.91	672.98
462.27	663.67
462.64	655.79
463.01	647.12
463.38	638.69
463.74	626.55
464.11	619.02
464.48	612.07
464.85	604.50
465.21	599.86
465.58	593.83
465.95	586.45
466.32	580.45
466.68	574.36
467.05	568.19
467.42	562.21
467.78	555.74
468.15	550.02
468.52	545.48
468.88	539.12
469.25	533.98
469.62	529.88
469.98	524.71
470.35	520.64
470.72	516.31
471.08	511.43
471.45	507.88
471.82	504.79
472.18	500.76
472.55	498.48
472.92	493.83
473.28	490.52
473.65	487.57
474.02	484.81
474.38	482.38
474.75	480.36
475.11	477.74
475.48	475.48
475.85	473.74
476.21	471.67
476.58	470.29
476.94	469.45
477.31	468.10
477.67	467.07
478.04	465.17
478.41	464.62
478.77	466.00
479.14	464.45
479.50	463.33
479.87	462.93
480.23	462.57
480.60	462.52
480.96	462.24
481.33	463.00
481.69	463.33
482.06	463.71
482.42	463.86
482.79	464.55
483.15	465.69
483.52	466.81
483.88	468.07
484.25	469.02
484.61	469.55
484.98	470.33
485.34	472.71
485.71	475.33
486.07	477.12
486.44	477.05
486.80	479.76
487.17	482.00
487.53	484.67
487.90	487.62
488.26	491.33
488.62	495.05
488.99	497.76
489.35	501.10
489.72	504.02
490.08	507.71
490.44	511.62
490.81	515.88
491.17	519.90
491.54	524.36
491.90	529.33
492.26	534.48
492.63	539.40
492.99	544.05
493.36	548.95
493.72	554.48
494.08	560.26
494.45	566.64
494.81	572.76
495.17	579.52
495.54	585.98
495.90	592.19
496.26	598.81
496.63	606.17
496.99	613.14
497.35	621.12
497.72	628.60
498.08	635.83
498.44	643.60
498.80	652.07
499.17	660.10
499.53	668.12
499.89	676.81
500.26	686.10
500.62	694.98
500.98	704.12
501.34	712.81
501.71	722.38
502.07	731.26
502.43	741.02
502.79	749.67
503.16	758.74
503.52	767.93
503.88	777.12
504.24	786.81
504.60	796.98
504.97	807.26
505.33	816.93
505.69	828.05
506.05	837.81
506.41	847.64
506.78	857.36
507.14	867.36
507.50	877.43
507.86	887.33
508.22	897.40
508.59	907.79
508.95	918.86
509.31	929.83
509.67	939.71
510.03	949.55
510.39	959.93
510.75	970.45
511.12	980.81
511.48	991.02
511.84	1000.79
512.20	1010.48
512.56	1020.12
512.92	1030.86
513.28	1040.81
513.64	1051.10
514.00	1060.33
514.37	1070.40
514.73	1080.07
515.09	1089.57
515.45	1098.38
515.81	1107.50
516.17	1115.93
516.53	1124.05
516.89	1131.36
517.25	1140.43
517.61	1149.24
517.97	1157.48
518.33	1165.12
518.69	1173.57
519.05	1182.40
519.41	1191.02
519.77	1199.67
520.13	1207.00
520.49	1213.74
520.85	1220.64
521.21	1228.64
521.57	1236.36
521.93	1242.48
522.29	1249.50
522.65	1255.62
523.01	1262.95
523.37	1268.88
523.73	1275.57
524.09	1281.98
524.45	1288.14
524.81	1293.38
525.17	1299.31
525.53	1305.26
525.89	1310.45
526.25	1316.71
526.61	1320.36
526.97	1323.71
527.33	1328.57
527.68	1334.43
528.04	1339.14
528.40	1343.90
528.76	1348.14
529.12	1352.31
529.48	1357.71
529.84	1360.93
530.20	1365.12
530.56	1368.64
530.91	1373.64
531.27	1376.98
531.63	1381.21
531.99	1384.74
532.35	1388.67
532.71	1391.19
533.07	1394.74
533.42	1401.43
533.78	1404.00
534.14	1408.48
534.50	1412.88
534.86	1416.24
535.21	1418.62
535.57	1422.26
535.93	1424.38
536.29	1427.55
536.65	1430.12
537.00	1432.05
537.36	1435.14
537.72	1437.21
538.08	1439.50
538.44	1440.19
538.79	1443.14
539.15	1443.79
539.51	1445.02
539.87	1446.95
540.22	1449.62
540.58	1451.81
540.94	1451.26
541.29	1452.48
541.65	1452.07
542.01	1452.69
542.37	1453.17
542.72	1453.21
543.08	1452.62
543.44	1453.48
543.79	1452.14
544.15	1452.81
544.51	1452.57
544.87	1453.24
545.22	1454.07
545.58	1453.00
545.94	1452.62
546.29	1451.90
546.65	1451.93
547.01	1451.86
547.36	1450.74
547.72	1449.31
548.07	1447.50
548.43	1445.67
548.79	1443.40
549.14	1442.81
549.50	1441.88
549.86	1439.29
550.21	1437.71
550.57	1437.43
550.92	1435.31
551.28	1434.38
551.64	1432.79
551.99	1431.69
552.35	1428.81
552.70	1426.69
553.06	1426.69
553.41	1426.57
553.77	1426.10
554.13	1424.88
554.48	1424.50
554.84	1424.14
555.19	1423.14
555.55	1423.19
555.90	1421.71
556.26	1421.33
556.61	1419.52
556.97	1417.26
557.32	1416.45
557.68	1415.57
558.03	1413.79
558.39	1412.38
558.74	1411.17
559.10	1409.14
559.45	1407.76
559.81	1407.19
560.16	1405.60
560.52	1403.45
560.87	1401.81
561.23	1398.98
561.58	1398.95
561.94	1396.57
562.29	1394.10
562.64	1392.02
563.00	1388.79
563.35	1387.02
563.71	1385.31
564.06	1384.79
564.42	1383.55
564.77	1382.40
565.12	1381.40
565.48	1381.88
565.83	1381.31
566.19	1379.67
566.54	1378.29
566.89	1377.31
567.25	1376.29
567.60	1376.21
567.96	1377.14
568.31	1376.31
568.66	1375.10
569.02	1371.50
569.37	1369.12
569.72	1367.79
570.08	1365.79
570.43	1363.71
570.78	1362.69
571.14	1360.50
571.49	1357.71
571.84	1356.31
572.20	1353.40
572.55	1350.69
572.90	1346.31
573.26	1342.55
573.61	1339.67
573.96	1337.12
574.31	1333.43
574.67	1329.57
575.02	1325.62
575.37	1320.43
575.72	1316.50
576.08	1313.17
576.43	1309.98
576.78	1306.62
577.13	1302.83
577.49	1300.02
577.84	1297.29
578.19	1293.57
578.54	1290.67
578.90	1287.29
579.25	1282.60
579.60	1279.14
579.95	1275.33
580.30	1271.71
580.66	1269.00
581.01	1265.21
581.36	1261.12
581.71	1257.33
582.06	1254.81
582.42	1251.14
582.77	1246.55
583.12	1241.48
583.47	1237.31
583.82	1233.52
584.17	1230.05
584.53	1226.86
584.88	1222.74
585.23	1219.26
585.58	1214.33
585.93	1209.07
586.28	1205.62
586.63	1202.33
586.98	1198.48
587.34	1194.52
587.69	1190.19
588.04	1184.71
588.39	1180.33
588.74	1175.29
589.09	1171.79
589.44	1165.83
589.79	1160.98
590.14	1156.83
590.49	1152.43
590.84	1147.31
591.19	1143.10
591.54	1139.02
591.89	1133.17
592.25	1130.40
592.60	1125.02
592.95	1121.43
593.30	1117.43
593.65	1112.38
594.00	1107.43
594.35	1109.57
594.70	1104.52
595.05	1100.60
595.40	1096.69
595.75	1092.31
596.10	1089.10
596.45	1084.02
596.80	1080.14
597.15	1075.90
597.50	1071.57
597.85	1068.71
598.19	1065.02
598.54	1060.57
598.89	1055.83
599.24	1051.81
599.59	1045.67
599.94	1041.31
600.29	1036.62
600.64	1032.93
600.99	1029.52
601.34	1025.55
601.69	1014.93
602.04	1010.36
602.39	1005.05
602.74	1001.26
603.08	997.07
603.43	993.21
603.78	989.07
604.13	983.95
604.48	979.24
604.83	975.07
605.18	970.48
605.53	965.88
605.87	961.55
606.22	957.36
606.57	953.98
606.92	949.31
607.27	945.07
607.62	940.40
607.96	935.57
608.31	931.12
608.66	927.19
609.01	922.21
609.36	918.93
609.70	914.93
610.05	910.55
610.40	906.19
610.75	901.40
611.10	897.24
611.44	893.90
611.79	889.79
612.14	885.60
612.49	880.26
612.83	875.86
613.18	871.55
613.53	867.05
613.88	862.05
614.22	857.64
614.57	852.81
614.92	848.38
615.27	843.76
615.61	838.83
615.96	833.95
616.31	829.57
616.65	825.02
617.00	820.81
617.35	816.29
617.70	811.64
618.04	807.26
618.39	802.79
618.74	798.67
619.08	794.29
619.43	789.81
619.78	785.88
620.12	781.67
620.47	777.48
620.82	773.14
621.16	768.95
621.51	766.05
621.85	761.79
622.20	758.26
622.55	754.48
622.89	750.43
623.24	746.93
623.59	743.74
623.93	740.33
624.28	736.40
624.62	735.12
624.97	732.93
625.32	729.26
625.66	725.55
626.01	721.83
626.35	718.29
626.70	714.88
627.04	712.10
627.39	708.79
627.73	706.02
628.08	702.86
628.43	699.19
628.77	694.83
629.12	692.05
629.46	688.86
629.81	685.19
630.15	681.48
630.50	677.43
630.84	673.24
631.19	669.17
631.53	665.98
631.88	660.40
632.22	655.24
632.57	652.45
632.91	649.00
633.26	645.69
633.60	642.21
633.95	638.62
634.29	634.36
634.64	631.17
634.98	627.02
635.32	624.43
635.67	621.45
636.01	618.48
636.36	614.83
636.70	611.93
637.05	608.93
637.39	605.93
637.73	603.05
638.08	600.86
638.42	598.00
638.77	595.36
639.11	591.98
639.45	589.45
639.80	585.57
640.14	582.40
640.49	578.79
640.83	575.40
641.17	572.52
641.52	569.95
641.86	567.07
642.20	564.95
642.55	560.95
642.89	557.52
643.23	554.64
643.58	552.24
643.92	548.29
644.26	545.26
644.61	542.48
644.95	539.64
645.29	535.79
645.64	533.29
645.98	529.81
646.32	527.38
646.66	524.48
647.01	521.29
647.35	519.19
647.69	517.05
648.04	514.64
648.38	512.21
648.72	509.69
649.06	506.76
649.41	503.29
649.75	500.60
650.09	498.76
650.43	495.48
650.78	492.43
651.12	489.69
651.46	486.71
651.80	484.24
652.14	481.60
652.49	479.74
652.83	476.21
653.17	473.74
653.51	470.60
653.85	468.26
654.20	466.14
654.54	462.88
654.88	460.26
655.22	458.86
655.56	455.95
655.90	453.21
656.25	451.24
656.59	448.69
656.93	446.57
657.27	444.67
657.61	442.52
657.95	440.69
658.29	438.95
658.64	437.26
658.98	434.88
659.32	432.69
659.66	430.55
660.00	429.24
660.34	427.40
660.68	425.76
661.02	423.83
661.36	422.00
661.70	420.12
662.05	417.98
662.39	415.67
662.73	414.71
663.07	414.07
663.41	412.10
663.75	410.10
664.09	408.45
664.43	406.00
664.77	404.50
665.11	402.36
665.45	400.57
665.79	399.12
666.13	397.36
666.47	395.55
666.81	394.00
667.15	391.62
667.49	389.93
667.83	388.98
668.17	387.05
668.51	385.33
668.85	384.24
669.19	384.14
669.53	382.02
669.87	379.81
670.21	377.43
670.55	376.07
670.89	375.71
671.23	374.17
671.57	372.95
671.91	371.69
672.25	370.69
672.58	370.26
672.92	368.52
673.26	367.12
673.60	366.05
673.94	364.57
674.28	363.93
674.62	362.67
674.96	360.90
675.30	359.79
675.64	358.43
675.97	356.95
676.31	354.36
676.65	353.21
676.99	352.86
677.33	351.19
677.67	349.98
678.01	347.95
678.34	346.67
678.68	345.52
679.02	343.64
679.36	342.17
679.70	340.17
680.04	339.00
680.37	338.07
680.71	336.48
681.05	335.52
681.39	334.24
681.73	333.00
682.06	331.81
682.40	330.88
682.74	330.10
683.08	329.76
683.42	328.76
683.75	328.14
684.09	326.12
684.43	325.21
684.77	323.79
685.10	322.67
685.44	321.86
685.78	320.69
686.12	320.10
686.45	319.05
686.79	317.69
687.13	317.07
687.46	316.24
687.80	316.00
688.14	314.79
688.48	313.86
688.81	313.00
689.15	312.21
689.49	310.76
689.82	309.81
690.16	308.17
690.50	306.95
690.83	305.52
691.17	304.31
691.51	303.45
691.84	302.79
692.18	302.05
692.52	300.98
692.85	300.21
693.19	300.02
693.52	299.19
693.86	298.31
694.20	297.31
694.53	296.10
694.87	294.76
695.21	293.71
695.54	292.62
695.88	291.55
696.21	290.07
696.55	289.60
696.88	288.71
697.22	287.74
697.56	287.33
697.89	286.52
698.23	286.26
698.56	285.50
698.90	285.07
699.23	284.33
699.57	283.71
699.90	282.76
700.24	281.26
700.58	280.38
700.91	280.29
701.25	281.19
701.58	281.26
701.92	281.17
702.25	280.64
702.59	280.00
702.92	279.45
703.26	278.98
703.59	278.21
703.93	279.31
704.26	279.10
704.60	278.67
704.93	277.98
705.26	277.19
705.60	277.19
705.93	275.83
706.27	275.95
706.60	275.95
706.94	275.98
707.27	275.31
707.61	275.00
707.94	274.00
708.27	271.86
708.61	270.67
708.94	269.83
709.28	269.33
709.61	268.71
709.94	268.19
710.28	267.71
710.61	267.26
710.95	264.95
711.28	265.64
711.61	264.67
711.95	264.74
712.28	264.29
712.61	263.26
712.95	264.07
713.28	263.98
713.61	262.74
713.95	261.79
714.28	261.50
714.61	261.00
714.95	260.55
715.28	259.81
715.61	259.21
715.95	259.10
716.28	258.40
716.61	258.33
716.95	257.81
717.28	257.50
717.61	256.88
717.94	256.17
718.28	254.05
718.61	253.79
718.94	252.90
719.27	252.21
719.61	251.88
719.94	250.64
720.27	249.24
720.60	248.81
720.94	248.69
721.27	248.36
721.60	248.26
721.93	247.81
722.27	248.21
722.60	248.02
722.93	247.19
723.26	246.95
723.59	246.36
723.93	246.14
724.26	246.12
724.59	246.12
724.92	246.19
725.25	246.48
725.59	246.05
725.92	245.93
726.25	245.62
726.58	245.60
726.91	245.52
727.24	245.57
727.57	245.40
727.91	244.50
728.24	244.33
728.57	243.57
728.90	243.52
729.23	242.31
729.56	242.95
729.89	242.57
730.22	242.07
730.55	241.52
730.89	241.31
731.22	240.55
731.55	239.83
731.88	239.57
732.21	238.93
732.54	238.62
732.87	238.33
733.20	238.31
733.53	237.67
733.86	237.26
734.19	236.64
734.52	236.74
734.85	238.19
735.18	237.79
735.51	238.33
735.84	238.40
736.17	238.98
736.50	237.76
736.83	239.98
737.16	239.90
737.49	239.83
737.82	239.62
738.15	239.83
738.48	239.88
738.81	239.48
739.14	239.00
739.47	238.74
739.80	238.57
740.13	238.45
740.46	237.95
740.79	237.45
741.12	237.33
741.45	236.69
741.78	235.07
742.11	235.24
742.44	234.64
742.77	234.43
743.10	233.86
743.43	233.57
743.75	231.36
744.08	233.71
744.41	233.43
744.74	232.93
745.07	232.36
745.40	232.36
745.73	233.00
746.06	233.07
746.39	233.02
746.71	232.45
747.04	231.74
747.37	231.55
747.70	232.07
748.03	231.81
748.36	231.98
748.68	231.69
749.01	231.10
749.34	230.98
749.67	230.88
750.00	231.00
750.33	232.50
750.65	232.12
750.98	229.38
751.31	229.26
751.64	229.36
751.97	230.38
752.29	230.07
752.62	229.36
752.95	229.07
753.28	228.95
753.60	228.95
753.93	229.76
754.26	229.83
754.59	228.88
754.91	228.69
755.24	228.33
755.57	228.29
755.90	228.33
756.22	227.76
756.55	227.31
756.88	226.69
757.20	225.21
757.53	224.74
757.86	224.93
758.19	225.00
758.51	224.69
758.84	223.57
759.17	223.60
759.49	223.26
759.82	224.17
760.15	224.29
760.47	224.21
760.80	223.43
761.13	223.95
761.45	224.10
761.78	223.76
762.11	223.71
762.43	223.52
762.76	223.05
763.08	223.31
763.41	223.57
763.74	223.71
764.06	223.57
764.39	223.31
764.71	223.12
765.04	222.88
765.37	222.81
765.69	222.74
766.02	222.36
766.34	222.10
766.67	221.17
767.00	221.26
767.32	222.21
767.65	223.57
767.97	223.07
768.30	222.95
768.62	223.26
768.95	223.00
769.27	222.83
769.60	223.12
769.92	222.81
770.25	222.19
770.57	221.64
770.90	221.62
771.22	221.74
771.55	221.76
771.87	221.86
772.20	221.79
772.52	223.45
772.85	225.74
773.17	226.02
773.50	226.14
773.82	225.74
774.15	224.71
774.47	223.07
774.80	222.86
775.12	222.69
775.45	222.62
775.77	222.62
776.09	222.95
776.42	222.98
776.74	223.64
777.07	223.31
777.39	223.64
777.72	223.40
778.04	223.81
778.36	223.55
778.69	223.52
779.01	223.48
779.33	221.64
779.66	219.48
779.98	219.17
780.31	218.90
780.63	219.71
780.95	220.02
781.28	220.14
781.60	219.86
781.92	219.71
782.25	219.43
782.57	219.45
782.89	218.90
783.22	218.74
783.54	218.02
783.86	218.31
784.19	218.24
784.51	218.93
784.83	218.48
785.16	218.21
785.48	218.31
785.80	218.38
786.12	218.48
786.45	218.38
786.77	218.48
787.09	218.40
787.42	217.71
787.74	217.64
788.06	217.67
