SpectraSuite Data File
++++++++++++++++++++++++++++++++++++
Date: Tue Apr 02 18:44:16 EDT 2013
User: group
Dark Spectrum Present: No
Reference Spectrum Present: No
Number of Sampled Component Spectra: 1
Spectrometers: USB2E7196
Integration Time (usec): 580000 (USB2E7196)
Spectra Averaged: 2 (USB2E7196)
Boxcar Smoothing: 10 (USB2E7196)
Correct for Electrical Dark: No (USB2E7196)
Strobe/Lamp Enabled: No (USB2E7196)
Correct for Detector Non-linearity: No (USB2E7196)
Correct for Stray Light: No (USB2E7196)
Number of Pixels in Processed Spectrum: 2048
>>>>>Begin Processed Spectral Data<<<<<
339.09	0.00
339.48	192.50
339.86	196.00
340.24	194.00
340.63	197.00
341.01	236.00
341.39	202.00
341.78	206.50
342.16	208.00
342.54	208.50
342.93	199.55
343.31	209.36
343.69	210.07
344.07	210.64
344.46	211.60
344.84	212.26
345.22	211.07
345.60	211.60
345.99	211.74
346.37	211.74
346.75	211.60
347.13	211.64
347.52	211.71
347.90	212.31
348.28	212.21
348.66	212.48
349.05	211.83
349.43	211.81
349.81	211.90
350.19	211.86
350.57	211.95
350.96	212.02
351.34	212.40
351.72	212.67
352.10	212.76
352.48	212.55
352.87	212.38
353.25	212.26
353.63	212.17
354.01	212.12
354.39	212.19
354.77	212.50
355.15	213.00
355.54	212.69
355.92	211.79
356.30	211.76
356.68	213.31
357.06	213.50
357.44	213.29
357.82	213.26
358.20	213.93
358.58	213.88
358.97	213.81
359.35	214.14
359.73	214.26
360.11	214.33
360.49	214.40
360.87	214.60
361.25	214.81
361.63	215.45
362.01	215.62
362.39	215.60
362.77	215.38
363.15	215.26
363.53	215.43
363.91	215.74
364.29	215.67
364.67	213.52
365.05	213.50
365.43	213.60
365.81	213.60
366.19	213.88
366.57	214.48
366.95	214.52
367.33	213.90
367.71	213.79
368.09	213.90
368.47	213.81
368.85	213.43
369.23	213.81
369.61	213.17
369.99	213.67
370.37	214.00
370.75	215.33
371.13	214.90
371.51	214.57
371.89	214.79
372.27	214.88
372.65	214.93
373.03	214.81
373.41	214.81
373.78	214.83
374.16	213.69
374.54	213.14
374.92	213.02
375.30	213.10
375.68	212.81
376.06	213.07
376.44	212.93
376.82	213.24
377.19	213.21
377.57	212.98
377.95	212.57
378.33	212.21
378.71	210.86
379.09	211.21
379.47	211.40
379.84	211.43
380.22	211.26
380.60	210.95
380.98	211.02
381.36	210.88
381.73	210.45
382.11	211.02
382.49	210.98
382.87	210.57
383.25	210.38
383.62	212.71
384.00	212.26
384.38	212.26
384.76	212.81
385.13	213.83
385.51	213.95
385.89	213.74
386.27	214.14
386.64	214.43
387.02	214.12
387.40	214.19
387.78	214.14
388.15	214.14
388.53	214.36
388.91	214.50
389.29	214.40
389.66	214.81
390.04	214.74
390.42	215.24
390.79	215.62
391.17	215.90
391.55	213.71
391.92	213.76
392.30	214.29
392.68	213.98
393.05	213.43
393.43	213.50
393.81	213.48
394.18	213.05
394.56	213.29
394.94	214.02
395.31	213.55
395.69	213.88
396.06	214.26
396.44	214.19
396.82	213.90
397.19	215.17
397.57	215.00
397.95	215.17
398.32	214.79
398.70	215.05
399.07	215.67
399.45	215.71
399.82	215.83
400.20	215.48
400.58	215.29
400.95	214.57
401.33	214.90
401.70	216.40
402.08	216.52
402.45	216.60
402.83	217.10
403.20	217.24
403.58	217.24
403.95	217.69
404.33	218.31
404.71	218.81
405.08	220.02
405.46	220.29
405.83	220.79
406.21	221.07
406.58	221.55
406.96	221.64
407.33	222.36
407.70	223.12
408.08	225.45
408.45	226.33
408.83	227.31
409.20	227.90
409.58	227.36
409.95	228.52
410.33	229.36
410.70	229.40
411.08	231.07
411.45	232.19
411.82	232.81
412.20	234.60
412.57	236.83
412.95	236.36
413.32	238.12
413.69	239.07
414.07	240.50
414.44	242.43
414.82	244.26
415.19	246.50
415.56	248.48
415.94	249.74
416.31	252.52
416.68	255.31
417.06	258.62
417.43	262.31
417.81	265.90
418.18	269.40
418.55	273.36
418.93	277.21
419.30	281.43
419.67	286.02
420.04	289.83
420.42	294.07
420.79	300.93
421.16	306.38
421.54	313.76
421.91	319.81
422.28	325.81
422.66	332.67
423.03	340.52
423.40	347.60
423.77	354.64
424.15	361.88
424.52	369.38
424.89	378.17
425.26	385.43
425.64	392.62
426.01	400.93
426.38	409.52
426.75	419.00
427.13	428.40
427.50	438.60
427.87	448.67
428.24	458.83
428.61	467.50
428.99	478.93
429.36	489.05
429.73	500.50
430.10	511.74
430.47	523.31
430.85	534.05
431.22	546.33
431.59	560.88
431.96	573.55
432.33	588.17
432.70	601.19
433.08	617.62
433.45	632.69
433.82	648.19
434.19	665.48
434.56	681.55
434.93	697.19
435.30	712.81
435.68	730.81
436.05	747.57
436.42	764.48
436.79	780.50
437.16	797.79
437.53	815.86
437.90	833.64
438.27	851.02
438.64	868.33
439.01	885.64
439.38	899.38
439.75	913.62
440.13	929.74
440.50	945.86
440.87	958.93
441.24	972.64
441.61	986.88
441.98	997.57
442.35	1010.36
442.72	1023.48
443.09	1036.21
443.46	1043.43
443.83	1049.02
444.20	1054.31
444.57	1059.93
444.94	1063.17
445.31	1067.05
445.68	1072.88
446.05	1074.57
446.42	1074.10
446.79	1072.79
447.16	1071.38
447.53	1071.00
447.90	1064.90
448.27	1058.12
448.64	1049.62
449.01	1043.95
449.37	1033.05
449.74	1021.88
450.11	1010.60
450.48	995.21
450.85	979.74
451.22	967.05
451.59	954.88
451.96	943.14
452.33	927.90
452.70	913.45
453.07	896.05
453.43	876.45
453.80	860.05
454.17	844.19
454.54	828.83
454.91	812.05
455.28	796.24
455.65	781.79
456.02	770.14
456.38	756.86
456.75	741.19
457.12	727.98
457.49	715.33
457.86	700.71
458.23	691.50
458.59	680.02
458.96	668.43
459.33	658.05
459.70	647.17
460.07	638.62
460.43	629.21
460.80	619.83
461.17	612.52
461.54	604.10
461.91	596.19
462.27	587.48
462.64	580.64
463.01	572.83
463.38	566.36
463.74	555.98
464.11	549.79
464.48	543.74
464.85	537.55
465.21	533.05
465.58	528.14
465.95	521.00
466.32	515.93
466.68	510.93
467.05	505.67
467.42	500.71
467.78	495.33
468.15	490.31
468.52	487.19
468.88	481.55
469.25	477.10
469.62	473.76
469.98	470.45
470.35	467.31
470.72	463.57
471.08	458.55
471.45	455.93
471.82	453.26
472.18	449.76
472.55	447.31
472.92	443.74
473.28	440.81
473.65	438.31
474.02	435.43
474.38	433.21
474.75	431.19
475.11	428.98
475.48	427.52
475.85	425.93
476.21	423.52
476.58	422.33
476.94	421.19
477.31	419.76
477.67	418.12
478.04	416.45
478.41	415.93
478.77	417.21
479.14	415.69
479.50	414.55
479.87	414.29
480.23	413.90
480.60	413.57
480.96	413.55
481.33	414.21
481.69	414.26
482.06	414.43
482.42	414.76
482.79	414.93
483.15	415.10
483.52	416.29
483.88	417.24
484.25	417.60
484.61	418.24
484.98	419.00
485.34	421.19
485.71	423.12
486.07	424.07
486.44	423.71
486.80	425.69
487.17	427.12
487.53	429.36
487.90	431.43
488.26	434.33
488.62	437.10
488.99	438.52
489.35	441.26
489.72	443.67
490.08	446.74
490.44	449.55
490.81	452.95
491.17	455.74
491.54	459.40
491.90	463.55
492.26	466.98
492.63	470.64
492.99	473.67
493.36	477.48
493.72	482.36
494.08	486.95
494.45	491.74
494.81	497.43
495.17	502.19
495.54	506.95
495.90	511.45
496.26	516.17
496.63	522.12
496.99	527.33
497.35	532.93
497.72	538.45
498.08	544.43
498.44	550.26
498.80	556.50
499.17	562.74
499.53	568.79
499.89	575.93
500.26	582.81
500.62	589.57
500.98	596.79
501.34	603.24
501.71	610.38
502.07	617.05
502.43	623.81
502.79	630.69
503.16	637.62
503.52	644.83
503.88	651.67
504.24	659.26
504.60	667.02
504.97	674.95
505.33	682.71
505.69	691.21
506.05	699.10
506.41	706.62
506.78	714.26
507.14	721.67
507.50	729.19
507.86	736.57
508.22	744.90
508.59	751.90
508.95	760.33
509.31	769.05
509.67	776.62
510.03	783.95
510.39	791.52
510.75	799.67
511.12	807.81
511.48	815.98
511.84	823.10
512.20	830.74
512.56	838.29
512.92	846.10
513.28	853.57
513.64	860.90
514.00	868.90
514.37	876.67
514.73	884.29
515.09	891.95
515.45	899.24
515.81	905.83
516.17	912.88
516.53	918.95
516.89	924.26
517.25	931.24
517.61	938.14
517.97	944.43
518.33	951.12
518.69	957.36
519.05	963.86
519.41	970.57
519.77	978.07
520.13	983.69
520.49	988.71
520.85	994.07
521.21	1000.83
521.57	1006.26
521.93	1011.21
522.29	1017.24
522.65	1021.86
523.01	1027.14
523.37	1032.36
523.73	1037.90
524.09	1043.52
524.45	1048.31
524.81	1053.31
525.17	1058.14
525.53	1062.95
525.89	1066.95
526.25	1071.74
526.61	1075.76
526.97	1078.98
527.33	1082.21
527.68	1089.10
528.04	1093.90
528.40	1097.93
528.76	1100.62
529.12	1104.31
529.48	1108.48
529.84	1112.40
530.20	1117.19
530.56	1121.62
530.91	1126.17
531.27	1130.24
531.63	1134.50
531.99	1139.07
532.35	1142.52
532.71	1146.86
533.07	1151.55
533.42	1158.05
533.78	1162.00
534.14	1166.26
534.50	1171.07
534.86	1175.57
535.21	1177.19
535.57	1181.71
535.93	1185.52
536.29	1191.64
536.65	1196.69
537.00	1200.74
537.36	1203.50
537.72	1206.74
538.08	1210.43
538.44	1213.50
538.79	1216.76
539.15	1219.83
539.51	1223.45
539.87	1227.45
540.22	1230.36
540.58	1233.38
540.94	1234.33
541.29	1237.26
541.65	1239.05
542.01	1242.52
542.37	1244.81
542.72	1247.31
543.08	1248.98
543.44	1251.76
543.79	1252.21
544.15	1254.83
544.51	1258.17
544.87	1261.86
545.22	1264.26
545.58	1266.40
545.94	1269.12
546.29	1271.29
546.65	1273.40
547.01	1275.40
547.36	1276.98
547.72	1280.10
548.07	1281.93
548.43	1284.74
548.79	1286.31
549.14	1290.40
549.50	1292.43
549.86	1293.98
550.21	1296.76
550.57	1300.05
550.92	1302.07
551.28	1305.19
551.64	1307.02
551.99	1309.24
552.35	1311.43
552.70	1314.71
553.06	1317.71
553.41	1320.76
553.77	1325.81
554.13	1329.86
554.48	1334.40
554.84	1339.62
555.19	1342.86
555.55	1348.07
555.90	1351.95
556.26	1356.74
556.61	1360.31
556.97	1364.12
557.32	1368.71
557.68	1372.38
558.03	1376.55
558.39	1381.24
558.74	1385.86
559.10	1389.81
559.45	1394.17
559.81	1398.29
560.16	1402.31
560.52	1406.83
560.87	1411.69
561.23	1414.48
561.58	1420.38
561.94	1423.76
562.29	1427.14
562.64	1431.43
563.00	1435.43
563.35	1439.98
563.71	1445.10
564.06	1450.55
564.42	1456.02
564.77	1462.48
565.12	1469.05
565.48	1476.33
565.83	1482.31
566.19	1488.00
566.54	1493.19
566.89	1498.48
567.25	1505.43
567.60	1512.95
567.96	1521.10
568.31	1527.69
568.66	1534.74
569.02	1538.26
569.37	1543.74
569.72	1549.19
570.08	1554.57
570.43	1560.00
570.78	1565.76
571.14	1571.14
571.49	1576.00
571.84	1581.24
572.20	1584.74
572.55	1588.95
572.90	1592.40
573.26	1596.90
573.61	1600.43
573.96	1605.52
574.31	1609.95
574.67	1613.74
575.02	1616.50
575.37	1618.48
575.72	1621.62
576.08	1624.90
576.43	1629.67
576.78	1633.19
577.13	1637.79
577.49	1641.71
577.84	1645.71
578.19	1649.19
578.54	1652.69
578.90	1656.36
579.25	1659.86
579.60	1663.60
579.95	1666.67
580.30	1669.74
580.66	1674.19
581.01	1678.19
581.36	1681.88
581.71	1685.57
582.06	1690.10
582.42	1693.67
582.77	1696.31
583.12	1699.26
583.47	1702.81
583.82	1705.69
584.17	1709.67
584.53	1713.07
584.88	1715.64
585.23	1718.71
585.58	1721.45
585.93	1723.90
586.28	1726.95
586.63	1730.31
586.98	1733.38
587.34	1736.60
587.69	1738.52
588.04	1740.55
588.39	1742.79
588.74	1743.83
589.09	1745.45
589.44	1745.71
589.79	1748.29
590.14	1750.31
590.49	1752.24
590.84	1753.10
591.19	1754.50
591.54	1756.71
591.89	1757.00
592.25	1760.76
592.60	1762.07
592.95	1763.60
593.30	1765.26
593.65	1765.40
594.00	1764.81
594.35	1771.60
594.70	1772.10
595.05	1773.36
595.40	1773.83
595.75	1775.17
596.10	1776.57
596.45	1777.62
596.80	1779.05
597.15	1778.64
597.50	1779.57
597.85	1780.55
598.19	1781.36
598.54	1782.05
598.89	1781.64
599.24	1783.74
599.59	1783.05
599.94	1782.71
600.29	1783.00
600.64	1782.55
600.99	1783.17
601.34	1784.81
601.69	1779.10
602.04	1778.19
602.39	1778.12
602.74	1777.90
603.08	1777.12
603.43	1778.02
603.78	1777.90
604.13	1776.90
604.48	1776.74
604.83	1776.55
605.18	1775.76
605.53	1775.12
605.87	1774.36
606.22	1772.90
606.57	1770.60
606.92	1768.26
607.27	1767.93
607.62	1766.81
607.96	1766.83
608.31	1766.48
608.66	1764.74
609.01	1762.33
609.36	1762.29
609.70	1760.05
610.05	1757.90
610.40	1756.21
610.75	1753.36
611.10	1750.81
611.44	1748.24
611.79	1745.17
612.14	1743.07
612.49	1739.33
612.83	1736.60
613.18	1733.43
613.53	1731.19
613.88	1727.83
614.22	1724.83
614.57	1720.81
614.92	1717.76
615.27	1713.98
615.61	1708.90
615.96	1704.86
616.31	1702.48
616.65	1700.57
617.00	1698.12
617.35	1694.79
617.70	1691.81
618.04	1688.76
618.39	1685.38
618.74	1683.17
619.08	1680.98
619.43	1676.93
619.78	1674.50
620.12	1671.64
620.47	1668.10
620.82	1663.93
621.16	1659.81
621.51	1656.79
621.85	1652.83
622.20	1648.76
622.55	1643.71
622.89	1641.52
623.24	1638.79
623.59	1635.71
623.93	1630.74
624.28	1626.10
624.62	1623.50
624.97	1620.21
625.32	1616.05
625.66	1612.50
626.01	1607.21
626.35	1603.21
626.70	1599.24
627.04	1595.12
627.39	1590.69
627.73	1587.31
628.08	1584.31
628.43	1581.02
628.77	1577.05
629.12	1574.07
629.46	1570.50
629.81	1567.64
630.15	1562.48
630.50	1557.29
630.84	1551.83
631.19	1546.95
631.53	1542.36
631.88	1535.86
632.22	1529.29
632.57	1525.17
632.91	1519.05
633.26	1515.12
633.60	1509.07
633.95	1503.81
634.29	1499.10
634.64	1495.17
634.98	1490.81
635.32	1486.81
635.67	1482.31
636.01	1477.86
636.36	1472.24
636.70	1467.02
637.05	1462.14
637.39	1458.05
637.73	1453.79
638.08	1450.33
638.42	1445.43
638.77	1440.88
639.11	1437.55
639.45	1433.76
639.80	1427.83
640.14	1424.02
640.49	1419.50
640.83	1415.17
641.17	1410.60
641.52	1405.26
641.86	1399.45
642.20	1394.26
642.55	1387.88
642.89	1383.02
643.23	1377.36
643.58	1373.57
643.92	1367.79
644.26	1362.24
644.61	1356.86
644.95	1350.90
645.29	1344.52
645.64	1339.48
645.98	1334.31
646.32	1328.05
646.66	1321.45
647.01	1315.88
647.35	1310.79
647.69	1304.14
648.04	1297.98
648.38	1292.69
648.72	1287.07
649.06	1281.36
649.41	1274.95
649.75	1268.79
650.09	1262.83
650.43	1256.86
650.78	1249.24
651.12	1243.31
651.46	1237.33
651.80	1230.50
652.14	1224.24
652.49	1218.10
652.83	1210.43
653.17	1203.45
653.51	1196.90
653.85	1191.14
654.20	1184.60
654.54	1176.26
654.88	1169.57
655.22	1164.43
655.56	1157.29
655.90	1150.31
656.25	1143.55
656.59	1136.81
656.93	1130.50
657.27	1124.95
657.61	1118.02
657.95	1112.62
658.29	1105.60
658.64	1099.21
658.98	1092.74
659.32	1086.24
659.66	1079.24
660.00	1073.67
660.34	1068.07
660.68	1061.69
661.02	1055.26
661.36	1049.31
661.70	1044.07
662.05	1038.26
662.39	1031.62
662.73	1026.33
663.07	1021.05
663.41	1015.26
663.75	1008.93
664.09	1002.83
664.43	995.48
664.77	989.86
665.11	982.81
665.45	977.55
665.79	971.10
666.13	964.90
666.47	958.98
666.81	953.40
667.15	947.19
667.49	941.52
667.83	936.31
668.17	930.93
668.51	925.19
668.85	919.86
669.19	915.57
669.53	909.00
669.87	902.57
670.21	896.55
670.55	890.17
670.89	885.83
671.23	880.29
671.57	874.98
671.91	869.38
672.25	864.21
672.58	859.14
672.92	853.57
673.26	848.52
673.60	843.50
673.94	838.38
674.28	833.62
674.62	828.48
674.96	823.33
675.30	817.86
675.64	812.76
675.97	808.05
676.31	802.07
676.65	797.50
676.99	793.33
677.33	788.31
677.67	784.12
678.01	778.86
678.34	774.43
678.68	769.95
679.02	764.50
679.36	759.40
679.70	754.26
680.04	749.83
680.37	745.43
680.71	740.62
681.05	735.88
681.39	731.05
681.73	725.60
682.06	720.33
682.40	716.12
682.74	711.90
683.08	707.95
683.42	702.55
683.75	697.81
684.09	692.14
684.43	687.52
684.77	682.50
685.10	677.36
685.44	672.45
685.78	667.81
686.12	663.93
686.45	659.45
686.79	654.71
687.13	650.60
687.46	645.64
687.80	641.67
688.14	637.29
688.48	632.93
688.81	628.76
689.15	625.29
689.49	620.07
689.82	615.60
690.16	609.83
690.50	605.98
690.83	601.62
691.17	597.50
691.51	593.33
691.84	589.21
692.18	585.36
692.52	581.55
692.85	577.76
693.19	574.31
693.52	570.24
693.86	566.24
694.20	561.69
694.53	558.26
694.87	554.07
695.21	549.67
695.54	546.17
695.88	542.33
696.21	537.71
696.55	534.50
696.88	530.38
697.22	526.74
697.56	523.48
697.89	519.69
698.23	516.24
698.56	512.43
698.90	509.14
699.23	505.05
699.57	501.38
699.90	497.43
700.24	493.95
700.58	491.14
700.91	488.31
701.25	487.38
701.58	484.48
701.92	481.69
702.25	478.67
702.59	474.88
702.92	471.67
703.26	468.79
703.59	465.62
703.93	464.33
704.26	461.64
704.60	458.40
704.93	455.52
705.26	452.29
705.60	449.74
705.93	446.67
706.27	444.36
706.60	441.98
706.94	439.95
707.27	436.38
707.61	433.33
707.94	430.07
708.27	425.14
708.61	421.86
708.94	419.10
709.28	416.98
709.61	414.69
709.94	412.60
710.28	410.48
710.61	408.26
710.95	404.05
711.28	403.29
711.61	401.21
711.95	399.79
712.28	397.81
712.61	395.45
712.95	394.10
713.28	392.95
713.61	390.33
713.95	387.93
714.28	386.36
714.61	384.24
714.95	382.45
715.28	380.52
715.61	378.26
715.95	376.12
716.28	373.74
716.61	371.88
716.95	369.40
717.28	366.76
717.61	364.55
717.94	362.95
718.28	359.29
718.61	357.31
718.94	354.83
719.27	352.93
719.61	351.50
719.94	349.33
720.27	346.64
720.60	345.00
720.94	343.02
721.27	341.10
721.60	339.98
721.93	338.33
722.27	337.50
722.60	336.64
722.93	334.74
723.26	333.36
723.59	331.64
723.93	330.55
724.26	329.50
724.59	328.36
724.92	327.33
725.25	326.79
725.59	325.31
725.92	324.17
726.25	322.88
726.58	321.36
726.91	319.98
727.24	319.02
727.57	317.60
727.91	316.05
728.24	315.02
728.57	313.48
728.90	312.74
729.23	310.76
729.56	310.02
729.89	309.02
730.22	307.50
730.55	306.50
730.89	305.55
731.22	304.36
731.55	302.95
731.88	301.76
732.21	300.24
732.54	299.26
732.87	298.24
733.20	297.14
733.53	296.38
733.86	295.33
734.19	293.90
734.52	293.10
734.85	293.45
735.18	292.43
735.51	292.52
735.84	291.76
736.17	291.40
736.50	289.79
736.83	291.36
737.16	291.00
737.49	290.24
737.82	289.17
738.15	288.48
738.48	287.50
738.81	286.62
739.14	285.71
739.47	284.60
739.80	284.00
740.13	283.45
740.46	282.02
740.79	280.86
741.12	280.14
741.45	279.00
741.78	277.29
742.11	276.88
742.44	275.24
742.77	274.36
743.10	273.57
743.43	272.86
743.75	270.05
744.08	271.95
744.41	270.98
744.74	270.21
745.07	269.14
745.40	269.17
745.73	269.29
746.06	268.67
746.39	268.12
746.71	267.02
747.04	266.14
747.37	265.90
747.70	265.98
748.03	265.52
748.36	265.60
748.68	265.07
749.01	263.90
749.34	263.19
749.67	262.71
750.00	262.43
750.33	263.24
750.65	262.90
750.98	259.71
751.31	259.21
751.64	258.62
751.97	259.57
752.29	258.79
752.62	257.26
752.95	256.62
753.28	256.14
753.60	255.52
753.93	255.86
754.26	255.76
754.59	254.62
754.91	253.98
755.24	253.21
755.57	252.71
755.90	252.31
756.22	251.79
756.55	250.90
756.88	249.79
757.20	247.98
757.53	246.43
757.86	246.19
758.19	246.29
758.51	245.93
758.84	244.29
759.17	243.67
759.49	243.57
759.82	244.21
760.15	243.71
760.47	243.36
760.80	241.98
761.13	241.38
761.45	240.83
761.78	240.24
762.11	239.71
762.43	239.19
762.76	238.93
763.08	238.79
763.41	238.57
763.74	238.50
764.06	238.36
764.39	238.55
764.71	238.05
765.04	237.00
765.37	236.50
765.69	236.12
766.02	235.83
766.34	235.38
766.67	234.24
767.00	234.50
767.32	235.50
767.65	236.62
767.97	236.55
768.30	236.67
768.62	236.60
768.95	236.00
769.27	235.83
769.60	235.88
769.92	235.36
770.25	234.98
770.57	234.40
770.90	233.88
771.22	233.52
771.55	233.36
771.87	233.55
772.20	233.33
772.52	235.00
772.85	237.12
773.17	236.81
773.50	236.43
773.82	235.74
774.15	234.36
774.47	232.95
774.80	232.17
775.12	232.07
775.45	231.88
775.77	232.19
776.09	231.71
776.42	231.52
776.74	232.14
777.07	231.71
777.39	231.57
777.72	231.38
778.04	231.55
778.36	231.21
778.69	230.88
779.01	230.90
779.33	228.88
779.66	226.45
779.98	226.19
780.31	226.10
780.63	227.24
780.95	227.52
781.28	227.17
781.60	227.00
781.92	226.74
782.25	226.55
782.57	226.40
782.89	226.21
783.22	225.79
783.54	225.10
783.86	225.40
784.19	225.12
784.51	225.40
784.83	224.95
785.16	224.88
