SpectraSuite Data File
++++++++++++++++++++++++++++++++++++
Date: Tue Apr 02 18:43:55 EDT 2013
User: group
Dark Spectrum Present: No
Reference Spectrum Present: No
Number of Sampled Component Spectra: 1
Spectrometers: USB2E7196
Integration Time (usec): 580000 (USB2E7196)
Spectra Averaged: 2 (USB2E7196)
Boxcar Smoothing: 10 (USB2E7196)
Correct for Electrical Dark: No (USB2E7196)
Strobe/Lamp Enabled: No (USB2E7196)
Correct for Detector Non-linearity: No (USB2E7196)
Correct for Stray Light: No (USB2E7196)
Number of Pixels in Processed Spectrum: 2048
>>>>>Begin Processed Spectral Data<<<<<
339.09	0.00
339.48	194.50
339.86	194.50
340.24	198.50
340.63	196.00
341.01	230.00
341.39	202.00
341.78	209.50
342.16	214.50
342.54	203.50
342.93	198.29
343.31	208.12
343.69	208.79
344.07	209.38
344.46	210.12
344.84	210.69
345.22	209.60
345.60	210.12
345.99	210.21
346.37	210.05
346.75	210.43
347.13	210.52
347.52	210.83
347.90	211.07
348.28	210.93
348.66	211.38
349.05	210.64
349.43	210.79
349.81	210.90
350.19	211.02
350.57	211.12
350.96	211.26
351.34	211.36
351.72	211.17
352.10	211.17
352.48	210.79
352.87	210.62
353.25	210.67
353.63	210.45
354.01	209.98
354.39	210.24
354.77	210.14
355.15	210.67
355.54	210.38
355.92	209.95
356.30	210.45
356.68	211.62
357.06	211.79
357.44	211.55
357.82	211.29
358.20	212.05
358.58	211.95
358.97	211.83
359.35	212.31
359.73	212.95
360.11	213.05
360.49	213.19
360.87	213.33
361.25	213.43
361.63	214.19
362.01	214.50
362.39	214.14
362.77	214.19
363.15	213.62
363.53	213.76
363.91	213.79
364.29	213.60
364.67	211.62
365.05	211.67
365.43	211.90
365.81	212.17
366.19	212.38
366.57	213.19
366.95	213.10
367.33	212.71
367.71	212.55
368.09	212.81
368.47	213.07
368.85	213.02
369.23	213.57
369.61	212.74
369.99	213.62
370.37	213.81
370.75	214.95
371.13	214.90
371.51	214.64
371.89	214.69
372.27	214.74
372.65	215.07
373.03	215.02
373.41	214.95
373.78	215.19
374.16	214.17
374.54	213.60
374.92	213.86
375.30	213.88
375.68	213.45
376.06	213.79
376.44	213.55
376.82	213.98
377.19	214.02
377.57	214.17
377.95	213.29
378.33	213.14
378.71	211.71
379.09	212.07
379.47	212.29
379.84	212.17
380.22	212.07
380.60	211.88
380.98	211.86
381.36	211.81
381.73	211.45
382.11	212.02
382.49	212.12
382.87	211.69
383.25	211.67
383.62	214.33
384.00	213.67
384.38	213.69
384.76	213.86
385.13	214.50
385.51	214.57
385.89	214.40
386.27	214.67
386.64	215.26
387.02	215.12
387.40	214.93
387.78	215.36
388.15	215.36
388.53	215.24
388.91	215.29
389.29	215.14
389.66	215.52
390.04	215.07
390.42	215.50
390.79	215.55
391.17	215.48
391.55	213.00
391.92	213.07
392.30	213.33
392.68	212.98
393.05	212.71
393.43	212.76
393.81	213.24
394.18	212.76
394.56	212.55
394.94	212.95
395.31	212.86
395.69	213.31
396.06	213.60
396.44	213.95
396.82	213.88
397.19	215.12
397.57	214.88
397.95	215.50
398.32	214.83
398.70	215.21
399.07	215.67
399.45	215.67
399.82	215.69
400.20	215.55
400.58	215.36
400.95	214.62
401.33	214.95
401.70	216.21
402.08	216.55
402.45	216.81
402.83	217.00
403.20	217.21
403.58	216.93
403.95	217.40
404.33	217.74
404.71	218.10
405.08	219.17
405.46	219.36
405.83	219.67
406.21	220.12
406.58	220.50
406.96	221.07
407.33	221.93
407.70	222.74
408.08	224.95
408.45	226.07
408.83	227.05
409.20	227.36
409.58	227.02
409.95	228.48
410.33	229.40
410.70	229.64
411.08	231.00
411.45	232.07
411.82	232.55
412.20	234.17
412.57	236.45
412.95	236.10
413.32	237.88
413.69	239.10
414.07	240.74
414.44	242.83
414.82	244.69
415.19	246.76
415.56	248.83
415.94	249.64
416.31	252.40
416.68	255.14
417.06	258.55
417.43	262.10
417.81	265.17
418.18	269.07
418.55	273.21
418.93	277.17
419.30	281.38
419.67	286.38
420.04	290.43
420.42	294.71
420.79	301.98
421.16	307.60
421.54	314.26
421.91	320.57
422.28	326.45
422.66	332.67
423.03	340.95
423.40	347.83
423.77	355.36
424.15	362.43
424.52	370.40
424.89	379.21
425.26	387.00
425.64	394.81
426.01	402.74
426.38	411.60
426.75	420.95
427.13	430.12
427.50	439.69
427.87	449.98
428.24	459.90
428.61	468.48
428.99	479.64
429.36	490.02
429.73	500.95
430.10	512.31
430.47	524.24
430.85	534.43
431.22	546.93
431.59	561.98
431.96	574.83
432.33	588.67
432.70	601.83
433.08	617.83
433.45	632.69
433.82	647.88
434.19	665.10
434.56	681.90
434.93	697.74
435.30	713.19
435.68	730.55
436.05	747.79
436.42	764.40
436.79	780.24
437.16	797.69
437.53	815.52
437.90	833.93
438.27	852.12
438.64	870.57
439.01	887.62
439.38	901.14
439.75	915.74
440.13	931.81
440.50	947.48
440.87	959.33
441.24	973.07
441.61	988.02
441.98	998.38
442.35	1010.14
442.72	1023.02
443.09	1036.62
443.46	1044.29
443.83	1049.62
444.20	1054.36
444.57	1060.24
444.94	1063.67
445.31	1067.10
445.68	1072.52
446.05	1073.90
446.42	1072.69
446.79	1071.86
447.16	1069.86
447.53	1069.10
447.90	1063.19
448.27	1056.43
448.64	1048.10
449.01	1041.79
449.37	1030.67
449.74	1019.88
450.11	1009.17
450.48	994.00
450.85	977.98
451.22	964.98
451.59	952.98
451.96	941.98
452.33	926.93
452.70	912.83
453.07	896.31
453.43	876.52
453.80	860.00
454.17	844.14
454.54	828.62
454.91	812.24
455.28	795.93
455.65	781.60
456.02	770.52
456.38	758.33
456.75	742.95
457.12	729.43
457.49	716.19
457.86	701.57
458.23	692.12
458.59	680.88
458.96	669.29
459.33	658.69
459.70	647.88
460.07	639.14
460.43	629.12
460.80	620.55
461.17	613.19
461.54	604.52
461.91	596.50
462.27	588.21
462.64	581.45
463.01	574.45
463.38	567.76
463.74	557.21
464.11	550.19
464.48	544.17
464.85	538.17
465.21	534.29
465.58	529.33
465.95	522.43
466.32	517.31
466.68	512.12
467.05	507.21
467.42	501.74
467.78	496.21
468.15	491.33
468.52	487.55
468.88	481.86
469.25	477.33
469.62	473.83
469.98	470.12
470.35	466.62
470.72	463.07
471.08	458.31
471.45	455.76
471.82	453.45
472.18	449.90
472.55	447.12
472.92	443.45
473.28	440.45
473.65	438.12
474.02	435.24
474.38	433.43
474.75	431.38
475.11	429.67
475.48	428.48
475.85	426.57
476.21	424.45
476.58	423.24
476.94	421.98
477.31	420.40
477.67	418.76
478.04	417.83
478.41	416.86
478.77	418.48
479.14	417.10
479.50	416.50
479.87	416.64
480.23	416.10
480.60	415.40
480.96	415.38
481.33	416.17
481.69	416.17
482.06	416.38
482.42	416.76
482.79	417.02
483.15	416.93
483.52	418.57
483.88	418.86
484.25	419.52
484.61	420.17
484.98	420.76
485.34	423.00
485.71	424.19
486.07	425.57
486.44	425.10
486.80	426.90
487.17	428.40
487.53	430.57
487.90	433.02
488.26	436.14
488.62	438.71
488.99	440.26
489.35	443.10
489.72	445.67
490.08	447.88
490.44	450.21
490.81	453.60
491.17	455.98
491.54	459.81
491.90	463.76
492.26	467.55
492.63	471.93
492.99	474.88
493.36	479.24
493.72	483.64
494.08	488.05
494.45	492.64
494.81	497.88
495.17	502.10
495.54	507.21
495.90	511.95
496.26	517.00
496.63	522.74
496.99	528.26
497.35	533.40
497.72	539.74
498.08	546.10
498.44	552.12
498.80	558.79
499.17	564.83
499.53	571.07
499.89	577.86
500.26	583.83
500.62	590.45
500.98	597.62
501.34	604.19
501.71	611.79
502.07	618.71
502.43	625.14
502.79	632.50
503.16	639.29
503.52	646.60
503.88	653.50
504.24	660.69
504.60	668.38
504.97	676.86
505.33	684.48
505.69	692.86
506.05	700.45
506.41	707.86
506.78	715.31
507.14	722.57
507.50	730.62
507.86	738.45
508.22	746.64
508.59	753.67
508.95	761.81
509.31	770.10
509.67	777.83
510.03	785.33
510.39	793.24
510.75	801.90
511.12	809.07
511.48	817.17
511.84	824.48
512.20	831.88
512.56	838.79
512.92	846.31
513.28	853.83
513.64	861.33
514.00	869.19
514.37	876.74
514.73	884.52
515.09	891.17
515.45	898.69
515.81	905.33
516.17	911.74
516.53	918.05
516.89	923.71
517.25	930.83
517.61	938.76
517.97	944.81
518.33	950.64
518.69	957.12
519.05	964.17
519.41	970.36
519.77	977.81
520.13	984.02
520.49	989.67
520.85	994.79
521.21	1001.95
521.57	1007.57
521.93	1012.69
522.29	1018.21
522.65	1024.76
523.01	1029.69
523.37	1034.76
523.73	1040.21
524.09	1044.76
524.45	1049.95
524.81	1055.05
525.17	1059.43
525.53	1064.57
525.89	1069.29
526.25	1074.60
526.61	1078.36
526.97	1083.26
527.33	1087.12
527.68	1093.64
528.04	1097.88
528.40	1101.02
528.76	1104.12
529.12	1107.40
529.48	1112.76
529.84	1115.93
530.20	1119.21
530.56	1123.76
530.91	1128.07
531.27	1132.40
531.63	1137.55
531.99	1141.05
532.35	1143.88
532.71	1146.33
533.07	1150.19
533.42	1156.69
533.78	1160.98
534.14	1165.67
534.50	1168.93
534.86	1173.43
535.21	1175.24
535.57	1180.12
535.93	1184.26
536.29	1189.24
536.65	1194.00
537.00	1196.79
537.36	1200.93
537.72	1204.74
538.08	1208.40
538.44	1211.90
538.79	1215.52
539.15	1217.62
539.51	1221.29
539.87	1225.12
540.22	1229.55
540.58	1232.31
540.94	1233.00
541.29	1235.81
541.65	1237.57
542.01	1241.38
542.37	1243.26
542.72	1245.31
543.08	1246.93
543.44	1250.88
543.79	1250.90
544.15	1253.40
544.51	1257.55
544.87	1261.12
545.22	1263.74
545.58	1266.64
545.94	1268.83
546.29	1271.55
546.65	1275.33
547.01	1277.48
547.36	1279.64
547.72	1281.60
548.07	1285.00
548.43	1287.48
548.79	1289.98
549.14	1292.86
549.50	1295.98
549.86	1297.62
550.21	1301.07
550.57	1304.26
550.92	1306.07
551.28	1310.69
551.64	1313.17
551.99	1315.26
552.35	1317.17
552.70	1319.83
553.06	1322.14
553.41	1325.86
553.77	1330.71
554.13	1333.90
554.48	1338.33
554.84	1342.55
555.19	1347.07
555.55	1352.21
555.90	1356.29
556.26	1359.69
556.61	1363.64
556.97	1366.50
557.32	1370.95
557.68	1374.14
558.03	1377.29
558.39	1381.76
558.74	1385.14
559.10	1389.71
559.45	1393.74
559.81	1398.21
560.16	1402.50
560.52	1406.88
560.87	1411.50
561.23	1413.50
561.58	1419.69
561.94	1423.40
562.29	1428.55
562.64	1433.17
563.00	1436.45
563.35	1441.05
563.71	1446.17
564.06	1450.95
564.42	1457.05
564.77	1463.55
565.12	1469.93
565.48	1478.12
565.83	1484.33
566.19	1489.69
566.54	1495.00
566.89	1500.36
567.25	1507.21
567.60	1514.71
567.96	1522.29
568.31	1528.40
568.66	1535.21
569.02	1539.07
569.37	1545.00
569.72	1549.83
570.08	1554.90
570.43	1560.33
570.78	1566.12
571.14	1570.74
571.49	1575.71
571.84	1580.38
572.20	1585.29
572.55	1589.55
572.90	1592.33
573.26	1596.48
573.61	1601.88
573.96	1606.93
574.31	1612.07
574.67	1615.60
575.02	1618.02
575.37	1620.40
575.72	1623.76
576.08	1627.60
576.43	1632.00
576.78	1635.64
577.13	1639.86
577.49	1643.33
577.84	1646.62
578.19	1649.33
578.54	1654.33
578.90	1659.00
579.25	1662.43
579.60	1664.29
579.95	1667.62
580.30	1671.02
580.66	1675.48
581.01	1679.05
581.36	1682.07
581.71	1684.12
582.06	1689.12
582.42	1693.62
582.77	1696.79
583.12	1700.76
583.47	1703.86
583.82	1706.71
584.17	1709.74
584.53	1713.40
584.88	1716.98
585.23	1720.88
585.58	1724.00
585.93	1725.55
586.28	1728.21
586.63	1730.57
586.98	1733.88
587.34	1737.38
587.69	1739.62
588.04	1741.60
588.39	1743.31
588.74	1744.93
589.09	1748.55
589.44	1748.14
589.79	1749.57
590.14	1751.26
590.49	1753.36
590.84	1754.05
591.19	1755.95
591.54	1757.74
591.89	1759.55
592.25	1762.45
592.60	1763.19
592.95	1764.69
593.30	1766.69
593.65	1768.24
594.00	1769.17
594.35	1776.40
594.70	1776.57
595.05	1777.38
595.40	1777.17
595.75	1777.52
596.10	1779.19
596.45	1779.69
596.80	1781.43
597.15	1781.88
597.50	1782.67
597.85	1783.50
598.19	1784.79
598.54	1784.31
598.89	1784.67
599.24	1784.38
599.59	1783.02
599.94	1783.05
600.29	1783.71
600.64	1782.55
600.99	1782.57
601.34	1783.24
601.69	1777.36
602.04	1777.00
602.39	1776.57
602.74	1777.19
603.08	1777.45
603.43	1777.19
603.78	1775.95
604.13	1774.71
604.48	1773.90
604.83	1773.00
605.18	1772.05
605.53	1772.12
605.87	1771.62
606.22	1770.33
606.57	1768.83
606.92	1768.17
607.27	1767.74
607.62	1766.76
607.96	1767.57
608.31	1765.67
608.66	1764.60
609.01	1763.12
609.36	1763.24
609.70	1762.36
610.05	1759.60
610.40	1757.81
610.75	1756.10
611.10	1754.24
611.44	1751.67
611.79	1749.36
612.14	1747.52
612.49	1743.33
612.83	1740.33
613.18	1737.31
613.53	1734.67
613.88	1731.55
614.22	1727.45
614.57	1723.19
614.92	1719.26
615.27	1715.38
615.61	1711.19
615.96	1707.05
616.31	1702.93
616.65	1699.40
617.00	1695.69
617.35	1693.83
617.70	1690.79
618.04	1686.45
618.39	1683.17
618.74	1680.29
619.08	1676.83
619.43	1673.81
619.78	1671.14
620.12	1667.10
620.47	1663.83
620.82	1659.38
621.16	1654.67
621.51	1652.33
621.85	1649.17
622.20	1644.98
622.55	1640.52
622.89	1637.64
623.24	1635.40
623.59	1632.21
623.93	1627.40
624.28	1623.29
624.62	1620.74
624.97	1617.81
625.32	1613.05
625.66	1608.86
626.01	1604.95
626.35	1601.26
626.70	1597.33
627.04	1593.60
627.39	1589.93
627.73	1586.45
628.08	1583.69
628.43	1580.33
628.77	1576.43
629.12	1572.40
629.46	1569.07
629.81	1564.43
630.15	1559.50
630.50	1553.69
630.84	1548.40
631.19	1544.17
631.53	1540.00
631.88	1532.60
632.22	1525.29
632.57	1521.86
632.91	1516.69
633.26	1512.10
633.60	1506.69
633.95	1500.36
634.29	1494.48
634.64	1489.86
634.98	1484.50
635.32	1479.83
635.67	1475.93
636.01	1471.14
636.36	1466.55
636.70	1462.05
637.05	1458.48
637.39	1454.45
637.73	1450.36
638.08	1446.69
638.42	1442.26
638.77	1437.55
639.11	1432.90
639.45	1429.48
639.80	1424.31
640.14	1419.76
640.49	1414.26
640.83	1408.52
641.17	1404.60
641.52	1400.62
641.86	1395.33
642.20	1391.10
642.55	1385.55
642.89	1379.76
643.23	1373.55
643.58	1368.83
643.92	1362.10
644.26	1356.52
644.61	1351.17
644.95	1344.83
645.29	1338.57
645.64	1332.52
645.98	1326.83
646.32	1321.55
646.66	1315.00
647.01	1308.71
647.35	1303.50
647.69	1297.81
648.04	1293.05
648.38	1286.74
648.72	1280.38
649.06	1274.14
649.41	1267.40
649.75	1260.33
650.09	1253.81
650.43	1247.38
650.78	1240.26
651.12	1234.14
651.46	1227.45
651.80	1221.10
652.14	1214.74
652.49	1208.57
652.83	1202.07
653.17	1195.26
653.51	1188.69
653.85	1182.52
654.20	1176.40
654.54	1169.05
654.88	1162.40
655.22	1156.21
655.56	1149.67
655.90	1143.17
656.25	1136.57
656.59	1130.43
656.93	1124.38
657.27	1119.36
657.61	1112.76
657.95	1106.26
658.29	1100.12
658.64	1093.67
658.98	1086.98
659.32	1080.02
659.66	1073.81
660.00	1067.45
660.34	1061.38
660.68	1055.05
661.02	1048.69
661.36	1042.07
661.70	1036.67
662.05	1030.71
662.39	1024.24
662.73	1018.81
663.07	1013.57
663.41	1007.67
663.75	1001.02
664.09	995.50
664.43	988.40
664.77	982.95
665.11	976.81
665.45	971.17
665.79	965.60
666.13	959.36
666.47	954.02
666.81	947.86
667.15	942.24
667.49	937.60
667.83	932.95
668.17	927.45
668.51	922.10
668.85	916.48
669.19	911.76
669.53	905.60
669.87	899.38
670.21	893.48
670.55	887.76
670.89	883.29
671.23	877.71
671.57	872.10
671.91	866.40
672.25	861.24
672.58	856.93
672.92	850.57
673.26	845.69
673.60	840.60
673.94	835.57
674.28	830.19
674.62	824.48
674.96	818.71
675.30	813.52
675.64	808.62
675.97	803.17
676.31	797.33
676.65	792.24
676.99	788.48
677.33	782.74
677.67	778.24
678.01	772.74
678.34	767.93
678.68	763.31
679.02	758.19
679.36	752.88
679.70	747.05
680.04	742.74
680.37	737.67
680.71	732.43
681.05	727.71
681.39	722.67
681.73	718.14
682.06	712.76
682.40	708.17
682.74	703.52
683.08	699.38
683.42	694.21
683.75	689.95
684.09	684.21
684.43	679.76
684.77	674.57
685.10	669.64
685.44	664.67
685.78	659.95
686.12	656.31
686.45	652.05
686.79	647.71
687.13	643.40
687.46	638.98
687.80	635.00
688.14	631.02
688.48	627.07
688.81	622.26
689.15	618.79
689.49	614.40
689.82	609.71
690.16	604.55
690.50	600.36
690.83	595.98
691.17	591.57
691.51	587.31
691.84	583.57
692.18	579.64
692.52	575.90
692.85	572.36
693.19	568.98
693.52	565.00
693.86	560.64
694.20	556.93
694.53	552.71
694.87	548.83
695.21	544.05
695.54	540.14
695.88	535.71
696.21	530.93
696.55	526.98
696.88	523.74
697.22	520.38
697.56	517.50
697.89	513.79
698.23	510.76
698.56	507.24
698.90	503.83
699.23	500.10
699.57	496.86
699.90	493.45
700.24	488.98
700.58	485.55
700.91	482.57
701.25	481.31
701.58	479.14
701.92	476.45
702.25	473.88
702.59	470.36
702.92	467.71
703.26	464.98
703.59	462.43
703.93	461.02
704.26	458.29
704.60	455.14
704.93	452.48
705.26	449.36
705.60	447.24
705.93	444.02
706.27	441.83
706.60	439.45
706.94	437.17
707.27	434.50
707.61	432.00
707.94	429.12
708.27	424.64
708.61	421.12
708.94	418.29
709.28	415.67
709.61	413.74
709.94	411.12
710.28	408.76
710.61	406.40
710.95	402.24
711.28	401.17
711.61	398.64
711.95	396.60
712.28	394.19
712.61	391.50
712.95	390.38
713.28	388.93
713.61	386.17
713.95	383.64
714.28	381.36
714.61	379.29
714.95	377.38
715.28	375.10
715.61	373.21
715.95	371.29
716.28	369.07
716.61	367.19
716.95	365.24
717.28	363.33
717.61	361.05
717.94	359.10
718.28	355.38
718.61	353.43
718.94	351.57
719.27	350.05
719.61	348.31
719.94	345.88
720.27	343.21
720.60	341.43
720.94	339.48
721.27	338.17
721.60	336.67
721.93	335.02
722.27	334.19
722.60	332.90
722.93	331.55
723.26	330.62
723.59	328.86
723.93	327.74
724.26	326.52
724.59	325.12
724.92	323.90
725.25	323.71
725.59	322.60
725.92	321.50
726.25	320.19
726.58	319.17
726.91	318.00
727.24	317.19
727.57	316.10
727.91	314.86
728.24	313.88
728.57	312.62
728.90	311.90
729.23	309.88
729.56	309.48
729.89	308.24
730.22	306.62
730.55	305.26
730.89	304.31
731.22	303.31
731.55	302.38
731.88	301.33
732.21	299.93
732.54	298.83
732.87	297.83
733.20	296.74
733.53	295.79
733.86	295.05
734.19	293.64
734.52	292.88
734.85	293.45
735.18	292.31
735.51	292.00
735.84	290.98
736.17	290.93
736.50	289.26
736.83	290.52
737.16	289.74
737.49	289.12
737.82	288.05
738.15	287.33
738.48	286.43
738.81	285.55
739.14	284.38
739.47	283.48
739.80	282.40
740.13	282.00
740.46	280.60
740.79	279.21
741.12	278.38
741.45	277.48
741.78	275.31
742.11	275.00
742.44	273.81
742.77	273.50
743.10	272.26
743.43	271.31
743.75	268.55
744.08	270.55
744.41	269.83
744.74	269.19
745.07	268.36
745.40	267.83
745.73	268.19
746.06	267.60
746.39	267.33
746.71	266.57
747.04	265.67
747.37	265.33
747.70	265.12
748.03	264.50
748.36	264.05
748.68	263.71
749.01	262.67
749.34	262.26
749.67	261.48
750.00	261.29
750.33	262.48
750.65	262.19
750.98	259.29
751.31	258.79
751.64	258.33
751.97	258.81
752.29	258.43
752.62	256.98
752.95	256.40
753.28	255.62
753.60	255.33
753.93	255.10
754.26	254.71
754.59	253.64
754.91	253.26
755.24	252.90
755.57	252.36
755.90	251.71
756.22	251.02
756.55	250.02
756.88	249.31
757.20	247.29
757.53	246.31
757.86	245.60
758.19	245.26
758.51	244.95
758.84	243.43
759.17	242.64
759.49	242.36
759.82	243.24
760.15	243.02
760.47	242.36
760.80	241.40
761.13	241.26
761.45	241.00
761.78	240.76
762.11	240.33
762.43	239.62
762.76	239.24
763.08	239.07
763.41	239.07
763.74	238.50
764.06	238.19
764.39	237.81
764.71	237.40
765.04	236.81
765.37	236.19
765.69	235.86
766.02	235.64
766.34	235.17
766.67	233.98
767.00	233.95
767.32	234.98
767.65	236.17
767.97	235.57
768.30	235.45
768.62	235.00
768.95	234.43
769.27	234.38
769.60	234.45
769.92	233.62
770.25	232.81
770.57	232.52
770.90	232.29
771.22	231.98
771.55	232.00
771.87	231.88
772.20	231.45
772.52	232.79
772.85	235.00
773.17	234.81
773.50	234.24
773.82	233.81
774.15	232.40
774.47	230.88
774.80	230.69
775.12	230.57
775.45	230.36
775.77	230.33
776.09	230.43
776.42	230.26
776.74	230.76
777.07	230.90
777.39	230.64
777.72	230.26
778.04	230.19
778.36	229.79
778.69	229.60
779.01	229.69
779.33	228.07
779.66	225.64
779.98	225.40
780.31	225.52
780.63	226.07
780.95	226.43
781.28	226.52
781.60	226.21
781.92	226.10
782.25	226.10
782.57	225.76
782.89	225.36
783.22	225.07
783.54	224.52
783.86	224.50
784.19	224.55
784.51	225.17
784.83	225.19
785.16	224.98
