SpectraSuite Data File
++++++++++++++++++++++++++++++++++++
Date: Tue Apr 02 18:44:45 EDT 2013
User: group
Dark Spectrum Present: No
Reference Spectrum Present: No
Number of Sampled Component Spectra: 1
Spectrometers: USB2E7196
Integration Time (usec): 580000 (USB2E7196)
Spectra Averaged: 2 (USB2E7196)
Boxcar Smoothing: 10 (USB2E7196)
Correct for Electrical Dark: No (USB2E7196)
Strobe/Lamp Enabled: No (USB2E7196)
Correct for Detector Non-linearity: No (USB2E7196)
Correct for Stray Light: No (USB2E7196)
Number of Pixels in Processed Spectrum: 2048
>>>>>Begin Processed Spectral Data<<<<<
339.09	0.00
339.48	191.50
339.86	193.00
340.24	198.50
340.63	198.50
341.01	231.00
341.39	196.50
341.78	208.00
342.16	213.00
342.54	203.00
342.93	197.45
343.31	207.19
343.69	207.88
344.07	208.36
344.46	209.12
344.84	209.71
345.22	208.57
345.60	209.26
345.99	209.19
346.37	208.98
346.75	209.26
347.13	209.48
347.52	209.38
347.90	210.07
348.28	210.10
348.66	210.60
349.05	210.19
349.43	210.74
349.81	210.88
350.19	210.98
350.57	210.88
350.96	210.95
351.34	211.33
351.72	211.33
352.10	211.55
352.48	211.29
352.87	211.21
353.25	211.33
353.63	211.00
354.01	211.05
354.39	211.17
354.77	211.14
355.15	211.86
355.54	211.88
355.92	211.33
356.30	211.48
356.68	212.76
357.06	212.69
357.44	212.24
357.82	212.14
358.20	213.05
358.58	213.07
358.97	213.19
359.35	213.62
359.73	214.19
360.11	214.12
360.49	214.19
360.87	214.36
361.25	214.69
361.63	215.71
362.01	216.10
362.39	216.14
362.77	216.19
363.15	216.02
363.53	216.02
363.91	216.14
364.29	216.17
364.67	214.12
365.05	214.21
365.43	214.52
365.81	214.95
366.19	215.12
366.57	216.07
366.95	215.90
367.33	215.55
367.71	215.36
368.09	216.10
368.47	216.29
368.85	216.02
369.23	216.33
369.61	215.64
369.99	216.19
370.37	216.33
370.75	217.45
371.13	216.67
371.51	216.69
371.89	216.83
372.27	216.95
372.65	217.21
373.03	217.05
373.41	216.81
373.78	216.52
374.16	215.57
374.54	214.90
374.92	214.95
375.30	214.86
375.68	214.64
376.06	214.52
376.44	214.36
376.82	214.64
377.19	214.40
377.57	214.31
377.95	213.67
378.33	213.52
378.71	212.52
379.09	213.05
379.47	213.00
379.84	212.88
380.22	212.60
380.60	212.14
380.98	212.17
381.36	212.38
381.73	212.24
382.11	212.60
382.49	212.57
382.87	212.24
383.25	212.17
383.62	214.55
384.00	213.98
384.38	214.07
384.76	214.33
385.13	215.19
385.51	215.24
385.89	215.05
386.27	215.24
386.64	215.29
387.02	215.24
387.40	215.17
387.78	215.17
388.15	215.52
388.53	215.43
388.91	215.64
389.29	215.45
389.66	215.62
390.04	215.26
390.42	215.60
390.79	215.88
391.17	215.98
391.55	213.69
391.92	213.71
392.30	213.76
392.68	213.45
393.05	213.10
393.43	213.17
393.81	213.21
394.18	212.76
394.56	212.95
394.94	213.24
395.31	213.19
395.69	213.93
396.06	214.00
396.44	214.40
396.82	214.14
397.19	214.93
397.57	214.98
397.95	215.60
398.32	215.21
398.70	215.14
399.07	215.52
399.45	215.38
399.82	215.64
400.20	215.43
400.58	215.48
400.95	214.83
401.33	215.38
401.70	217.19
402.08	217.36
402.45	217.43
402.83	217.95
403.20	218.07
403.58	217.62
403.95	218.12
404.33	218.50
404.71	218.93
405.08	220.52
405.46	220.57
405.83	220.83
406.21	221.45
406.58	222.12
406.96	222.50
407.33	223.14
407.70	223.74
408.08	226.02
408.45	226.69
408.83	227.69
409.20	227.93
409.58	227.24
409.95	228.60
410.33	229.50
410.70	229.81
411.08	231.07
411.45	232.31
411.82	232.93
412.20	234.71
412.57	237.12
412.95	236.45
413.32	238.21
413.69	239.69
414.07	241.00
414.44	242.90
414.82	244.76
415.19	247.48
415.56	249.71
415.94	251.02
416.31	253.90
416.68	256.79
417.06	260.00
417.43	263.50
417.81	266.71
418.18	270.43
418.55	274.21
418.93	278.12
419.30	282.12
419.67	286.74
420.04	291.17
420.42	295.24
420.79	302.52
421.16	308.26
421.54	315.05
421.91	321.45
422.28	327.62
422.66	334.26
423.03	342.07
423.40	349.02
423.77	355.88
424.15	362.88
424.52	370.95
424.89	379.33
425.26	387.00
425.64	394.33
426.01	402.62
426.38	411.71
426.75	421.40
427.13	431.10
427.50	440.71
427.87	450.57
428.24	460.45
428.61	468.74
428.99	480.10
429.36	490.79
429.73	502.31
430.10	513.45
430.47	525.21
430.85	535.50
431.22	547.95
431.59	562.88
431.96	575.60
432.33	589.31
432.70	603.52
433.08	619.40
433.45	635.12
433.82	650.24
434.19	666.14
434.56	682.88
434.93	698.33
435.30	714.12
435.68	731.67
436.05	748.86
436.42	765.71
436.79	781.02
437.16	797.76
437.53	815.50
437.90	832.83
438.27	850.00
438.64	867.88
439.01	884.76
439.38	899.00
439.75	914.33
440.13	930.60
440.50	945.76
440.87	958.90
441.24	972.12
441.61	987.12
441.98	998.52
442.35	1009.95
442.72	1023.17
443.09	1036.33
443.46	1043.52
443.83	1048.88
444.20	1053.67
444.57	1059.12
444.94	1062.02
445.31	1064.86
445.68	1071.48
446.05	1073.26
446.42	1072.60
446.79	1071.64
447.16	1069.26
447.53	1068.05
447.90	1062.45
448.27	1056.10
448.64	1047.21
449.01	1041.12
449.37	1029.31
449.74	1018.29
450.11	1006.69
450.48	991.40
450.85	975.81
451.22	963.24
451.59	951.45
451.96	939.74
452.33	924.74
452.70	911.19
453.07	894.24
453.43	874.31
453.80	858.10
454.17	841.98
454.54	826.36
454.91	810.26
455.28	793.93
455.65	778.07
456.02	766.62
456.38	754.02
456.75	738.60
457.12	725.74
457.49	712.88
457.86	699.10
458.23	689.55
458.59	677.93
458.96	666.43
459.33	655.64
459.70	645.38
460.07	637.40
460.43	627.40
460.80	618.81
461.17	611.12
461.54	602.48
461.91	594.67
462.27	586.52
462.64	579.50
463.01	572.48
463.38	566.93
463.74	555.98
464.11	549.36
464.48	543.38
464.85	536.93
465.21	532.64
465.58	527.17
465.95	520.38
466.32	515.19
466.68	509.33
467.05	504.21
467.42	499.17
467.78	493.40
468.15	488.86
468.52	485.64
468.88	480.21
469.25	475.64
469.62	472.05
469.98	468.17
470.35	464.38
470.72	460.26
471.08	455.14
471.45	452.93
471.82	449.95
472.18	446.88
472.55	444.62
472.92	441.38
473.28	439.12
473.65	436.33
474.02	433.76
474.38	432.21
474.75	430.26
475.11	427.93
475.48	426.71
475.85	424.95
476.21	422.93
476.58	421.76
476.94	420.83
477.31	419.02
477.67	418.05
478.04	417.21
478.41	416.57
478.77	418.00
479.14	416.67
479.50	416.57
479.87	415.81
480.23	415.52
480.60	414.76
480.96	414.43
481.33	415.76
481.69	416.00
482.06	416.26
482.42	416.69
482.79	416.93
483.15	417.21
483.52	418.05
483.88	418.19
484.25	418.60
484.61	419.19
484.98	420.29
485.34	421.50
485.71	423.00
486.07	424.38
486.44	424.02
486.80	425.29
487.17	426.36
487.53	428.93
487.90	430.98
488.26	433.98
488.62	437.07
488.99	438.31
489.35	440.90
489.72	443.50
490.08	446.07
490.44	448.98
490.81	452.12
491.17	455.10
491.54	459.02
491.90	462.90
492.26	466.67
492.63	470.64
492.99	474.43
493.36	478.12
493.72	482.55
494.08	486.81
494.45	491.98
494.81	497.40
495.17	501.55
495.54	506.88
495.90	511.55
496.26	516.19
496.63	521.90
496.99	527.43
497.35	533.02
497.72	539.26
498.08	545.36
498.44	551.57
498.80	557.98
499.17	563.79
499.53	570.14
499.89	577.02
500.26	583.83
500.62	590.52
500.98	598.36
501.34	605.36
501.71	613.24
502.07	620.29
502.43	626.74
502.79	633.29
503.16	639.52
503.52	646.81
503.88	653.64
504.24	660.88
504.60	668.24
504.97	675.62
505.33	682.62
505.69	691.31
506.05	698.93
506.41	706.17
506.78	714.21
507.14	721.50
507.50	729.05
507.86	737.10
508.22	745.33
508.59	751.93
508.95	759.38
509.31	768.31
509.67	775.57
510.03	783.48
510.39	792.24
510.75	800.60
511.12	807.43
511.48	815.64
511.84	822.93
512.20	830.60
512.56	838.07
512.92	846.02
513.28	853.02
513.64	860.36
514.00	867.71
514.37	874.93
514.73	882.74
515.09	890.29
515.45	896.88
515.81	903.31
516.17	909.83
516.53	916.40
516.89	921.24
517.25	928.67
517.61	935.29
517.97	940.98
518.33	947.43
518.69	955.36
519.05	961.93
519.41	968.43
519.77	975.50
520.13	981.48
520.49	986.67
520.85	992.07
521.21	998.36
521.57	1004.57
521.93	1009.05
522.29	1014.43
522.65	1018.93
523.01	1024.14
523.37	1028.93
523.73	1034.40
524.09	1039.29
524.45	1043.81
524.81	1047.57
525.17	1051.93
525.53	1056.69
525.89	1061.00
526.25	1065.10
526.61	1068.69
526.97	1072.76
527.33	1076.57
527.68	1082.64
528.04	1087.17
528.40	1090.81
528.76	1094.00
529.12	1098.31
529.48	1103.00
529.84	1107.45
530.20	1111.93
530.56	1115.79
530.91	1120.69
531.27	1125.43
531.63	1130.07
531.99	1134.36
532.35	1138.76
532.71	1143.21
533.07	1147.81
533.42	1153.55
533.78	1157.64
534.14	1162.57
534.50	1166.71
534.86	1170.62
535.21	1173.29
535.57	1178.19
535.93	1182.62
536.29	1187.60
536.65	1191.52
537.00	1195.21
537.36	1198.26
537.72	1201.64
538.08	1206.33
538.44	1209.14
538.79	1212.17
539.15	1215.00
539.51	1218.31
539.87	1222.67
540.22	1225.67
540.58	1229.43
540.94	1231.43
541.29	1234.26
541.65	1236.07
542.01	1239.24
542.37	1242.10
542.72	1243.95
543.08	1245.95
543.44	1248.81
543.79	1250.33
544.15	1252.43
544.51	1256.02
544.87	1259.17
545.22	1261.93
545.58	1264.19
545.94	1266.60
546.29	1269.07
546.65	1271.88
547.01	1274.17
547.36	1276.76
547.72	1279.74
548.07	1282.17
548.43	1284.19
548.79	1286.19
549.14	1289.14
549.50	1291.43
549.86	1293.33
550.21	1295.88
550.57	1299.00
550.92	1301.64
551.28	1305.29
551.64	1308.33
551.99	1311.55
552.35	1314.64
552.70	1318.71
553.06	1321.98
553.41	1325.90
553.77	1330.95
554.13	1334.95
554.48	1339.62
554.84	1342.93
555.19	1346.45
555.55	1351.17
555.90	1355.14
556.26	1359.36
556.61	1362.74
556.97	1366.86
557.32	1370.88
557.68	1375.24
558.03	1378.07
558.39	1382.52
558.74	1386.52
559.10	1390.00
559.45	1393.95
559.81	1397.38
560.16	1400.38
560.52	1404.24
560.87	1409.40
561.23	1412.79
561.58	1417.93
561.94	1421.79
562.29	1425.69
562.64	1430.67
563.00	1433.90
563.35	1438.60
563.71	1443.43
564.06	1449.00
564.42	1453.71
564.77	1459.17
565.12	1465.24
565.48	1473.81
565.83	1479.31
566.19	1485.00
566.54	1491.31
566.89	1495.95
567.25	1502.98
567.60	1510.48
567.96	1517.98
568.31	1524.50
568.66	1530.74
569.02	1535.98
569.37	1541.07
569.72	1546.86
570.08	1551.21
570.43	1556.26
570.78	1562.02
571.14	1568.14
571.49	1573.19
571.84	1578.83
572.20	1583.88
572.55	1588.12
572.90	1590.98
573.26	1595.33
573.61	1599.74
573.96	1604.31
574.31	1609.31
574.67	1612.74
575.02	1615.93
575.37	1618.60
575.72	1621.40
576.08	1625.26
576.43	1628.79
576.78	1632.83
577.13	1636.48
577.49	1640.64
577.84	1645.05
578.19	1649.45
578.54	1652.95
578.90	1658.05
579.25	1661.74
579.60	1664.67
579.95	1667.88
580.30	1671.52
580.66	1675.45
581.01	1679.05
581.36	1682.36
581.71	1685.71
582.06	1689.76
582.42	1693.31
582.77	1695.86
583.12	1699.31
583.47	1702.55
583.82	1705.67
584.17	1709.00
584.53	1713.19
584.88	1716.57
585.23	1719.64
585.58	1721.93
585.93	1724.02
586.28	1725.76
586.63	1728.38
586.98	1731.83
587.34	1736.33
587.69	1738.52
588.04	1740.69
588.39	1742.83
588.74	1743.40
589.09	1745.17
589.44	1745.90
589.79	1747.55
590.14	1750.71
590.49	1751.21
590.84	1751.79
591.19	1753.14
591.54	1754.36
591.89	1754.50
592.25	1758.17
592.60	1759.36
592.95	1760.62
593.30	1762.86
593.65	1763.64
594.00	1764.12
594.35	1771.02
594.70	1769.98
595.05	1771.48
595.40	1773.07
595.75	1774.05
596.10	1776.29
596.45	1778.33
596.80	1780.19
597.15	1780.98
597.50	1781.00
597.85	1782.26
598.19	1783.38
598.54	1784.67
598.89	1785.12
599.24	1787.12
599.59	1785.90
599.94	1786.05
600.29	1785.88
600.64	1785.52
600.99	1786.48
601.34	1787.83
601.69	1782.00
602.04	1782.36
602.39	1782.05
602.74	1781.57
603.08	1780.90
603.43	1782.43
603.78	1781.52
604.13	1780.57
604.48	1779.71
604.83	1779.57
605.18	1778.88
605.53	1778.40
605.87	1776.45
606.22	1776.07
606.57	1773.88
606.92	1772.52
607.27	1771.10
607.62	1770.98
607.96	1770.40
608.31	1770.60
608.66	1769.14
609.01	1767.64
609.36	1767.29
609.70	1765.24
610.05	1762.95
610.40	1761.40
610.75	1757.07
611.10	1754.93
611.44	1752.45
611.79	1750.50
612.14	1747.60
612.49	1744.45
612.83	1741.88
613.18	1739.76
613.53	1737.14
613.88	1734.07
614.22	1729.93
614.57	1726.86
614.92	1722.52
615.27	1718.02
615.61	1711.74
615.96	1707.98
616.31	1704.40
616.65	1700.90
617.00	1697.57
617.35	1694.24
617.70	1690.19
618.04	1686.83
618.39	1683.10
618.74	1679.90
619.08	1675.98
619.43	1672.50
619.78	1669.76
620.12	1665.95
620.47	1662.29
620.82	1658.24
621.16	1654.45
621.51	1652.26
621.85	1648.38
622.20	1645.07
622.55	1641.10
622.89	1638.50
623.24	1634.62
623.59	1631.36
623.93	1627.67
624.28	1623.71
624.62	1621.64
624.97	1620.02
625.32	1617.19
625.66	1613.21
626.01	1609.48
626.35	1607.07
626.70	1603.29
627.04	1599.86
627.39	1596.00
627.73	1593.57
628.08	1590.19
628.43	1586.76
628.77	1582.33
629.12	1579.10
629.46	1575.36
629.81	1571.90
630.15	1566.93
630.50	1561.93
630.84	1557.14
631.19	1551.36
631.53	1546.74
631.88	1539.79
632.22	1532.62
632.57	1527.76
632.91	1522.90
633.26	1518.62
633.60	1512.74
633.95	1506.76
634.29	1501.86
634.64	1497.76
634.98	1492.02
635.32	1488.17
635.67	1484.00
636.01	1480.36
636.36	1475.19
636.70	1470.55
637.05	1466.31
637.39	1462.02
637.73	1458.29
638.08	1454.33
638.42	1450.14
638.77	1445.90
639.11	1441.43
639.45	1436.45
639.80	1431.17
640.14	1426.21
640.49	1420.81
640.83	1415.14
641.17	1411.29
641.52	1405.55
641.86	1399.69
642.20	1395.69
642.55	1389.02
642.89	1383.48
643.23	1377.14
643.58	1372.71
643.92	1366.29
644.26	1360.67
644.61	1356.19
644.95	1350.24
645.29	1343.12
645.64	1338.50
645.98	1332.79
646.32	1327.45
646.66	1321.93
647.01	1316.00
647.35	1310.69
647.69	1304.64
648.04	1299.79
648.38	1293.95
648.72	1288.60
649.06	1282.52
649.41	1275.19
649.75	1269.45
650.09	1263.02
650.43	1256.71
650.78	1249.64
651.12	1243.76
651.46	1237.10
651.80	1230.10
652.14	1224.19
652.49	1219.02
652.83	1212.00
653.17	1205.93
653.51	1199.74
653.85	1193.98
654.20	1187.98
654.54	1181.14
654.88	1174.38
655.22	1168.38
655.56	1161.79
655.90	1155.21
656.25	1148.86
656.59	1142.86
656.93	1136.83
657.27	1131.50
657.61	1124.88
657.95	1119.74
658.29	1113.90
658.64	1109.00
658.98	1102.19
659.32	1095.33
659.66	1089.40
660.00	1083.14
660.34	1076.40
660.68	1069.64
661.02	1063.40
661.36	1057.17
661.70	1051.00
662.05	1045.29
662.39	1038.83
662.73	1033.64
663.07	1029.36
663.41	1023.26
663.75	1017.24
664.09	1010.69
664.43	1003.48
664.77	997.33
665.11	990.98
665.45	985.10
665.79	978.81
666.13	973.26
666.47	967.69
666.81	961.50
667.15	956.02
667.49	950.86
667.83	946.31
668.17	940.50
668.51	934.90
668.85	929.90
669.19	925.57
669.53	919.38
669.87	912.95
670.21	905.69
670.55	900.21
670.89	895.31
671.23	889.93
671.57	884.98
671.91	879.90
672.25	873.79
672.58	869.00
672.92	863.02
673.26	858.17
673.60	853.10
673.94	848.02
674.28	842.79
674.62	837.26
674.96	831.62
675.30	827.07
675.64	822.40
675.97	817.19
676.31	811.36
676.65	806.24
676.99	802.07
677.33	797.05
677.67	792.45
678.01	786.21
678.34	781.24
678.68	776.67
679.02	771.93
679.36	767.21
679.70	761.52
680.04	756.40
680.37	751.02
680.71	745.86
681.05	740.95
681.39	736.29
681.73	731.48
682.06	726.33
682.40	721.43
682.74	716.81
683.08	712.86
683.42	707.98
683.75	703.67
684.09	698.17
684.43	693.62
684.77	688.21
685.10	683.81
685.44	679.74
685.78	674.67
686.12	670.00
686.45	665.38
686.79	660.86
687.13	656.76
687.46	652.55
687.80	648.83
688.14	644.31
688.48	640.02
688.81	635.86
689.15	632.07
689.49	627.69
689.82	622.79
690.16	617.00
690.50	612.79
690.83	608.67
691.17	604.14
691.51	599.64
691.84	595.79
692.18	591.86
692.52	587.60
692.85	584.05
693.19	580.95
693.52	577.21
693.86	572.98
694.20	568.60
694.53	565.12
694.87	560.81
695.21	556.93
695.54	552.67
695.88	548.31
696.21	543.86
696.55	539.88
696.88	536.05
697.22	533.07
697.56	529.90
697.89	525.71
698.23	522.57
698.56	519.19
698.90	515.95
699.23	512.24
699.57	508.52
699.90	504.31
700.24	500.00
700.58	496.10
700.91	492.83
701.25	491.36
701.58	488.45
701.92	485.55
702.25	482.31
702.59	478.83
702.92	475.67
703.26	472.81
703.59	469.83
703.93	468.90
704.26	466.05
704.60	462.45
704.93	459.57
705.26	456.60
705.60	453.90
705.93	450.69
706.27	448.33
706.60	446.00
706.94	444.24
707.27	441.31
707.61	438.98
707.94	436.29
708.27	431.88
708.61	428.33
708.94	425.52
709.28	422.76
709.61	420.36
709.94	418.19
710.28	415.88
710.61	413.33
710.95	408.88
711.28	407.76
711.61	405.57
711.95	403.74
712.28	401.26
712.61	398.74
712.95	397.71
713.28	396.21
713.61	393.60
713.95	391.02
714.28	389.12
714.61	386.81
714.95	384.64
715.28	382.36
715.61	380.45
715.95	378.45
716.28	376.33
716.61	374.33
716.95	372.07
717.28	369.76
717.61	367.88
717.94	365.90
718.28	362.17
718.61	360.10
718.94	357.83
719.27	356.00
719.61	354.45
719.94	352.00
720.27	349.14
720.60	347.52
720.94	345.24
721.27	343.50
721.60	342.07
721.93	340.67
722.27	340.12
722.60	338.67
722.93	336.88
723.26	335.50
723.59	333.81
723.93	332.67
724.26	331.50
724.59	329.88
724.92	329.02
725.25	328.50
725.59	327.48
725.92	326.40
726.25	325.07
726.58	323.90
726.91	322.07
727.24	321.07
727.57	319.79
727.91	318.33
728.24	317.24
728.57	315.93
728.90	314.83
729.23	312.71
729.56	312.24
729.89	311.14
730.22	309.90
730.55	308.64
730.89	307.12
731.22	305.55
731.55	304.52
731.88	303.26
732.21	301.64
732.54	300.24
732.87	299.07
733.20	298.36
733.53	297.17
733.86	296.57
734.19	295.40
734.52	294.48
734.85	295.00
735.18	293.90
735.51	293.64
735.84	292.83
736.17	292.79
736.50	291.14
736.83	292.83
737.16	292.29
737.49	291.62
737.82	291.12
738.15	290.81
738.48	289.95
738.81	289.17
739.14	288.00
739.47	287.12
739.80	286.52
740.13	285.50
740.46	284.43
740.79	283.50
741.12	282.64
741.45	281.57
741.78	279.79
742.11	279.50
742.44	278.43
742.77	277.86
743.10	276.52
743.43	275.74
743.75	272.36
744.08	273.71
744.41	273.14
744.74	272.31
745.07	271.17
745.40	270.86
745.73	270.81
746.06	270.45
746.39	270.12
746.71	268.95
747.04	268.10
747.37	267.05
747.70	266.67
748.03	266.14
748.36	265.88
748.68	265.14
749.01	263.90
749.34	263.14
749.67	262.74
750.00	262.55
750.33	263.45
750.65	263.40
750.98	260.69
751.31	260.19
751.64	259.69
751.97	260.57
752.29	259.83
752.62	258.45
752.95	258.02
753.28	257.31
753.60	256.81
753.93	256.98
754.26	257.00
754.59	256.19
754.91	255.24
755.24	254.38
755.57	253.93
755.90	253.57
756.22	253.12
756.55	252.05
756.88	251.31
757.20	249.50
757.53	248.40
757.86	247.88
758.19	247.48
758.51	246.88
758.84	245.12
759.17	244.64
759.49	244.43
759.82	244.95
760.15	244.67
760.47	244.50
760.80	243.50
761.13	243.48
761.45	242.95
761.78	242.86
762.11	242.79
762.43	242.43
762.76	241.81
763.08	241.52
763.41	241.38
763.74	241.14
764.06	240.76
764.39	240.60
764.71	239.98
765.04	239.38
765.37	239.00
765.69	238.74
766.02	238.26
766.34	237.60
766.67	236.36
767.00	236.45
767.32	237.14
767.65	238.24
767.97	237.48
768.30	237.14
768.62	236.79
768.95	236.36
769.27	236.10
769.60	236.31
769.92	235.74
770.25	235.17
770.57	234.71
770.90	234.45
771.22	233.90
771.55	234.05
771.87	234.02
772.20	233.74
772.52	235.05
772.85	237.26
773.17	237.21
773.50	237.05
773.82	236.07
774.15	234.76
774.47	233.21
774.80	232.93
775.12	232.81
775.45	232.55
775.77	232.36
776.09	232.21
776.42	232.21
776.74	232.48
777.07	232.02
777.39	231.71
777.72	231.31
778.04	231.55
778.36	231.17
778.69	230.86
779.01	230.74
779.33	229.02
779.66	226.69
779.98	226.48
780.31	226.14
780.63	227.10
780.95	227.40
781.28	227.17
781.60	226.88
781.92	226.71
782.25	226.48
782.57	226.26
782.89	225.81
783.22	225.12
783.54	224.55
783.86	224.71
784.19	224.45
784.51	224.95
784.83	224.38
785.16	224.21
