SpectraSuite Data File
++++++++++++++++++++++++++++++++++++
Date: Tue Apr 02 18:38:46 EDT 2013
User: group
Dark Spectrum Present: No
Reference Spectrum Present: No
Number of Sampled Component Spectra: 1
Spectrometers: USB2E7196
Integration Time (usec): 580000 (USB2E7196)
Spectra Averaged: 2 (USB2E7196)
Boxcar Smoothing: 10 (USB2E7196)
Correct for Electrical Dark: No (USB2E7196)
Strobe/Lamp Enabled: No (USB2E7196)
Correct for Detector Non-linearity: No (USB2E7196)
Correct for Stray Light: No (USB2E7196)
Number of Pixels in Processed Spectrum: 2048
>>>>>Begin Processed Spectral Data<<<<<
339.09	0.00
339.48	197.00
339.86	196.50
340.24	196.50
340.63	195.50
341.01	231.00
341.39	203.50
341.78	206.00
342.16	210.50
342.54	200.50
342.93	197.86
343.31	207.74
343.69	208.10
344.07	208.62
344.46	209.55
344.84	210.19
345.22	209.17
345.60	209.50
345.99	209.76
346.37	209.76
346.75	210.24
347.13	210.31
347.52	210.40
347.90	211.05
348.28	211.29
348.66	212.05
349.05	211.36
349.43	211.43
349.81	211.57
350.19	211.55
350.57	211.45
350.96	211.69
351.34	211.81
351.72	212.17
352.10	212.21
352.48	211.74
352.87	211.83
353.25	211.95
353.63	211.98
354.01	211.95
354.39	212.12
354.77	212.24
355.15	212.76
355.54	212.45
355.92	211.83
356.30	211.74
356.68	212.76
357.06	213.14
357.44	213.05
357.82	213.12
358.20	214.14
358.58	214.26
358.97	214.43
359.35	215.02
359.73	215.36
360.11	215.45
360.49	215.64
360.87	215.64
361.25	215.74
361.63	216.21
362.01	216.36
362.39	215.98
362.77	216.12
363.15	215.86
363.53	216.29
363.91	216.52
364.29	216.33
364.67	214.52
365.05	214.52
365.43	214.79
365.81	214.81
366.19	215.14
366.57	215.88
366.95	215.74
367.33	215.19
367.71	215.00
368.09	215.48
368.47	215.55
368.85	215.38
369.23	215.76
369.61	215.24
369.99	215.86
370.37	216.26
370.75	217.12
371.13	216.88
371.51	216.43
371.89	216.45
372.27	216.71
372.65	216.93
373.03	216.90
373.41	216.74
373.78	216.88
374.16	215.60
374.54	215.05
374.92	214.83
375.30	214.93
375.68	214.52
376.06	214.71
376.44	214.79
376.82	215.07
377.19	215.00
377.57	214.90
377.95	214.33
378.33	214.19
378.71	212.95
379.09	213.19
379.47	213.64
379.84	213.57
380.22	213.36
380.60	213.17
380.98	213.10
381.36	212.86
381.73	212.57
382.11	213.31
382.49	213.40
382.87	213.48
383.25	213.38
383.62	215.98
384.00	215.17
384.38	215.12
384.76	215.64
385.13	216.36
385.51	216.36
385.89	216.00
386.27	215.95
386.64	216.38
387.02	216.14
387.40	215.93
387.78	216.02
388.15	216.05
388.53	215.83
388.91	215.86
389.29	215.93
389.66	216.21
390.04	215.71
390.42	216.00
390.79	215.98
391.17	216.05
391.55	213.60
391.92	213.76
392.30	213.81
392.68	213.24
393.05	213.21
393.43	213.40
393.81	213.55
394.18	213.50
394.56	213.43
394.94	214.12
395.31	213.93
395.69	214.62
396.06	215.17
396.44	215.67
396.82	215.74
397.19	216.79
397.57	216.60
397.95	217.05
398.32	216.52
398.70	216.86
399.07	217.12
399.45	217.19
399.82	217.26
400.20	217.33
400.58	217.17
400.95	216.26
401.33	216.62
401.70	218.33
402.08	218.55
402.45	218.67
402.83	218.98
403.20	219.31
403.58	219.07
403.95	219.48
404.33	219.64
404.71	220.02
405.08	220.98
405.46	221.33
405.83	221.62
406.21	221.90
406.58	222.21
406.96	222.74
407.33	223.48
407.70	224.36
408.08	226.52
408.45	227.76
408.83	229.26
409.20	229.95
409.58	229.40
409.95	230.79
410.33	232.12
410.70	232.52
411.08	233.81
411.45	235.26
411.82	236.12
412.20	238.00
412.57	240.36
412.95	240.43
413.32	242.33
413.69	244.07
414.07	246.21
414.44	248.10
414.82	250.57
415.19	253.24
415.56	255.83
415.94	257.45
416.31	260.74
416.68	263.43
417.06	267.33
417.43	271.36
417.81	275.29
418.18	279.31
418.55	283.88
418.93	288.52
419.30	293.38
419.67	298.36
420.04	303.38
420.42	308.62
420.79	316.71
421.16	323.43
421.54	331.31
421.91	338.55
422.28	346.12
422.66	353.48
423.03	362.57
423.40	370.71
423.77	379.29
424.15	387.69
424.52	396.93
424.89	406.62
425.26	415.69
425.64	424.88
426.01	434.45
426.38	444.57
426.75	455.71
427.13	466.50
427.50	478.02
427.87	489.83
428.24	501.36
428.61	511.48
428.99	524.62
429.36	537.48
429.73	550.26
430.10	563.38
430.47	577.14
430.85	589.33
431.22	603.67
431.59	620.79
431.96	635.36
432.33	651.45
432.70	667.52
433.08	686.60
433.45	704.19
433.82	722.19
434.19	742.26
434.56	762.07
434.93	780.24
435.30	798.88
435.68	819.83
436.05	840.71
436.42	860.57
436.79	879.14
437.16	898.95
437.53	919.79
437.90	940.69
438.27	961.12
438.64	983.21
439.01	1002.93
439.38	1019.52
439.75	1037.26
440.13	1057.33
440.50	1076.07
440.87	1091.07
441.24	1107.17
441.61	1124.67
441.98	1137.52
442.35	1152.24
442.72	1168.05
443.09	1183.55
443.46	1191.93
443.83	1198.10
444.20	1203.43
444.57	1210.50
444.94	1214.21
445.31	1219.07
445.68	1225.86
446.05	1227.98
446.42	1226.21
446.79	1225.24
447.16	1223.17
447.53	1221.95
447.90	1214.90
448.27	1206.93
448.64	1196.69
449.01	1189.31
449.37	1175.83
449.74	1162.81
450.11	1149.21
450.48	1131.17
450.85	1112.60
451.22	1097.79
451.59	1083.67
451.96	1070.02
452.33	1051.62
452.70	1035.02
453.07	1014.95
453.43	992.05
453.80	973.10
454.17	954.62
454.54	936.50
454.91	916.79
455.28	897.83
455.65	880.02
456.02	866.17
456.38	851.17
456.75	832.26
457.12	817.02
457.49	802.21
457.86	784.93
458.23	773.29
458.59	760.12
458.96	746.38
459.33	733.24
459.70	721.29
460.07	711.71
460.43	700.05
460.80	689.33
461.17	680.07
461.54	670.21
461.91	660.74
462.27	650.93
462.64	642.55
463.01	634.07
463.38	626.05
463.74	613.76
464.11	606.50
464.48	600.33
464.85	592.50
465.21	586.76
465.58	580.79
465.95	573.40
466.32	567.14
466.68	561.29
467.05	555.60
467.42	549.62
467.78	542.79
468.15	536.98
468.52	532.62
468.88	526.64
469.25	520.55
469.62	516.50
469.98	511.98
470.35	508.48
470.72	504.12
471.08	499.19
471.45	496.40
471.82	492.98
472.18	488.90
472.55	486.33
472.92	482.43
473.28	479.21
473.65	475.79
474.02	472.31
474.38	469.57
474.75	467.52
475.11	464.98
475.48	463.12
475.85	461.24
476.21	459.36
476.58	458.19
476.94	457.17
477.31	455.52
477.67	454.12
478.04	452.69
478.41	451.64
478.77	452.76
479.14	451.31
479.50	450.48
479.87	449.86
480.23	449.40
480.60	448.88
480.96	448.81
481.33	449.60
481.69	450.36
482.06	450.57
482.42	450.86
482.79	451.45
483.15	452.31
483.52	453.74
483.88	454.36
484.25	454.83
484.61	456.29
484.98	457.33
485.34	459.36
485.71	461.60
486.07	463.31
486.44	463.31
486.80	465.38
487.17	467.26
487.53	470.26
487.90	472.81
488.26	476.50
488.62	479.67
488.99	482.26
489.35	485.10
489.72	488.31
490.08	491.57
490.44	495.17
490.81	498.98
491.17	502.64
491.54	507.12
491.90	511.64
492.26	515.67
492.63	520.31
492.99	524.48
493.36	529.02
493.72	534.76
494.08	539.83
494.45	545.81
494.81	552.31
495.17	557.50
495.54	563.83
495.90	569.88
496.26	576.05
496.63	582.88
496.99	589.64
497.35	596.62
497.72	603.69
498.08	610.67
498.44	618.43
498.80	626.48
499.17	634.00
499.53	641.95
499.89	650.67
500.26	659.36
500.62	667.93
500.98	677.43
501.34	686.21
501.71	695.86
502.07	704.31
502.43	712.57
502.79	722.19
503.16	731.14
503.52	739.88
503.88	749.00
504.24	758.98
504.60	769.60
504.97	779.57
505.33	789.12
505.69	800.48
506.05	810.26
506.41	819.81
506.78	829.76
507.14	839.79
507.50	849.74
507.86	860.17
508.22	870.86
508.59	879.90
508.95	890.14
509.31	901.14
509.67	911.67
510.03	922.60
510.39	932.57
510.75	943.38
511.12	954.60
511.48	965.52
511.84	975.38
512.20	984.86
512.56	996.29
512.92	1007.10
513.28	1016.86
513.64	1027.40
514.00	1038.64
514.37	1049.98
514.73	1060.90
515.09	1071.86
515.45	1080.93
515.81	1091.17
516.17	1101.17
516.53	1110.29
516.89	1119.21
517.25	1128.90
517.61	1138.55
517.97	1148.14
518.33	1157.33
518.69	1166.52
519.05	1175.98
519.41	1185.67
519.77	1196.67
520.13	1204.50
520.49	1213.19
520.85	1221.29
521.21	1230.57
521.57	1238.64
521.93	1246.86
522.29	1254.64
522.65	1262.26
523.01	1272.38
523.37	1280.17
523.73	1288.55
524.09	1296.81
524.45	1305.07
524.81	1313.07
525.17	1321.10
525.53	1329.52
525.89	1337.48
526.25	1345.07
526.61	1351.50
526.97	1358.88
527.33	1366.19
527.68	1375.64
528.04	1383.90
528.40	1391.12
528.76	1398.57
529.12	1406.67
529.48	1414.12
529.84	1420.62
530.20	1428.43
530.56	1435.12
530.91	1442.79
531.27	1450.93
531.63	1458.50
531.99	1464.05
532.35	1470.64
532.71	1478.10
533.07	1485.64
533.42	1494.43
533.78	1501.62
534.14	1509.62
534.50	1514.90
534.86	1521.19
535.21	1526.81
535.57	1532.81
535.93	1539.40
536.29	1545.64
536.65	1550.98
537.00	1556.67
537.36	1564.02
537.72	1569.48
538.08	1575.26
538.44	1580.57
538.79	1585.76
539.15	1590.98
539.51	1597.69
539.87	1603.57
540.22	1608.07
540.58	1612.71
540.94	1615.76
541.29	1620.81
541.65	1624.50
542.01	1630.38
542.37	1633.79
542.72	1637.26
543.08	1641.02
543.44	1645.64
543.79	1649.14
544.15	1653.10
544.51	1658.40
544.87	1662.07
545.22	1666.48
545.58	1669.31
545.94	1673.62
546.29	1678.24
546.65	1682.67
547.01	1685.62
547.36	1689.00
547.72	1691.76
548.07	1695.07
548.43	1698.02
548.79	1700.69
549.14	1704.00
549.50	1706.76
549.86	1709.55
550.21	1712.76
550.57	1716.36
550.92	1719.31
551.28	1722.64
551.64	1725.67
551.99	1726.90
552.35	1729.19
552.70	1730.93
553.06	1734.67
553.41	1737.05
553.77	1739.62
554.13	1742.50
554.48	1747.17
554.84	1751.02
555.19	1754.17
555.55	1757.67
555.90	1761.21
556.26	1764.10
556.61	1766.67
556.97	1769.43
557.32	1772.26
557.68	1773.81
558.03	1775.81
558.39	1777.69
558.74	1780.40
559.10	1782.83
559.45	1786.26
559.81	1789.52
560.16	1792.43
560.52	1794.48
560.87	1797.17
561.23	1797.83
561.58	1801.14
561.94	1802.50
562.29	1803.88
562.64	1807.45
563.00	1808.50
563.35	1809.86
563.71	1812.19
564.06	1814.57
564.42	1817.33
564.77	1820.36
565.12	1824.19
565.48	1828.43
565.83	1832.17
566.19	1834.60
566.54	1836.55
566.89	1837.33
567.25	1839.48
567.60	1842.60
567.96	1846.24
568.31	1849.36
568.66	1852.81
569.02	1852.86
569.37	1853.26
569.72	1854.57
570.08	1854.36
570.43	1855.14
570.78	1857.10
571.14	1858.02
571.49	1859.26
571.84	1860.52
572.20	1860.05
572.55	1860.10
572.90	1858.31
573.26	1858.05
573.61	1857.36
573.96	1857.88
574.31	1858.31
574.67	1858.10
575.02	1857.19
575.37	1854.45
575.72	1851.67
576.08	1850.10
576.43	1848.38
576.78	1848.10
577.13	1847.50
577.49	1846.71
577.84	1846.88
578.19	1844.50
578.54	1843.88
578.90	1842.45
579.25	1840.19
579.60	1838.69
579.95	1835.81
580.30	1835.14
580.66	1833.26
581.01	1830.69
581.36	1827.86
581.71	1825.07
582.06	1823.29
582.42	1820.79
582.77	1818.48
583.12	1815.55
583.47	1812.52
583.82	1810.64
584.17	1807.88
584.53	1804.90
584.88	1801.71
585.23	1798.05
585.58	1795.36
585.93	1790.24
586.28	1786.33
586.63	1782.86
586.98	1779.62
587.34	1776.95
587.69	1772.14
588.04	1766.86
588.39	1763.64
588.74	1759.38
589.09	1756.45
589.44	1751.21
589.79	1746.55
590.14	1742.17
590.49	1738.00
590.84	1733.36
591.19	1728.57
591.54	1723.48
591.89	1718.71
592.25	1715.64
592.60	1710.98
592.95	1707.36
593.30	1703.83
593.65	1698.90
594.00	1693.71
594.35	1694.95
594.70	1690.43
595.05	1686.67
595.40	1682.29
595.75	1677.43
596.10	1673.95
596.45	1668.88
596.80	1664.19
597.15	1660.31
597.50	1655.17
597.85	1651.12
598.19	1646.02
598.54	1641.64
598.89	1635.81
599.24	1631.64
599.59	1625.71
599.94	1620.43
600.29	1615.19
600.64	1610.10
600.99	1606.29
601.34	1602.74
601.69	1592.48
602.04	1587.21
602.39	1581.43
602.74	1577.14
603.08	1571.83
603.43	1567.62
603.78	1562.48
604.13	1557.40
604.48	1551.45
604.83	1546.60
605.18	1541.60
605.53	1537.05
605.87	1531.29
606.22	1527.10
606.57	1521.38
606.92	1515.50
607.27	1510.05
607.62	1504.10
607.96	1499.07
608.31	1493.90
608.66	1488.19
609.01	1482.07
609.36	1476.33
609.70	1470.52
610.05	1464.76
610.40	1459.12
610.75	1451.26
611.10	1446.00
611.44	1439.19
611.79	1432.64
612.14	1427.43
612.49	1421.26
612.83	1414.21
613.18	1407.45
613.53	1401.00
613.88	1393.74
614.22	1387.48
614.57	1380.71
614.92	1373.86
615.27	1366.05
615.61	1358.67
615.96	1350.64
616.31	1344.33
616.65	1338.10
617.00	1332.24
617.35	1325.64
617.70	1318.62
618.04	1311.83
618.39	1304.60
618.74	1298.98
619.08	1292.05
619.43	1284.64
619.78	1277.74
620.12	1271.69
620.47	1265.64
620.82	1259.12
621.16	1252.45
621.51	1246.74
621.85	1240.07
622.20	1233.71
622.55	1227.52
622.89	1221.10
623.24	1215.60
623.59	1208.83
623.93	1202.60
624.28	1195.93
624.62	1192.33
624.97	1188.07
625.32	1182.76
625.66	1176.79
626.01	1170.17
626.35	1165.14
626.70	1159.00
627.04	1153.26
627.39	1147.69
627.73	1142.50
628.08	1137.29
628.43	1131.69
628.77	1125.19
629.12	1119.12
629.46	1114.12
629.81	1108.14
630.15	1102.14
630.50	1095.55
630.84	1089.31
631.19	1083.40
631.53	1077.29
631.88	1067.90
632.22	1059.81
632.57	1054.45
632.91	1047.45
633.26	1041.88
633.60	1035.88
633.95	1029.90
634.29	1023.21
634.64	1016.81
634.98	1010.10
635.32	1004.48
635.67	999.24
636.01	993.10
636.36	987.29
636.70	981.26
637.05	975.69
637.39	969.60
637.73	964.29
638.08	959.29
638.42	953.14
638.77	947.48
639.11	942.40
639.45	936.86
639.80	929.79
640.14	924.31
640.49	917.95
640.83	911.48
641.17	905.79
641.52	900.38
641.86	894.21
642.20	889.38
642.55	882.86
642.89	877.07
643.23	872.02
643.58	867.88
643.92	861.40
644.26	856.10
644.61	851.17
644.95	845.19
645.29	839.02
645.64	833.69
645.98	828.02
646.32	822.62
646.66	817.10
647.01	812.05
647.35	807.19
647.69	802.12
648.04	796.67
648.38	791.55
648.72	785.76
649.06	781.02
649.41	774.90
649.75	769.12
650.09	762.81
650.43	756.52
650.78	750.14
651.12	744.88
651.46	739.00
651.80	733.43
652.14	728.17
652.49	723.12
652.83	718.43
653.17	713.55
653.51	708.21
653.85	703.57
654.20	698.52
654.54	692.81
654.88	687.74
655.22	683.74
655.56	678.38
655.90	673.95
656.25	668.79
656.59	663.90
656.93	660.02
657.27	656.40
657.61	652.02
657.95	647.86
658.29	643.19
658.64	639.24
658.98	634.60
659.32	629.90
659.66	625.10
660.00	620.02
660.34	615.60
660.68	611.24
661.02	606.74
661.36	602.21
661.70	598.36
662.05	594.12
662.39	589.67
662.73	586.69
663.07	583.38
663.41	579.52
663.75	575.29
664.09	570.62
664.43	565.81
664.77	561.81
665.11	557.57
665.45	553.86
665.79	550.57
666.13	546.31
666.47	542.86
666.81	539.38
667.15	535.31
667.49	532.00
667.83	528.86
668.17	525.21
668.51	522.00
668.85	518.55
669.19	516.12
669.53	512.05
669.87	507.86
670.21	504.05
670.55	500.62
670.89	498.88
671.23	496.00
671.57	493.29
671.91	490.64
672.25	487.76
672.58	485.62
672.92	481.93
673.26	479.21
673.60	476.26
673.94	473.36
674.28	471.36
674.62	468.55
674.96	465.45
675.30	462.86
675.64	460.29
675.97	457.81
676.31	454.62
676.65	452.17
676.99	450.50
677.33	447.62
677.67	445.10
678.01	441.62
678.34	439.07
678.68	436.57
679.02	433.55
679.36	430.64
679.70	427.14
680.04	424.62
680.37	423.05
680.71	420.45
681.05	418.40
681.39	415.83
681.73	413.26
682.06	410.69
682.40	408.12
682.74	406.07
683.08	404.24
683.42	401.52
683.75	399.98
684.09	396.76
684.43	394.60
684.77	392.29
685.10	389.86
685.44	387.74
685.78	385.69
686.12	383.48
686.45	381.50
686.79	379.74
687.13	378.57
687.46	376.05
687.80	374.98
688.14	372.98
688.48	371.17
688.81	369.48
689.15	368.17
689.49	366.55
689.82	364.71
690.16	362.17
690.50	360.60
690.83	358.26
691.17	356.50
691.51	354.69
691.84	353.48
692.18	351.79
692.52	350.43
692.85	349.14
693.19	348.45
693.52	346.98
693.86	345.24
694.20	342.98
694.53	341.57
694.87	339.38
695.21	337.64
695.54	335.76
695.88	334.00
696.21	332.02
696.55	330.55
696.88	329.00
697.22	327.64
697.56	326.57
697.89	325.31
698.23	324.38
698.56	322.98
698.90	321.79
699.23	320.24
699.57	319.00
699.90	317.29
700.24	315.43
700.58	314.29
700.91	313.52
701.25	313.90
701.58	313.19
701.92	312.48
702.25	311.43
702.59	310.36
702.92	309.33
703.26	308.24
703.59	307.07
703.93	307.50
704.26	306.76
704.60	305.55
704.93	304.50
705.26	302.88
705.60	302.55
705.93	300.90
706.27	300.74
706.60	299.95
706.94	299.95
707.27	298.74
707.61	297.98
707.94	296.74
708.27	294.19
708.61	292.60
708.94	291.60
709.28	290.95
709.61	289.86
709.94	288.81
710.28	287.98
710.61	286.95
710.95	284.00
711.28	284.38
711.61	283.55
711.95	283.05
712.28	282.50
712.61	281.24
712.95	281.95
713.28	281.81
713.61	280.55
713.95	278.95
714.28	278.57
714.61	277.52
714.95	277.02
715.28	276.14
715.61	275.52
715.95	275.40
716.28	274.48
716.61	274.02
716.95	273.29
717.28	272.50
717.61	271.88
717.94	271.40
718.28	269.33
718.61	268.57
718.94	267.48
719.27	266.67
719.61	266.10
719.94	264.52
720.27	262.86
720.60	262.12
720.94	261.55
721.27	260.93
721.60	260.74
721.93	259.90
722.27	260.36
722.60	260.14
722.93	258.95
723.26	258.52
723.59	258.00
723.93	257.76
724.26	257.36
724.59	256.83
724.92	256.62
725.25	256.76
725.59	256.26
725.92	256.24
726.25	256.02
726.58	255.88
726.91	255.17
727.24	254.86
727.57	254.45
727.91	253.74
728.24	253.55
728.57	252.52
728.90	252.31
729.23	250.95
729.56	251.40
729.89	250.74
730.22	250.14
730.55	249.64
730.89	249.31
731.22	248.83
731.55	248.76
731.88	248.67
732.21	247.76
732.54	247.24
732.87	246.86
733.20	246.31
733.53	246.07
733.86	246.17
734.19	245.93
734.52	246.02
734.85	247.43
735.18	246.57
735.51	247.24
735.84	247.21
736.17	247.74
736.50	246.29
736.83	248.55
737.16	248.48
737.49	248.31
737.82	247.79
738.15	248.00
738.48	247.40
738.81	246.79
739.14	246.38
739.47	246.05
739.80	245.67
740.13	245.69
740.46	244.88
740.79	244.43
741.12	244.02
741.45	243.40
741.78	241.93
742.11	242.67
742.44	242.02
742.77	241.86
743.10	241.05
743.43	240.79
743.75	238.10
744.08	240.40
744.41	239.88
744.74	239.57
745.07	238.64
745.40	238.79
745.73	239.45
746.06	239.19
746.39	239.24
746.71	238.69
747.04	238.19
747.37	238.05
747.70	238.02
748.03	237.93
748.36	238.26
748.68	237.95
749.01	236.86
749.34	236.38
749.67	236.00
750.00	236.21
750.33	237.31
750.65	237.33
750.98	234.55
751.31	234.57
751.64	234.33
751.97	235.67
752.29	235.50
752.62	234.24
752.95	234.17
753.28	233.55
753.60	233.29
753.93	233.69
754.26	233.55
754.59	232.81
754.91	232.36
755.24	232.00
755.57	231.57
755.90	231.40
756.22	231.21
756.55	230.62
756.88	229.81
757.20	228.36
757.53	227.60
757.86	227.38
758.19	227.48
758.51	227.50
758.84	226.12
759.17	225.48
759.49	225.74
759.82	226.33
760.15	226.67
760.47	226.52
760.80	226.00
761.13	226.14
761.45	225.90
761.78	225.86
762.11	225.67
762.43	225.64
762.76	225.29
763.08	225.29
763.41	225.64
763.74	225.64
764.06	225.50
764.39	225.71
764.71	225.36
765.04	224.86
765.37	224.55
765.69	224.26
766.02	224.33
766.34	223.95
766.67	223.24
767.00	223.38
767.32	224.62
767.65	225.67
767.97	225.36
768.30	225.64
768.62	225.38
768.95	224.98
769.27	224.60
769.60	225.21
769.92	224.74
770.25	224.21
770.57	223.90
770.90	223.79
771.22	223.52
771.55	223.83
771.87	223.74
772.20	223.57
772.52	225.21
772.85	227.43
773.17	227.40
773.50	227.17
773.82	226.83
774.15	225.67
774.47	224.24
774.80	223.95
775.12	223.74
775.45	223.67
775.77	223.71
776.09	223.90
776.42	223.71
776.74	224.38
777.07	224.29
777.39	224.50
777.72	224.50
778.04	224.69
778.36	224.12
778.69	224.40
779.01	224.57
779.33	222.88
779.66	220.81
779.98	220.45
780.31	220.33
780.63	220.90
780.95	221.21
781.28	221.17
781.60	221.00
781.92	220.86
782.25	220.95
782.57	220.83
782.89	220.67
783.22	220.17
783.54	219.74
783.86	219.98
784.19	219.83
784.51	220.24
784.83	219.88
785.16	220.24
785.48	219.93
785.80	220.00
786.12	220.38
