SpectraSuite Data File
++++++++++++++++++++++++++++++++++++
Date: Tue Apr 02 18:45:18 EDT 2013
User: group
Dark Spectrum Present: No
Reference Spectrum Present: No
Number of Sampled Component Spectra: 1
Spectrometers: USB2E7196
Integration Time (usec): 580000 (USB2E7196)
Spectra Averaged: 2 (USB2E7196)
Boxcar Smoothing: 10 (USB2E7196)
Correct for Electrical Dark: No (USB2E7196)
Strobe/Lamp Enabled: No (USB2E7196)
Correct for Detector Non-linearity: No (USB2E7196)
Correct for Stray Light: No (USB2E7196)
Number of Pixels in Processed Spectrum: 2048
>>>>>Begin Processed Spectral Data<<<<<
339.09	0.00
339.48	193.50
339.86	196.00
340.24	194.00
340.63	193.00
341.01	231.50
341.39	199.00
341.78	204.00
342.16	211.00
342.54	200.50
342.93	196.43
343.31	206.21
343.69	206.81
344.07	207.21
344.46	208.05
344.84	209.14
345.22	207.98
345.60	208.43
345.99	208.69
346.37	208.71
346.75	209.12
347.13	209.02
347.52	209.52
347.90	210.40
348.28	210.64
348.66	211.24
349.05	210.40
349.43	210.88
349.81	210.88
350.19	210.93
350.57	211.07
350.96	211.45
351.34	211.88
351.72	212.05
352.10	212.36
352.48	212.12
352.87	211.81
353.25	212.00
353.63	212.02
354.01	212.14
354.39	212.17
354.77	212.33
355.15	213.21
355.54	212.95
355.92	212.33
356.30	212.48
356.68	213.81
357.06	214.00
357.44	213.64
357.82	213.69
358.20	214.76
358.58	214.67
358.97	214.60
359.35	214.90
359.73	215.43
360.11	215.24
360.49	215.29
360.87	215.50
361.25	215.79
361.63	216.45
362.01	216.50
362.39	216.45
362.77	216.40
363.15	216.19
363.53	216.24
363.91	216.43
364.29	216.33
364.67	214.38
365.05	214.55
365.43	214.90
365.81	215.24
366.19	215.19
366.57	216.10
366.95	216.02
367.33	215.55
367.71	215.26
368.09	215.83
368.47	215.76
368.85	215.43
369.23	215.67
369.61	214.98
369.99	215.55
370.37	215.79
370.75	216.86
371.13	216.19
371.51	215.67
371.89	215.83
372.27	215.95
372.65	215.93
373.03	215.90
373.41	215.38
373.78	215.26
374.16	214.02
374.54	213.21
374.92	213.02
375.30	212.98
375.68	212.74
376.06	212.60
376.44	212.62
376.82	212.90
377.19	212.88
377.57	212.76
377.95	212.02
378.33	211.81
378.71	210.48
379.09	211.00
379.47	211.43
379.84	211.12
380.22	210.88
380.60	210.81
380.98	210.50
381.36	210.62
381.73	210.38
382.11	211.10
382.49	211.29
382.87	211.19
383.25	211.19
383.62	213.60
384.00	213.19
384.38	213.40
384.76	213.76
385.13	214.60
385.51	214.69
385.89	214.57
386.27	214.64
386.64	214.95
387.02	214.69
387.40	214.57
387.78	214.71
388.15	215.02
388.53	214.98
388.91	215.24
389.29	215.26
389.66	215.45
390.04	215.05
390.42	215.19
390.79	215.24
391.17	215.24
391.55	213.07
391.92	213.36
392.30	213.38
392.68	212.95
393.05	212.55
393.43	212.86
393.81	213.10
394.18	213.00
394.56	213.31
394.94	213.86
395.31	213.69
395.69	214.43
396.06	214.55
396.44	214.60
396.82	214.38
397.19	215.43
397.57	215.38
397.95	215.64
398.32	215.17
398.70	215.50
399.07	215.86
399.45	215.55
399.82	215.43
400.20	215.26
400.58	215.12
400.95	214.26
401.33	214.60
401.70	216.10
402.08	216.17
402.45	216.24
402.83	216.81
403.20	217.17
403.58	216.93
403.95	217.29
404.33	217.95
404.71	218.36
405.08	219.60
405.46	219.98
405.83	220.52
406.21	220.86
406.58	221.40
406.96	221.71
407.33	222.43
407.70	223.00
408.08	225.48
408.45	226.57
408.83	227.86
409.20	228.29
409.58	227.62
409.95	228.67
410.33	229.50
410.70	229.81
411.08	230.93
411.45	231.86
411.82	232.64
412.20	233.90
412.57	236.57
412.95	236.02
413.32	237.71
413.69	239.05
414.07	240.90
414.44	242.62
414.82	244.62
415.19	247.14
415.56	249.52
415.94	250.57
416.31	253.52
416.68	256.00
417.06	259.43
417.43	263.12
417.81	266.48
418.18	269.74
418.55	273.45
418.93	277.26
419.30	281.62
419.67	285.93
420.04	290.45
420.42	294.21
420.79	301.24
421.16	306.57
421.54	313.52
421.91	319.62
422.28	325.60
422.66	332.19
423.03	339.86
423.40	346.69
423.77	353.83
424.15	360.74
424.52	368.45
424.89	376.31
425.26	383.81
425.64	391.36
426.01	399.95
426.38	408.57
426.75	418.24
427.13	426.81
427.50	436.38
427.87	446.12
428.24	455.98
428.61	464.36
428.99	475.38
429.36	485.76
429.73	496.95
430.10	508.79
430.47	520.17
430.85	530.33
431.22	542.98
431.59	557.69
431.96	570.48
432.33	584.48
432.70	598.21
433.08	614.24
433.45	629.14
433.82	644.02
434.19	661.10
434.56	677.48
434.93	693.62
435.30	709.31
435.68	726.62
436.05	743.43
436.42	760.57
436.79	776.50
437.16	794.17
437.53	812.31
437.90	829.36
438.27	847.10
438.64	865.31
439.01	882.17
439.38	895.64
439.75	910.07
440.13	926.74
440.50	942.50
440.87	955.10
441.24	968.71
441.61	984.12
441.98	994.86
442.35	1007.67
442.72	1020.50
443.09	1034.19
443.46	1042.07
443.83	1047.88
444.20	1052.07
444.57	1058.71
444.94	1061.29
445.31	1064.50
445.68	1070.10
446.05	1071.62
446.42	1070.38
446.79	1069.05
447.16	1067.81
447.53	1066.98
447.90	1060.67
448.27	1053.93
448.64	1045.19
449.01	1038.90
449.37	1027.10
449.74	1015.88
450.11	1004.10
450.48	989.29
450.85	973.38
451.22	960.48
451.59	948.71
451.96	937.71
452.33	921.57
452.70	907.48
453.07	890.26
453.43	871.24
453.80	854.93
454.17	839.62
454.54	824.31
454.91	807.43
455.28	791.26
455.65	776.90
456.02	766.14
456.38	754.21
456.75	738.90
457.12	725.76
457.49	713.02
457.86	698.67
458.23	689.00
458.59	677.74
458.96	666.21
459.33	655.12
459.70	644.79
460.07	636.36
460.43	626.69
460.80	618.26
461.17	610.93
461.54	602.95
461.91	594.55
462.27	586.45
462.64	579.62
463.01	572.31
463.38	565.36
463.74	554.40
464.11	547.48
464.48	542.10
464.85	536.19
465.21	532.57
465.58	527.69
465.95	521.19
466.32	515.88
466.68	510.45
467.05	505.76
467.42	500.60
467.78	495.45
468.15	490.50
468.52	486.76
468.88	481.14
469.25	476.02
469.62	473.19
469.98	469.36
470.35	466.07
470.72	462.38
471.08	458.29
471.45	455.69
471.82	453.05
472.18	449.38
472.55	446.69
472.92	442.48
473.28	439.74
473.65	436.90
474.02	434.33
474.38	432.43
474.75	430.60
475.11	428.21
475.48	426.62
475.85	425.02
476.21	423.00
476.58	421.64
476.94	420.64
477.31	418.62
477.67	417.33
478.04	416.10
478.41	415.48
478.77	416.43
479.14	415.02
479.50	414.33
479.87	413.95
480.23	413.86
480.60	413.45
480.96	413.00
481.33	413.62
481.69	413.57
482.06	413.93
482.42	414.31
482.79	415.00
483.15	415.29
483.52	415.95
483.88	416.36
484.25	416.83
484.61	417.60
484.98	418.88
485.34	420.71
485.71	422.21
486.07	423.45
486.44	422.83
486.80	424.64
487.17	426.38
487.53	428.57
487.90	430.64
488.26	434.33
488.62	437.50
488.99	439.60
489.35	442.21
489.72	444.74
490.08	446.74
490.44	449.64
490.81	452.98
491.17	456.00
491.54	459.86
491.90	463.88
492.26	467.50
492.63	470.93
492.99	474.38
493.36	478.62
493.72	483.43
494.08	488.07
494.45	492.64
494.81	497.36
495.17	502.19
495.54	507.12
495.90	511.21
496.26	516.00
496.63	521.05
496.99	526.24
497.35	531.90
497.72	538.50
498.08	543.98
498.44	549.93
498.80	556.81
499.17	562.90
499.53	568.95
499.89	575.90
500.26	582.86
500.62	589.10
500.98	596.14
501.34	602.88
501.71	609.69
502.07	616.60
502.43	623.64
502.79	630.36
503.16	637.31
503.52	644.33
503.88	651.10
504.24	659.05
504.60	667.10
504.97	674.93
505.33	682.26
505.69	690.81
506.05	698.19
506.41	705.24
506.78	713.12
507.14	720.71
507.50	728.69
507.86	736.74
508.22	745.38
508.59	752.93
508.95	760.64
509.31	769.55
509.67	777.50
510.03	785.10
510.39	792.64
510.75	800.90
511.12	808.52
511.48	816.74
511.84	824.12
512.20	831.21
512.56	838.60
512.92	846.43
513.28	853.57
513.64	861.48
514.00	869.36
514.37	876.31
514.73	884.24
515.09	891.52
515.45	898.02
515.81	904.40
516.17	910.98
516.53	917.48
516.89	923.60
517.25	930.62
517.61	937.79
517.97	944.29
518.33	949.86
518.69	956.64
519.05	963.62
519.41	969.64
519.77	977.19
520.13	982.90
520.49	987.95
520.85	992.90
521.21	999.57
521.57	1004.50
521.93	1009.67
522.29	1014.98
522.65	1019.60
523.01	1025.48
523.37	1030.60
523.73	1035.48
524.09	1040.67
524.45	1045.07
524.81	1049.64
525.17	1053.88
525.53	1059.05
525.89	1064.40
526.25	1069.02
526.61	1071.86
526.97	1076.14
527.33	1080.07
527.68	1086.36
528.04	1090.71
528.40	1095.52
528.76	1098.62
529.12	1103.29
529.48	1108.71
529.84	1112.64
530.20	1117.31
530.56	1120.95
530.91	1126.64
531.27	1130.81
531.63	1134.60
531.99	1139.00
532.35	1142.64
532.71	1146.86
533.07	1151.05
533.42	1157.19
533.78	1161.10
534.14	1166.12
534.50	1170.40
534.86	1174.24
535.21	1175.90
535.57	1180.95
535.93	1184.24
536.29	1189.57
536.65	1193.40
537.00	1196.05
537.36	1199.50
537.72	1202.93
538.08	1206.57
538.44	1208.38
538.79	1212.60
539.15	1215.45
539.51	1218.38
539.87	1221.31
540.22	1224.71
540.58	1227.71
540.94	1228.43
541.29	1231.21
541.65	1233.21
542.01	1236.83
542.37	1239.31
542.72	1242.36
543.08	1243.93
543.44	1247.55
543.79	1248.14
544.15	1250.98
544.51	1254.17
544.87	1257.12
545.22	1259.24
545.58	1261.83
545.94	1264.67
546.29	1266.88
546.65	1270.55
547.01	1273.05
547.36	1276.38
547.72	1277.57
548.07	1280.48
548.43	1282.95
548.79	1285.38
549.14	1288.21
549.50	1290.05
549.86	1292.33
550.21	1295.79
550.57	1298.74
550.92	1300.52
551.28	1304.57
551.64	1306.86
551.99	1309.45
552.35	1312.02
552.70	1315.45
553.06	1318.55
553.41	1321.26
553.77	1325.60
554.13	1329.19
554.48	1334.19
554.84	1338.69
555.19	1343.57
555.55	1348.48
555.90	1352.31
556.26	1356.31
556.61	1359.83
556.97	1362.83
557.32	1366.52
557.68	1368.88
558.03	1373.31
558.39	1377.62
558.74	1380.95
559.10	1385.12
559.45	1389.38
559.81	1393.64
560.16	1397.14
560.52	1400.88
560.87	1406.29
561.23	1409.57
561.58	1414.95
561.94	1417.64
562.29	1420.90
562.64	1425.62
563.00	1429.69
563.35	1434.40
563.71	1439.17
564.06	1445.10
564.42	1451.36
564.77	1458.26
565.12	1464.50
565.48	1471.50
565.83	1478.10
566.19	1483.29
566.54	1490.10
566.89	1496.31
567.25	1502.45
567.60	1509.86
567.96	1518.12
568.31	1524.00
568.66	1530.71
569.02	1534.52
569.37	1540.02
569.72	1545.81
570.08	1550.88
570.43	1555.64
570.78	1562.17
571.14	1567.79
571.49	1572.05
571.84	1577.02
572.20	1581.10
572.55	1586.00
572.90	1588.98
573.26	1592.83
573.61	1597.67
573.96	1601.76
574.31	1605.57
574.67	1609.69
575.02	1612.21
575.37	1614.69
575.72	1617.67
576.08	1621.02
576.43	1624.93
576.78	1628.64
577.13	1632.60
577.49	1635.69
577.84	1640.19
578.19	1643.43
578.54	1647.74
578.90	1652.62
579.25	1655.14
579.60	1658.10
579.95	1661.40
580.30	1664.81
580.66	1668.62
581.01	1672.62
581.36	1675.45
581.71	1679.02
582.06	1684.21
582.42	1688.24
582.77	1690.95
583.12	1693.62
583.47	1696.69
583.82	1700.76
584.17	1705.14
584.53	1709.14
584.88	1712.74
585.23	1715.31
585.58	1717.31
585.93	1719.31
586.28	1722.17
586.63	1726.07
586.98	1729.90
587.34	1734.26
587.69	1736.93
588.04	1739.98
588.39	1742.07
588.74	1743.71
589.09	1745.64
589.44	1745.67
589.79	1748.12
590.14	1750.00
590.49	1752.21
590.84	1753.88
591.19	1755.43
591.54	1756.55
591.89	1756.93
592.25	1760.57
592.60	1760.95
592.95	1763.02
593.30	1765.21
593.65	1766.05
594.00	1766.90
594.35	1773.02
594.70	1772.31
595.05	1773.10
595.40	1773.31
595.75	1773.64
596.10	1775.31
596.45	1776.71
596.80	1777.31
597.15	1778.21
597.50	1778.26
597.85	1780.02
598.19	1780.48
598.54	1781.24
598.89	1781.81
599.24	1782.74
599.59	1781.50
599.94	1782.17
600.29	1782.83
600.64	1781.50
600.99	1781.02
601.34	1781.67
601.69	1775.26
602.04	1774.52
602.39	1774.60
602.74	1775.14
603.08	1775.17
603.43	1775.60
603.78	1774.38
604.13	1775.07
604.48	1774.21
604.83	1774.64
605.18	1773.50
605.53	1772.62
605.87	1770.86
606.22	1770.14
606.57	1769.07
606.92	1768.07
607.27	1766.93
607.62	1765.88
607.96	1765.83
608.31	1765.33
608.66	1764.10
609.01	1763.57
609.36	1763.64
609.70	1762.24
610.05	1759.71
610.40	1758.31
610.75	1755.60
611.10	1754.55
611.44	1751.21
611.79	1749.57
612.14	1747.38
612.49	1744.52
612.83	1742.00
613.18	1739.67
613.53	1736.33
613.88	1733.33
614.22	1730.17
614.57	1726.95
614.92	1722.95
615.27	1720.24
615.61	1715.88
615.96	1712.14
616.31	1707.98
616.65	1705.79
617.00	1702.64
617.35	1700.40
617.70	1697.02
618.04	1693.21
618.39	1688.76
618.74	1686.33
619.08	1682.52
619.43	1678.83
619.78	1675.98
620.12	1673.26
620.47	1670.14
620.82	1665.90
621.16	1661.52
621.51	1659.19
621.85	1654.98
622.20	1651.17
622.55	1646.76
622.89	1644.19
623.24	1641.17
623.59	1638.45
623.93	1632.90
624.28	1629.17
624.62	1626.00
624.97	1624.29
625.32	1620.62
625.66	1617.40
626.01	1612.88
626.35	1608.93
626.70	1605.33
627.04	1601.83
627.39	1597.48
627.73	1594.45
628.08	1592.50
628.43	1588.90
628.77	1584.02
629.12	1581.60
629.46	1578.50
629.81	1574.00
630.15	1568.95
630.50	1563.64
630.84	1559.10
631.19	1554.60
631.53	1550.19
631.88	1543.83
632.22	1536.21
632.57	1532.64
632.91	1527.45
633.26	1523.19
633.60	1517.81
633.95	1512.43
634.29	1506.74
634.64	1503.45
634.98	1497.62
635.32	1493.10
635.67	1489.31
636.01	1484.93
636.36	1479.98
636.70	1474.79
637.05	1470.24
637.39	1466.24
637.73	1462.24
638.08	1458.74
638.42	1454.79
638.77	1450.38
639.11	1446.48
639.45	1442.50
639.80	1436.26
640.14	1432.36
640.49	1427.55
640.83	1422.43
641.17	1418.62
641.52	1414.48
641.86	1407.90
642.20	1403.98
642.55	1397.93
642.89	1392.21
643.23	1386.43
643.58	1381.07
643.92	1375.79
644.26	1371.02
644.61	1365.83
644.95	1360.21
645.29	1353.31
645.64	1347.74
645.98	1342.21
646.32	1336.26
646.66	1330.38
647.01	1325.43
647.35	1319.86
647.69	1313.40
648.04	1308.83
648.38	1303.19
648.72	1297.10
649.06	1291.64
649.41	1284.55
649.75	1278.50
650.09	1273.00
650.43	1266.67
650.78	1260.71
651.12	1254.02
651.46	1247.81
651.80	1241.26
652.14	1235.36
652.49	1230.05
652.83	1223.69
653.17	1217.02
653.51	1210.17
653.85	1204.33
654.20	1198.07
654.54	1191.02
654.88	1185.19
655.22	1179.40
655.56	1172.38
655.90	1166.50
656.25	1160.29
656.59	1154.62
656.93	1149.10
657.27	1143.45
657.61	1137.24
657.95	1131.19
658.29	1125.67
658.64	1119.81
658.98	1113.50
659.32	1106.86
659.66	1099.86
660.00	1093.45
660.34	1087.31
660.68	1082.05
661.02	1075.74
661.36	1069.52
661.70	1063.98
662.05	1057.74
662.39	1051.14
662.73	1045.33
663.07	1039.93
663.41	1033.98
663.75	1027.62
664.09	1020.98
664.43	1014.50
664.77	1009.05
665.11	1002.79
665.45	996.48
665.79	989.81
666.13	984.60
666.47	978.67
666.81	973.07
667.15	967.45
667.49	962.19
667.83	956.52
668.17	951.12
668.51	945.83
668.85	940.52
669.19	935.95
669.53	929.55
669.87	923.98
670.21	917.86
670.55	911.67
670.89	907.00
671.23	901.64
671.57	896.31
671.91	890.57
672.25	885.74
672.58	881.14
672.92	875.86
673.26	870.48
673.60	865.43
673.94	859.74
674.28	854.79
674.62	849.07
674.96	844.21
675.30	839.02
675.64	833.64
675.97	828.43
676.31	822.90
676.65	818.17
676.99	813.79
677.33	808.17
677.67	804.02
678.01	798.93
678.34	794.81
678.68	790.05
679.02	784.76
679.36	779.17
679.70	773.86
680.04	768.86
680.37	763.40
680.71	758.50
681.05	754.48
681.39	750.07
681.73	745.88
682.06	740.14
682.40	735.88
682.74	731.90
683.08	727.62
683.42	722.14
683.75	718.19
684.09	712.62
684.43	708.69
684.77	703.60
685.10	698.00
685.44	692.50
685.78	687.60
686.12	683.60
686.45	678.79
686.79	674.31
687.13	670.71
687.46	666.38
687.80	662.21
688.14	657.74
688.48	653.10
688.81	648.33
689.15	644.74
689.49	639.81
689.82	635.02
690.16	629.86
690.50	625.90
690.83	620.88
691.17	616.40
691.51	611.50
691.84	607.31
692.18	603.26
692.52	599.45
692.85	595.52
693.19	592.10
693.52	588.05
693.86	583.38
694.20	578.90
694.53	574.74
694.87	570.50
695.21	566.14
695.54	562.10
695.88	557.50
696.21	552.69
696.55	548.43
696.88	543.93
697.22	540.21
697.56	537.12
697.89	533.43
698.23	530.86
698.56	527.29
698.90	523.60
699.23	520.14
699.57	516.14
699.90	512.26
700.24	508.24
700.58	505.00
700.91	502.00
701.25	500.12
701.58	497.83
701.92	495.21
702.25	491.86
702.59	488.57
702.92	485.67
703.26	482.95
703.59	480.07
703.93	478.90
704.26	476.12
704.60	472.74
704.93	469.48
705.26	465.62
705.60	462.90
705.93	459.52
706.27	457.12
706.60	454.60
706.94	452.79
707.27	449.64
707.61	446.98
707.94	443.83
708.27	439.33
708.61	435.64
708.94	432.29
709.28	429.62
709.61	426.74
709.94	424.26
710.28	421.71
710.61	419.55
710.95	415.19
711.28	414.02
711.61	411.40
711.95	409.74
712.28	407.17
712.61	404.40
712.95	403.24
713.28	401.74
713.61	399.14
713.95	396.14
714.28	393.98
714.61	391.64
714.95	389.74
715.28	387.48
715.61	385.26
715.95	383.48
716.28	381.69
716.61	379.83
716.95	377.71
717.28	375.62
717.61	373.45
717.94	371.98
718.28	368.19
718.61	366.00
718.94	363.26
719.27	361.43
719.61	359.93
719.94	357.74
720.27	354.45
720.60	352.52
720.94	350.52
721.27	348.74
721.60	347.17
721.93	345.48
722.27	344.74
722.60	343.43
722.93	341.79
723.26	340.26
723.59	338.17
723.93	337.02
724.26	335.67
724.59	333.81
724.92	332.26
725.25	331.33
725.59	330.21
725.92	329.40
726.25	328.21
726.58	326.60
726.91	325.07
727.24	324.17
727.57	322.81
727.91	321.07
728.24	320.24
728.57	318.90
728.90	317.76
729.23	315.76
729.56	315.33
729.89	313.76
730.22	312.07
730.55	311.26
730.89	309.76
731.22	308.38
731.55	307.48
731.88	306.31
732.21	304.95
732.54	303.79
732.87	302.86
733.20	301.95
733.53	301.26
733.86	300.29
734.19	299.17
734.52	298.62
734.85	299.14
735.18	297.57
735.51	297.45
735.84	296.95
736.17	296.64
736.50	294.67
736.83	296.19
737.16	295.69
737.49	294.93
737.82	293.95
738.15	293.19
738.48	292.19
738.81	291.05
739.14	290.14
739.47	288.81
739.80	288.10
740.13	287.57
740.46	286.26
740.79	285.26
741.12	284.33
741.45	283.24
741.78	281.52
742.11	281.50
742.44	279.88
742.77	279.07
743.10	277.86
743.43	277.31
743.75	274.21
744.08	275.69
744.41	274.45
744.74	273.57
745.07	272.64
745.40	272.26
745.73	272.71
746.06	271.93
746.39	271.74
746.71	270.40
747.04	269.17
747.37	268.45
747.70	268.05
748.03	267.62
748.36	267.24
748.68	266.50
749.01	265.24
749.34	264.64
749.67	263.86
750.00	263.57
750.33	264.17
750.65	264.38
750.98	261.67
751.31	261.43
751.64	261.02
751.97	261.62
752.29	260.88
752.62	259.12
752.95	258.67
753.28	257.98
753.60	257.48
753.93	257.55
754.26	257.29
754.59	256.24
754.91	255.24
755.24	254.64
755.57	253.83
755.90	253.36
756.22	252.74
756.55	252.00
756.88	251.05
757.20	249.38
757.53	247.86
757.86	247.40
758.19	247.24
758.51	246.74
758.84	245.21
759.17	244.71
759.49	244.52
759.82	244.93
760.15	244.76
760.47	244.10
760.80	243.10
761.13	243.12
761.45	242.60
761.78	242.19
762.11	241.86
762.43	241.60
762.76	241.17
763.08	240.79
763.41	240.71
763.74	240.64
764.06	240.21
764.39	240.10
764.71	239.45
765.04	238.60
765.37	238.33
765.69	238.05
766.02	237.76
766.34	237.31
766.67	236.26
767.00	236.19
767.32	237.21
767.65	238.19
767.97	237.67
768.30	237.79
768.62	237.86
768.95	237.33
769.27	237.33
769.60	237.45
769.92	237.26
770.25	236.45
770.57	235.57
770.90	235.26
771.22	234.74
771.55	234.48
771.87	234.38
772.20	234.07
772.52	235.38
772.85	237.57
773.17	237.62
773.50	237.33
773.82	236.81
774.15	235.71
774.47	234.05
774.80	233.60
775.12	233.07
775.45	232.69
775.77	232.79
776.09	232.71
776.42	232.31
776.74	232.60
777.07	232.52
777.39	232.64
777.72	232.26
778.04	232.48
778.36	232.29
778.69	232.19
779.01	232.05
779.33	230.38
779.66	227.88
779.98	227.29
780.31	227.17
780.63	227.88
780.95	228.02
781.28	228.24
781.60	228.26
781.92	228.07
782.25	227.88
782.57	227.71
782.89	227.24
783.22	226.93
783.54	226.31
783.86	226.43
784.19	226.10
784.51	226.79
784.83	226.48
