SpectraSuite Data File
++++++++++++++++++++++++++++++++++++
Date: Tue Apr 02 18:44:21 EDT 2013
User: group
Dark Spectrum Present: No
Reference Spectrum Present: No
Number of Sampled Component Spectra: 1
Spectrometers: USB2E7196
Integration Time (usec): 580000 (USB2E7196)
Spectra Averaged: 2 (USB2E7196)
Boxcar Smoothing: 10 (USB2E7196)
Correct for Electrical Dark: No (USB2E7196)
Strobe/Lamp Enabled: No (USB2E7196)
Correct for Detector Non-linearity: No (USB2E7196)
Correct for Stray Light: No (USB2E7196)
Number of Pixels in Processed Spectrum: 2048
>>>>>Begin Processed Spectral Data<<<<<
339.09	0.00
339.48	188.50
339.86	190.00
340.24	196.00
340.63	192.50
341.01	233.00
341.39	197.00
341.78	202.50
342.16	209.00
342.54	202.00
342.93	195.45
343.31	205.05
343.69	205.67
344.07	206.45
344.46	207.14
344.84	207.98
345.22	206.52
345.60	207.02
345.99	207.55
346.37	207.48
346.75	207.69
347.13	207.71
347.52	208.05
347.90	208.83
348.28	208.71
348.66	209.29
349.05	208.64
349.43	209.02
349.81	209.12
350.19	209.31
350.57	209.79
350.96	210.19
351.34	210.62
351.72	210.98
352.10	211.07
352.48	211.05
352.87	211.10
353.25	211.36
353.63	211.43
354.01	211.21
354.39	211.57
354.77	211.76
355.15	212.48
355.54	212.29
355.92	211.74
356.30	211.81
356.68	212.74
357.06	213.10
357.44	212.98
357.82	213.31
358.20	214.24
358.58	214.12
358.97	214.14
359.35	214.62
359.73	214.88
360.11	214.90
360.49	215.17
360.87	215.33
361.25	215.74
361.63	216.55
362.01	216.71
362.39	216.69
362.77	216.83
363.15	216.69
363.53	216.74
363.91	217.05
364.29	217.17
364.67	215.55
365.05	215.52
365.43	215.86
365.81	215.93
366.19	216.19
366.57	216.98
366.95	216.83
367.33	216.31
367.71	216.31
368.09	216.71
368.47	216.69
368.85	216.60
369.23	217.10
369.61	216.21
369.99	217.00
370.37	217.02
370.75	218.07
371.13	217.64
371.51	217.52
371.89	217.64
372.27	217.74
372.65	218.10
373.03	218.31
373.41	217.95
373.78	217.86
374.16	216.64
374.54	216.02
374.92	215.79
375.30	215.74
375.68	215.55
376.06	215.48
376.44	215.19
376.82	215.24
377.19	214.93
377.57	215.00
377.95	214.12
378.33	214.17
378.71	212.74
379.09	212.90
379.47	213.17
379.84	212.79
380.22	212.60
380.60	212.00
380.98	211.67
381.36	211.74
381.73	211.45
382.11	211.93
382.49	212.05
382.87	211.93
383.25	212.00
383.62	214.38
384.00	214.12
384.38	214.24
384.76	214.52
385.13	215.10
385.51	215.00
385.89	214.76
386.27	214.43
386.64	214.83
387.02	214.88
387.40	214.60
387.78	214.69
388.15	214.57
388.53	214.76
388.91	214.81
389.29	214.71
389.66	214.95
390.04	214.62
390.42	214.81
390.79	214.81
391.17	214.95
391.55	212.48
391.92	212.48
392.30	212.50
392.68	212.12
393.05	212.10
393.43	212.31
393.81	212.55
394.18	212.52
394.56	212.52
394.94	212.90
395.31	212.71
395.69	213.26
396.06	213.71
396.44	213.69
396.82	213.31
397.19	214.21
397.57	214.24
397.95	214.57
398.32	213.93
398.70	214.45
399.07	214.86
399.45	215.26
399.82	215.45
400.20	215.38
400.58	215.45
400.95	214.69
401.33	215.21
401.70	216.55
402.08	216.76
402.45	216.81
402.83	217.26
403.20	217.69
403.58	217.71
403.95	218.38
404.33	218.74
404.71	219.33
405.08	220.52
405.46	220.76
405.83	221.19
406.21	221.74
406.58	221.81
406.96	221.88
407.33	222.19
407.70	222.86
408.08	225.05
408.45	225.83
408.83	226.79
409.20	227.07
409.58	226.62
409.95	227.74
410.33	228.81
410.70	229.12
411.08	230.26
411.45	231.24
411.82	231.86
412.20	233.38
412.57	235.83
412.95	235.50
413.32	237.21
413.69	238.36
414.07	240.00
414.44	241.81
414.82	243.83
415.19	246.21
415.56	248.26
415.94	249.43
416.31	252.29
416.68	255.07
417.06	258.19
417.43	261.79
417.81	265.17
418.18	268.52
418.55	272.12
418.93	276.07
419.30	280.29
419.67	284.48
420.04	288.79
420.42	292.69
420.79	300.02
421.16	305.52
421.54	312.62
421.91	318.95
422.28	325.38
422.66	332.10
423.03	340.00
423.40	347.07
423.77	354.50
424.15	361.81
424.52	369.33
424.89	378.00
425.26	385.76
425.64	393.36
426.01	401.74
426.38	411.14
426.75	420.33
427.13	429.76
427.50	439.76
427.87	450.17
428.24	460.48
428.61	468.79
428.99	480.26
429.36	490.43
429.73	501.71
430.10	513.31
430.47	524.71
430.85	535.31
431.22	548.40
431.59	563.17
431.96	575.52
432.33	589.81
432.70	603.24
433.08	618.98
433.45	634.26
433.82	649.62
434.19	665.93
434.56	682.43
434.93	697.64
435.30	713.00
435.68	730.48
436.05	747.24
436.42	763.88
436.79	779.24
437.16	796.93
437.53	815.00
437.90	832.36
438.27	850.26
438.64	868.48
439.01	885.19
439.38	898.67
439.75	913.33
440.13	930.05
440.50	945.74
440.87	959.00
441.24	972.43
441.61	987.10
441.98	997.79
442.35	1010.38
442.72	1024.02
443.09	1037.57
443.46	1044.86
443.83	1051.02
444.20	1055.62
444.57	1061.60
444.94	1064.57
445.31	1067.31
445.68	1073.71
446.05	1074.79
446.42	1073.38
446.79	1072.12
447.16	1069.64
447.53	1068.86
447.90	1062.50
448.27	1056.17
448.64	1047.64
449.01	1041.60
449.37	1030.57
449.74	1020.05
450.11	1008.79
450.48	993.26
450.85	977.83
451.22	965.69
451.59	953.62
451.96	942.69
452.33	927.33
452.70	912.88
453.07	896.14
453.43	875.74
453.80	859.86
454.17	844.14
454.54	828.43
454.91	812.98
455.28	797.12
455.65	782.10
456.02	770.98
456.38	758.29
456.75	742.36
457.12	728.88
457.49	716.31
457.86	702.19
458.23	692.45
458.59	680.57
458.96	668.45
459.33	657.19
459.70	646.60
460.07	638.00
460.43	628.86
460.80	620.43
461.17	613.67
461.54	605.14
461.91	597.00
462.27	588.95
462.64	581.93
463.01	574.43
463.38	567.69
463.74	556.52
464.11	549.74
464.48	544.31
464.85	537.98
465.21	533.60
465.58	528.52
465.95	522.02
466.32	516.95
466.68	511.29
467.05	506.24
467.42	501.24
467.78	496.17
468.15	490.90
468.52	486.95
468.88	481.17
469.25	476.50
469.62	473.17
469.98	468.76
470.35	465.17
470.72	461.62
471.08	457.52
471.45	454.79
471.82	451.86
472.18	448.17
472.55	445.71
472.92	441.43
473.28	438.36
473.65	435.43
474.02	432.67
474.38	431.05
474.75	429.14
475.11	426.83
475.48	425.40
475.85	423.90
476.21	421.81
476.58	420.48
476.94	419.40
477.31	417.93
477.67	416.86
478.04	415.81
478.41	414.74
478.77	415.93
479.14	414.90
479.50	414.12
479.87	414.02
480.23	413.48
480.60	413.38
480.96	413.14
481.33	413.95
481.69	413.93
482.06	414.29
482.42	414.40
482.79	414.67
483.15	414.98
483.52	416.02
483.88	416.93
484.25	417.52
484.61	418.38
484.98	419.10
485.34	420.62
485.71	421.90
486.07	423.40
486.44	423.05
486.80	424.45
487.17	426.00
487.53	428.36
487.90	431.14
488.26	433.76
488.62	436.26
488.99	438.38
489.35	441.36
489.72	443.62
490.08	446.64
490.44	449.38
490.81	452.43
491.17	455.02
491.54	458.00
491.90	462.05
492.26	465.64
492.63	469.50
492.99	473.26
493.36	477.12
493.72	481.62
494.08	486.12
494.45	491.02
494.81	496.26
495.17	500.69
495.54	505.40
495.90	510.43
496.26	515.90
496.63	521.26
496.99	526.52
497.35	532.17
497.72	538.45
498.08	544.24
498.44	550.76
498.80	557.31
499.17	563.79
499.53	569.79
499.89	576.52
500.26	583.31
500.62	589.57
500.98	596.88
501.34	604.17
501.71	611.57
502.07	618.40
502.43	625.71
502.79	632.05
503.16	639.24
503.52	646.36
503.88	653.19
504.24	660.52
504.60	667.88
504.97	676.12
505.33	683.40
505.69	692.26
506.05	699.48
506.41	707.19
506.78	714.81
507.14	722.12
507.50	730.07
507.86	737.86
508.22	746.40
508.59	754.17
508.95	761.14
509.31	769.67
509.67	777.69
510.03	785.29
510.39	793.48
510.75	801.17
511.12	809.19
511.48	817.31
511.84	824.88
512.20	832.83
512.56	839.88
512.92	847.05
513.28	854.38
513.64	861.81
514.00	869.43
514.37	876.86
514.73	884.07
515.09	891.26
515.45	898.57
515.81	906.19
516.17	913.17
516.53	920.02
516.89	925.81
517.25	932.69
517.61	939.67
517.97	946.50
518.33	952.81
518.69	959.07
519.05	965.38
519.41	971.48
519.77	978.64
520.13	984.24
520.49	990.40
520.85	995.60
521.21	1001.88
521.57	1007.38
521.93	1012.07
522.29	1018.29
522.65	1023.12
523.01	1028.74
523.37	1033.21
523.73	1038.38
524.09	1043.38
524.45	1047.64
524.81	1052.19
525.17	1056.86
525.53	1061.74
525.89	1066.62
526.25	1070.76
526.61	1074.38
526.97	1078.95
527.33	1082.83
527.68	1089.62
528.04	1093.81
528.40	1097.90
528.76	1101.76
529.12	1106.10
529.48	1111.48
529.84	1115.31
530.20	1120.00
530.56	1123.10
530.91	1127.38
531.27	1131.33
531.63	1135.79
531.99	1140.00
532.35	1143.71
532.71	1146.81
533.07	1150.67
533.42	1157.00
533.78	1161.45
534.14	1166.07
534.50	1169.74
534.86	1173.48
535.21	1175.48
535.57	1180.10
535.93	1184.76
536.29	1189.95
536.65	1193.19
537.00	1196.38
537.36	1199.67
537.72	1203.21
538.08	1207.26
538.44	1209.81
538.79	1213.19
539.15	1216.12
539.51	1220.10
539.87	1223.69
540.22	1227.45
540.58	1230.81
540.94	1231.86
541.29	1235.36
541.65	1237.71
542.01	1240.98
542.37	1243.76
542.72	1245.71
543.08	1247.93
543.44	1250.12
543.79	1250.60
544.15	1253.38
544.51	1257.02
544.87	1260.19
545.22	1262.76
545.58	1265.79
545.94	1268.55
546.29	1271.69
546.65	1275.24
547.01	1276.60
547.36	1279.00
547.72	1281.33
548.07	1284.24
548.43	1285.88
548.79	1287.48
549.14	1289.10
549.50	1292.02
549.86	1293.43
550.21	1296.50
550.57	1299.60
550.92	1302.10
551.28	1306.07
551.64	1308.86
551.99	1311.45
552.35	1314.24
552.70	1317.64
553.06	1320.90
553.41	1324.00
553.77	1327.93
554.13	1330.98
554.48	1335.10
554.84	1339.52
555.19	1343.81
555.55	1348.14
555.90	1353.00
556.26	1357.38
556.61	1362.36
556.97	1365.26
557.32	1369.88
557.68	1374.00
558.03	1377.29
558.39	1381.64
558.74	1385.74
559.10	1389.98
559.45	1394.00
559.81	1398.36
560.16	1401.31
560.52	1405.55
560.87	1410.62
561.23	1413.74
561.58	1419.14
561.94	1423.50
562.29	1427.67
562.64	1431.74
563.00	1435.29
563.35	1439.55
563.71	1444.29
564.06	1449.98
564.42	1456.12
564.77	1462.62
565.12	1469.19
565.48	1476.71
565.83	1482.69
566.19	1488.55
566.54	1494.36
566.89	1500.07
567.25	1506.62
567.60	1514.12
567.96	1521.60
568.31	1528.67
568.66	1535.50
569.02	1540.17
569.37	1546.02
569.72	1551.67
570.08	1557.05
570.43	1562.31
570.78	1568.05
571.14	1573.95
571.49	1578.93
571.84	1584.45
572.20	1588.69
572.55	1592.62
572.90	1594.93
573.26	1599.71
573.61	1604.52
573.96	1609.12
574.31	1612.95
574.67	1616.81
575.02	1619.57
575.37	1621.02
575.72	1623.19
576.08	1626.33
576.43	1630.24
576.78	1633.14
577.13	1637.14
577.49	1640.86
577.84	1644.76
578.19	1648.26
578.54	1651.29
578.90	1655.14
579.25	1658.24
579.60	1661.00
579.95	1664.69
580.30	1669.36
580.66	1672.45
581.01	1675.19
581.36	1677.76
581.71	1680.86
582.06	1684.93
582.42	1689.31
582.77	1693.33
583.12	1696.95
583.47	1700.79
583.82	1703.12
584.17	1707.07
584.53	1709.98
584.88	1713.71
585.23	1717.19
585.58	1719.33
585.93	1721.90
586.28	1724.43
586.63	1727.60
586.98	1731.52
587.34	1735.05
587.69	1736.69
588.04	1738.74
588.39	1740.74
588.74	1742.43
589.09	1745.81
589.44	1746.17
589.79	1747.55
590.14	1749.21
590.49	1750.36
590.84	1750.69
591.19	1753.33
591.54	1754.76
591.89	1756.31
592.25	1759.24
592.60	1759.71
592.95	1762.57
593.30	1764.36
593.65	1765.29
594.00	1765.45
594.35	1771.74
594.70	1771.21
595.05	1772.83
595.40	1773.45
595.75	1774.29
596.10	1776.64
596.45	1776.90
596.80	1778.17
597.15	1779.79
597.50	1780.79
597.85	1782.93
598.19	1783.86
598.54	1783.57
598.89	1784.05
599.24	1784.52
599.59	1783.60
599.94	1783.50
600.29	1784.12
600.64	1783.98
600.99	1783.98
601.34	1784.64
601.69	1778.95
602.04	1778.95
602.39	1778.64
602.74	1778.76
603.08	1778.10
603.43	1777.88
603.78	1777.19
604.13	1776.05
604.48	1775.02
604.83	1775.07
605.18	1773.98
605.53	1773.67
605.87	1772.88
606.22	1772.19
606.57	1770.43
606.92	1768.52
607.27	1767.79
607.62	1766.05
607.96	1765.93
608.31	1766.12
608.66	1764.33
609.01	1762.93
609.36	1762.17
609.70	1760.21
610.05	1758.38
610.40	1756.62
610.75	1754.48
611.10	1753.45
611.44	1751.57
611.79	1748.55
612.14	1745.38
612.49	1742.62
612.83	1739.24
613.18	1737.00
613.53	1733.57
613.88	1730.43
614.22	1727.31
614.57	1724.52
614.92	1720.19
615.27	1716.07
615.61	1711.69
615.96	1707.90
616.31	1703.57
616.65	1700.48
617.00	1697.64
617.35	1695.29
617.70	1692.76
618.04	1689.43
618.39	1685.31
618.74	1682.36
619.08	1678.71
619.43	1675.43
619.78	1672.17
620.12	1669.95
620.47	1666.33
620.82	1663.57
621.16	1659.88
621.51	1656.45
621.85	1652.79
622.20	1649.95
622.55	1646.33
622.89	1642.74
623.24	1639.74
623.59	1635.88
623.93	1631.21
624.28	1627.07
624.62	1624.55
624.97	1621.05
625.32	1616.71
625.66	1613.07
626.01	1609.31
626.35	1606.57
626.70	1601.90
627.04	1598.62
627.39	1594.67
627.73	1591.64
628.08	1588.14
628.43	1585.21
628.77	1581.88
629.12	1577.88
629.46	1574.00
629.81	1569.02
630.15	1564.81
630.50	1559.93
630.84	1555.79
631.19	1550.76
631.53	1546.33
631.88	1538.45
632.22	1532.55
632.57	1528.45
632.91	1522.76
633.26	1517.76
633.60	1512.48
633.95	1508.14
634.29	1502.10
634.64	1496.57
634.98	1491.07
635.32	1486.64
635.67	1482.83
636.01	1478.10
636.36	1472.60
636.70	1467.95
637.05	1463.90
637.39	1459.38
637.73	1455.67
638.08	1452.83
638.42	1448.36
638.77	1443.38
639.11	1439.81
639.45	1436.00
639.80	1431.07
640.14	1426.31
640.49	1421.14
640.83	1415.62
641.17	1411.26
641.52	1406.19
641.86	1401.07
642.20	1396.50
642.55	1390.43
642.89	1383.79
643.23	1377.88
643.58	1373.48
643.92	1366.76
644.26	1361.17
644.61	1355.83
644.95	1350.33
645.29	1343.38
645.64	1338.62
645.98	1333.69
646.32	1327.64
646.66	1320.71
647.01	1314.24
647.35	1309.36
647.69	1303.76
648.04	1298.69
648.38	1292.02
648.72	1286.62
649.06	1280.76
649.41	1274.31
649.75	1268.17
650.09	1261.57
650.43	1254.64
650.78	1248.02
651.12	1241.69
651.46	1235.17
651.80	1228.36
652.14	1221.57
652.49	1215.76
652.83	1209.31
653.17	1202.17
653.51	1196.07
653.85	1190.43
654.20	1184.07
654.54	1176.48
654.88	1170.00
655.22	1163.36
655.56	1157.17
655.90	1150.71
656.25	1144.52
656.59	1137.90
656.93	1131.19
657.27	1126.02
657.61	1120.98
657.95	1115.48
658.29	1110.05
658.64	1104.26
658.98	1098.00
659.32	1090.95
659.66	1084.10
660.00	1077.71
660.34	1071.45
660.68	1064.36
661.02	1057.93
661.36	1051.76
661.70	1046.10
662.05	1039.76
662.39	1034.50
662.73	1029.00
663.07	1023.57
663.41	1017.67
663.75	1011.90
664.09	1006.05
664.43	999.71
664.77	993.19
665.11	986.19
665.45	980.00
665.79	973.86
666.13	967.45
666.47	961.98
666.81	956.86
667.15	950.74
667.49	945.36
667.83	941.43
668.17	936.05
668.51	930.33
668.85	924.93
669.19	920.40
669.53	913.60
669.87	907.05
670.21	901.21
670.55	894.64
670.89	890.07
671.23	884.88
671.57	879.31
671.91	873.76
672.25	868.52
672.58	863.83
672.92	858.62
673.26	853.50
673.60	847.95
673.94	841.62
674.28	836.93
674.62	832.17
674.96	826.12
675.30	820.76
675.64	815.76
675.97	810.48
676.31	804.95
676.65	799.81
676.99	795.76
677.33	790.14
677.67	785.79
678.01	779.50
678.34	774.64
678.68	770.00
679.02	764.60
679.36	759.69
679.70	754.31
680.04	748.52
680.37	743.69
680.71	738.62
681.05	734.24
681.39	729.40
681.73	724.24
682.06	719.43
682.40	715.05
682.74	710.26
683.08	706.26
683.42	700.83
683.75	696.14
684.09	690.71
684.43	685.67
684.77	680.74
685.10	676.76
685.44	671.62
685.78	666.83
686.12	662.71
686.45	658.79
686.79	654.07
687.13	650.74
687.46	646.36
687.80	643.19
688.14	638.55
688.48	633.76
688.81	629.21
689.15	625.48
689.49	620.36
689.82	616.52
690.16	611.50
690.50	607.33
690.83	603.69
691.17	598.83
691.51	595.31
691.84	591.67
692.18	586.67
692.52	582.55
692.85	578.45
693.19	575.02
693.52	571.12
693.86	567.02
694.20	562.83
694.53	558.62
694.87	554.07
695.21	550.26
695.54	546.36
695.88	541.88
696.21	536.83
696.55	533.36
696.88	529.19
697.22	525.79
697.56	522.48
697.89	518.12
698.23	514.90
698.56	510.76
698.90	506.95
699.23	503.48
699.57	500.81
699.90	497.24
700.24	493.57
700.58	489.62
700.91	486.71
701.25	485.02
701.58	482.71
701.92	480.02
702.25	476.88
702.59	474.14
702.92	471.50
703.26	469.02
703.59	465.93
703.93	464.83
704.26	461.67
704.60	458.48
704.93	455.76
705.26	453.12
705.60	451.02
705.93	448.10
706.27	446.10
706.60	443.29
706.94	441.71
707.27	438.24
707.61	435.69
707.94	432.74
708.27	428.71
708.61	425.26
708.94	422.40
709.28	419.88
709.61	416.93
709.94	414.76
710.28	412.40
710.61	410.31
710.95	406.21
711.28	405.50
711.61	403.45
711.95	401.81
712.28	399.38
712.61	396.93
712.95	395.83
713.28	394.19
713.61	391.67
713.95	388.57
714.28	387.19
714.61	385.05
714.95	382.64
715.28	380.19
715.61	378.33
715.95	376.19
716.28	374.10
716.61	372.31
716.95	369.86
717.28	367.60
717.61	365.24
717.94	363.00
718.28	359.57
718.61	357.43
718.94	354.95
719.27	353.12
719.61	351.33
719.94	348.71
720.27	345.88
720.60	344.02
720.94	342.31
721.27	340.43
721.60	339.21
721.93	338.02
722.27	337.26
722.60	335.93
722.93	334.07
723.26	332.76
723.59	330.95
723.93	330.10
724.26	328.86
724.59	327.36
724.92	326.07
725.25	325.05
725.59	323.98
725.92	322.88
726.25	321.67
726.58	320.74
726.91	319.33
727.24	318.40
727.57	317.31
727.91	315.52
728.24	314.79
728.57	313.24
728.90	312.19
729.23	310.17
729.56	309.90
729.89	309.10
730.22	307.88
730.55	306.88
730.89	305.36
731.22	304.19
731.55	303.62
731.88	302.57
732.21	301.26
732.54	299.90
732.87	299.05
733.20	298.07
733.53	296.86
733.86	296.29
734.19	294.90
734.52	294.19
734.85	295.14
735.18	293.83
735.51	293.69
735.84	292.95
736.17	292.64
736.50	290.76
736.83	292.19
737.16	291.57
737.49	291.24
737.82	290.43
738.15	290.00
738.48	288.74
738.81	288.02
739.14	287.19
739.47	286.43
739.80	285.33
740.13	284.69
740.46	283.43
740.79	282.33
741.12	281.62
741.45	280.40
741.78	278.10
742.11	277.93
742.44	276.62
742.77	276.24
743.10	275.26
743.43	274.33
743.75	271.43
744.08	273.24
744.41	272.00
744.74	271.36
745.07	270.24
745.40	269.83
745.73	269.95
746.06	269.29
746.39	268.69
746.71	267.98
747.04	267.17
747.37	266.55
747.70	266.10
748.03	265.62
748.36	265.48
748.68	265.07
749.01	263.79
749.34	263.02
749.67	262.33
750.00	262.05
750.33	263.14
750.65	262.86
750.98	259.45
751.31	258.95
751.64	258.57
751.97	259.00
752.29	258.38
752.62	256.98
752.95	256.26
753.28	255.67
753.60	255.07
753.93	254.88
754.26	254.43
754.59	253.52
754.91	252.98
755.24	252.19
755.57	251.64
755.90	251.19
756.22	250.57
756.55	249.62
756.88	248.86
757.20	246.98
757.53	245.81
757.86	245.69
758.19	245.38
758.51	244.69
758.84	243.31
759.17	242.71
759.49	242.50
759.82	242.95
760.15	242.81
760.47	242.36
760.80	241.55
761.13	241.57
761.45	241.14
761.78	240.60
762.11	240.55
762.43	240.02
762.76	239.57
763.08	239.52
763.41	239.29
763.74	238.83
764.06	238.40
764.39	238.57
764.71	238.26
765.04	237.83
765.37	237.43
765.69	237.26
766.02	237.00
766.34	236.38
766.67	235.40
767.00	235.48
767.32	236.29
767.65	237.05
767.97	236.52
768.30	236.19
768.62	235.88
768.95	235.21
769.27	235.14
769.60	235.24
769.92	234.74
770.25	234.19
770.57	233.79
770.90	233.45
771.22	232.83
771.55	232.40
771.87	232.24
772.20	232.12
772.52	233.57
772.85	235.88
773.17	235.86
773.50	235.76
773.82	235.12
774.15	234.05
774.47	232.69
774.80	232.33
775.12	232.57
775.45	232.60
775.77	232.36
776.09	232.33
776.42	232.05
776.74	232.31
777.07	232.07
777.39	231.90
777.72	231.48
778.04	231.43
778.36	231.24
778.69	231.02
779.01	230.93
779.33	228.81
779.66	226.14
779.98	225.95
780.31	225.83
780.63	226.40
780.95	226.60
781.28	226.45
781.60	226.21
781.92	225.83
782.25	225.69
782.57	225.64
782.89	225.31
783.22	225.17
783.54	224.69
783.86	224.90
784.19	224.67
784.51	225.26
784.83	224.83
785.16	224.57
