SpectraSuite Data File
++++++++++++++++++++++++++++++++++++
Date: Tue Apr 02 18:44:32 EDT 2013
User: group
Dark Spectrum Present: No
Reference Spectrum Present: No
Number of Sampled Component Spectra: 1
Spectrometers: USB2E7196
Integration Time (usec): 580000 (USB2E7196)
Spectra Averaged: 2 (USB2E7196)
Boxcar Smoothing: 10 (USB2E7196)
Correct for Electrical Dark: No (USB2E7196)
Strobe/Lamp Enabled: No (USB2E7196)
Correct for Detector Non-linearity: No (USB2E7196)
Correct for Stray Light: No (USB2E7196)
Number of Pixels in Processed Spectrum: 2048
>>>>>Begin Processed Spectral Data<<<<<
339.09	0.00
339.48	196.00
339.86	191.00
340.24	193.50
340.63	198.50
341.01	226.50
341.39	200.50
341.78	204.50
342.16	208.50
342.54	204.50
342.93	196.24
343.31	205.79
343.69	206.31
344.07	207.00
344.46	207.81
344.84	208.36
345.22	207.38
345.60	207.83
345.99	208.00
346.37	208.02
346.75	208.31
347.13	208.45
347.52	208.45
347.90	209.24
348.28	209.14
348.66	209.45
349.05	208.76
349.43	208.98
349.81	209.48
350.19	209.50
350.57	209.67
350.96	209.93
351.34	210.40
351.72	210.45
352.10	210.57
352.48	210.48
352.87	210.45
353.25	210.48
353.63	210.24
354.01	210.31
354.39	210.38
354.77	210.26
355.15	210.69
355.54	210.55
355.92	209.86
356.30	209.93
356.68	211.14
357.06	211.12
357.44	211.00
357.82	210.88
358.20	211.86
358.58	211.90
358.97	212.19
359.35	212.50
359.73	212.86
360.11	213.05
360.49	213.24
360.87	213.10
361.25	213.55
361.63	214.57
362.01	214.71
362.39	214.64
362.77	215.07
363.15	215.07
363.53	215.24
363.91	215.57
364.29	215.60
364.67	213.86
365.05	214.12
365.43	214.43
365.81	214.83
366.19	215.07
366.57	215.74
366.95	215.57
367.33	215.05
367.71	215.24
368.09	215.69
368.47	215.48
368.85	215.57
369.23	215.83
369.61	214.81
369.99	215.29
370.37	215.69
370.75	216.64
371.13	216.26
371.51	216.14
371.89	216.21
372.27	216.48
372.65	216.81
373.03	216.79
373.41	216.71
373.78	216.67
374.16	215.45
374.54	214.90
374.92	214.74
375.30	214.90
375.68	214.33
376.06	214.36
376.44	214.48
376.82	214.60
377.19	214.55
377.57	214.76
377.95	214.38
378.33	214.19
378.71	212.98
379.09	213.31
379.47	213.60
379.84	213.14
380.22	212.88
380.60	212.69
380.98	212.55
381.36	212.29
381.73	211.83
382.11	212.31
382.49	212.33
382.87	212.19
383.25	212.33
383.62	214.64
384.00	214.07
384.38	214.29
384.76	214.69
385.13	215.60
385.51	215.55
385.89	215.24
386.27	215.36
386.64	215.69
387.02	215.57
387.40	215.24
387.78	215.36
388.15	215.36
388.53	215.02
388.91	215.21
389.29	215.17
389.66	215.50
390.04	215.19
390.42	215.40
390.79	215.57
391.17	215.43
391.55	213.17
391.92	213.31
392.30	213.43
392.68	213.17
393.05	212.79
393.43	212.86
393.81	213.02
394.18	212.62
394.56	212.62
394.94	213.05
395.31	213.12
395.69	214.02
396.06	214.38
396.44	214.71
396.82	214.33
397.19	215.62
397.57	215.43
397.95	215.81
398.32	215.55
398.70	215.86
399.07	216.33
399.45	216.67
399.82	216.50
400.20	216.19
400.58	216.07
400.95	215.29
401.33	215.81
401.70	217.21
402.08	217.31
402.45	217.31
402.83	217.93
403.20	218.02
403.58	217.86
403.95	218.07
404.33	218.55
404.71	219.14
405.08	220.31
405.46	220.64
405.83	220.71
406.21	221.07
406.58	221.55
406.96	221.79
407.33	222.31
407.70	223.24
408.08	225.57
408.45	226.64
408.83	227.90
409.20	228.12
409.58	227.62
409.95	228.95
410.33	229.98
410.70	230.19
411.08	231.62
411.45	232.45
411.82	233.36
412.20	234.95
412.57	237.52
412.95	237.05
413.32	238.83
413.69	240.40
414.07	241.93
414.44	243.69
414.82	245.71
415.19	247.98
415.56	250.26
415.94	251.21
416.31	254.14
416.68	256.88
417.06	260.29
417.43	263.98
417.81	267.05
418.18	270.64
418.55	274.40
418.93	278.40
419.30	282.64
419.67	287.31
420.04	291.86
420.42	295.88
420.79	303.00
421.16	308.86
421.54	315.93
421.91	322.38
422.28	328.33
422.66	334.71
423.03	342.71
423.40	349.33
423.77	356.83
424.15	363.74
424.52	371.55
424.89	380.17
425.26	387.76
425.64	395.74
426.01	403.67
426.38	412.07
426.75	421.40
427.13	430.40
427.50	439.90
427.87	449.45
428.24	459.24
428.61	467.64
428.99	478.90
429.36	489.67
429.73	500.50
430.10	512.33
430.47	524.40
430.85	534.86
431.22	547.33
431.59	561.43
431.96	573.86
432.33	587.45
432.70	601.10
433.08	617.05
433.45	632.60
433.82	647.86
434.19	665.14
434.56	681.71
434.93	698.02
435.30	713.76
435.68	731.60
436.05	748.76
436.42	765.62
436.79	781.00
437.16	797.69
437.53	815.57
437.90	832.93
438.27	850.24
438.64	868.64
439.01	885.57
439.38	899.36
439.75	914.69
440.13	931.17
440.50	946.71
440.87	960.00
441.24	973.10
441.61	988.00
441.98	998.21
442.35	1010.60
442.72	1023.02
443.09	1036.88
443.46	1044.07
443.83	1049.90
444.20	1054.79
444.57	1059.98
444.94	1062.98
445.31	1066.14
445.68	1072.14
446.05	1073.90
446.42	1072.29
446.79	1071.43
447.16	1069.71
447.53	1068.71
447.90	1062.33
448.27	1056.07
448.64	1046.64
449.01	1040.38
449.37	1029.43
449.74	1019.48
450.11	1007.81
450.48	993.14
450.85	977.02
451.22	964.62
451.59	952.57
451.96	940.52
452.33	926.10
452.70	912.45
453.07	895.67
453.43	875.79
453.80	859.43
454.17	843.64
454.54	828.24
454.91	812.33
455.28	796.00
455.65	781.33
456.02	769.26
456.38	757.10
456.75	741.57
457.12	728.00
457.49	714.93
457.86	700.76
458.23	691.33
458.59	679.48
458.96	667.29
459.33	656.24
459.70	645.67
460.07	637.57
460.43	627.62
460.80	619.17
461.17	611.81
461.54	603.26
461.91	595.19
462.27	586.83
462.64	579.69
463.01	572.07
463.38	565.81
463.74	555.45
464.11	548.64
464.48	542.86
464.85	536.74
465.21	532.33
465.58	527.40
465.95	520.64
466.32	515.93
466.68	510.79
467.05	505.88
467.42	501.62
467.78	495.76
468.15	490.71
468.52	487.55
468.88	482.00
469.25	477.38
469.62	474.31
469.98	470.48
470.35	466.98
470.72	463.52
471.08	458.69
471.45	456.24
471.82	453.57
472.18	450.17
472.55	447.57
472.92	443.57
473.28	440.62
473.65	437.48
474.02	434.67
474.38	432.74
474.75	430.79
475.11	427.98
475.48	426.45
475.85	425.00
476.21	422.60
476.58	421.62
476.94	420.57
477.31	418.90
477.67	417.62
478.04	416.76
478.41	416.24
478.77	417.98
479.14	416.83
479.50	416.29
479.87	415.71
480.23	415.38
480.60	415.07
480.96	414.88
481.33	415.88
481.69	416.17
482.06	416.38
482.42	416.62
482.79	417.40
483.15	417.90
483.52	418.93
483.88	419.33
484.25	419.81
484.61	420.40
484.98	421.50
485.34	423.57
485.71	424.95
486.07	425.60
486.44	425.12
486.80	426.60
487.17	427.86
487.53	430.14
487.90	432.38
488.26	435.29
488.62	437.93
488.99	439.48
489.35	442.33
489.72	444.69
490.08	447.38
490.44	450.21
490.81	453.50
491.17	456.40
491.54	459.48
491.90	463.38
492.26	467.12
492.63	470.52
492.99	473.43
493.36	477.24
493.72	482.24
494.08	486.29
494.45	491.12
494.81	496.40
495.17	500.76
495.54	505.93
495.90	510.36
496.26	515.36
496.63	520.93
496.99	525.81
497.35	531.83
497.72	537.93
498.08	543.83
498.44	549.60
498.80	556.24
499.17	563.05
499.53	569.12
499.89	576.71
500.26	583.29
500.62	590.21
500.98	597.76
501.34	604.50
501.71	612.07
502.07	618.74
502.43	625.48
502.79	632.71
503.16	640.00
503.52	647.45
503.88	654.71
504.24	662.00
504.60	669.71
504.97	677.48
505.33	684.69
505.69	692.93
506.05	700.19
506.41	707.36
506.78	715.02
507.14	722.29
507.50	728.98
507.86	737.40
508.22	745.17
508.59	751.90
508.95	759.95
509.31	768.67
509.67	776.74
510.03	784.12
510.39	792.12
510.75	799.50
511.12	807.76
511.48	815.45
511.84	823.00
512.20	830.69
512.56	838.05
512.92	845.74
513.28	853.12
513.64	861.05
514.00	868.62
514.37	875.90
514.73	883.50
515.09	891.55
515.45	897.83
515.81	904.98
516.17	912.29
516.53	918.79
516.89	923.64
517.25	930.36
517.61	937.95
517.97	944.33
518.33	950.64
518.69	956.93
519.05	963.76
519.41	970.19
519.77	977.36
520.13	982.83
520.49	988.48
520.85	993.79
521.21	1000.36
521.57	1005.64
521.93	1010.71
522.29	1015.76
522.65	1020.33
523.01	1026.31
523.37	1031.12
523.73	1035.64
524.09	1040.98
524.45	1046.43
524.81	1051.45
525.17	1055.90
525.53	1060.43
525.89	1065.48
526.25	1070.19
526.61	1073.48
526.97	1077.95
527.33	1081.29
527.68	1087.83
528.04	1091.74
528.40	1096.36
528.76	1099.74
529.12	1104.19
529.48	1109.57
529.84	1113.67
530.20	1117.95
530.56	1121.98
530.91	1126.38
531.27	1130.55
531.63	1134.38
531.99	1138.29
532.35	1142.55
532.71	1146.43
533.07	1151.29
533.42	1157.10
533.78	1160.86
534.14	1165.40
534.50	1168.81
534.86	1173.50
535.21	1176.07
535.57	1180.81
535.93	1183.81
536.29	1188.79
536.65	1193.26
537.00	1196.33
537.36	1200.45
537.72	1203.57
538.08	1207.33
538.44	1210.88
538.79	1215.24
539.15	1218.00
539.51	1221.71
539.87	1224.43
540.22	1227.57
540.58	1230.31
540.94	1231.36
541.29	1234.48
541.65	1237.19
542.01	1240.45
542.37	1242.88
542.72	1244.74
543.08	1246.33
543.44	1249.29
543.79	1250.31
544.15	1252.24
544.51	1255.21
544.87	1258.55
545.22	1261.79
545.58	1263.90
545.94	1266.12
546.29	1268.55
546.65	1271.48
547.01	1273.74
547.36	1276.29
547.72	1278.71
548.07	1281.07
548.43	1282.93
548.79	1284.14
549.14	1286.40
549.50	1289.76
549.86	1291.48
550.21	1294.74
550.57	1297.98
550.92	1300.33
551.28	1303.93
551.64	1307.07
551.99	1310.52
552.35	1312.83
552.70	1315.26
553.06	1318.76
553.41	1322.45
553.77	1326.64
554.13	1329.88
554.48	1333.52
554.84	1338.17
555.19	1342.76
555.55	1347.88
555.90	1352.05
556.26	1357.55
556.61	1361.95
556.97	1364.64
557.32	1369.74
557.68	1373.90
558.03	1378.76
558.39	1383.24
558.74	1387.19
559.10	1391.48
559.45	1394.33
559.81	1398.62
560.16	1403.10
560.52	1407.33
560.87	1411.52
561.23	1415.12
561.58	1421.26
561.94	1425.90
562.29	1428.76
562.64	1432.95
563.00	1437.14
563.35	1442.12
563.71	1446.07
564.06	1451.36
564.42	1457.02
564.77	1461.86
565.12	1467.74
565.48	1474.40
565.83	1480.48
566.19	1486.19
566.54	1491.19
566.89	1497.52
567.25	1504.10
567.60	1510.33
567.96	1518.55
568.31	1525.17
568.66	1531.62
569.02	1536.62
569.37	1541.71
569.72	1547.83
570.08	1552.74
570.43	1557.33
570.78	1562.90
571.14	1568.45
571.49	1573.52
571.84	1579.02
572.20	1583.21
572.55	1587.29
572.90	1590.33
573.26	1594.02
573.61	1598.38
573.96	1603.71
574.31	1607.43
574.67	1611.02
575.02	1614.98
575.37	1616.64
575.72	1619.45
576.08	1622.95
576.43	1626.57
576.78	1630.45
577.13	1634.12
577.49	1638.12
577.84	1642.76
578.19	1647.02
578.54	1651.67
578.90	1655.67
579.25	1659.05
579.60	1663.60
579.95	1666.29
580.30	1670.05
580.66	1674.62
581.01	1678.31
581.36	1680.90
581.71	1684.12
582.06	1688.43
582.42	1691.88
582.77	1694.95
583.12	1698.98
583.47	1702.05
583.82	1705.17
584.17	1708.45
584.53	1712.62
584.88	1715.26
585.23	1717.50
585.58	1719.60
585.93	1721.31
586.28	1723.95
586.63	1726.81
586.98	1729.48
587.34	1734.05
587.69	1736.00
588.04	1738.60
588.39	1740.19
588.74	1741.79
589.09	1744.76
589.44	1745.93
589.79	1747.45
590.14	1749.88
590.49	1750.83
590.84	1752.69
591.19	1754.05
591.54	1755.83
591.89	1756.33
592.25	1760.64
592.60	1762.76
592.95	1764.33
593.30	1766.98
593.65	1767.95
594.00	1768.33
594.35	1774.95
594.70	1774.64
595.05	1775.50
595.40	1775.83
595.75	1776.57
596.10	1778.12
596.45	1779.26
596.80	1780.21
597.15	1782.17
597.50	1781.83
597.85	1783.79
598.19	1783.90
598.54	1784.10
598.89	1783.67
599.24	1784.62
599.59	1783.19
599.94	1782.93
600.29	1783.14
600.64	1782.64
600.99	1782.88
601.34	1784.40
601.69	1778.33
602.04	1778.29
602.39	1778.17
602.74	1777.93
603.08	1777.93
603.43	1778.62
603.78	1778.02
604.13	1777.76
604.48	1776.79
604.83	1777.55
605.18	1776.74
605.53	1777.02
605.87	1776.98
606.22	1777.24
606.57	1776.14
606.92	1773.69
607.27	1773.12
607.62	1773.07
607.96	1772.74
608.31	1772.81
608.66	1770.90
609.01	1769.86
609.36	1768.86
609.70	1767.90
610.05	1766.14
610.40	1765.33
610.75	1762.83
611.10	1761.24
611.44	1758.00
611.79	1755.86
612.14	1753.52
612.49	1749.98
612.83	1745.71
613.18	1742.50
613.53	1739.36
613.88	1736.05
614.22	1733.57
614.57	1729.45
614.92	1725.19
615.27	1720.60
615.61	1715.26
615.96	1711.17
616.31	1707.21
616.65	1705.02
617.00	1701.62
617.35	1698.36
617.70	1694.05
618.04	1691.29
618.39	1686.69
618.74	1684.02
619.08	1680.17
619.43	1676.24
619.78	1673.31
620.12	1670.69
620.47	1667.45
620.82	1663.83
621.16	1659.43
621.51	1656.60
621.85	1652.48
622.20	1648.55
622.55	1644.43
622.89	1641.21
623.24	1638.50
623.59	1635.88
623.93	1631.55
624.28	1627.69
624.62	1625.29
624.97	1622.90
625.32	1618.02
625.66	1614.36
626.01	1609.29
626.35	1605.62
626.70	1601.67
627.04	1598.33
627.39	1594.26
627.73	1590.95
628.08	1587.52
628.43	1584.31
628.77	1580.24
629.12	1577.79
629.46	1574.10
629.81	1570.24
630.15	1565.19
630.50	1560.14
630.84	1555.45
631.19	1550.10
631.53	1545.48
631.88	1538.90
632.22	1531.83
632.57	1527.86
632.91	1522.64
633.26	1518.71
633.60	1513.10
633.95	1507.43
634.29	1501.52
634.64	1497.26
634.98	1491.90
635.32	1487.67
635.67	1483.43
636.01	1478.98
636.36	1473.19
636.70	1469.40
637.05	1464.81
637.39	1461.67
637.73	1457.74
638.08	1453.67
638.42	1448.81
638.77	1444.74
639.11	1441.02
639.45	1437.24
639.80	1431.64
640.14	1427.38
640.49	1421.81
640.83	1416.81
641.17	1412.36
641.52	1407.52
641.86	1402.52
642.20	1398.05
642.55	1392.14
642.89	1386.64
643.23	1380.55
643.58	1376.98
643.92	1370.48
644.26	1365.50
644.61	1360.12
644.95	1354.43
645.29	1347.62
645.64	1342.00
645.98	1336.02
646.32	1330.38
646.66	1324.50
647.01	1318.19
647.35	1312.12
647.69	1306.64
648.04	1301.50
648.38	1296.24
648.72	1290.76
649.06	1284.24
649.41	1277.50
649.75	1270.71
650.09	1264.62
650.43	1258.40
650.78	1249.93
651.12	1243.31
651.46	1235.98
651.80	1228.93
652.14	1221.19
652.49	1215.17
652.83	1209.79
653.17	1202.81
653.51	1195.79
653.85	1189.10
654.20	1182.98
654.54	1176.38
654.88	1169.83
655.22	1163.93
655.56	1156.62
655.90	1149.86
656.25	1143.38
656.59	1136.93
656.93	1131.62
657.27	1126.40
657.61	1119.67
657.95	1114.88
658.29	1108.81
658.64	1104.31
658.98	1097.90
659.32	1092.38
659.66	1086.29
660.00	1078.93
660.34	1072.36
660.68	1066.52
661.02	1060.17
661.36	1054.14
661.70	1048.45
662.05	1042.48
662.39	1035.93
662.73	1030.45
663.07	1025.21
663.41	1019.07
663.75	1013.17
664.09	1006.71
664.43	999.81
664.77	994.12
665.11	987.14
665.45	981.36
665.79	975.02
666.13	968.71
666.47	963.52
666.81	957.33
667.15	952.00
667.49	947.14
667.83	941.76
668.17	936.81
668.51	931.81
668.85	926.19
669.19	921.71
669.53	915.62
669.87	909.81
670.21	903.88
670.55	898.26
670.89	893.33
671.23	888.26
671.57	882.93
671.91	877.88
672.25	872.19
672.58	867.55
672.92	861.36
673.26	856.48
673.60	850.33
673.94	845.12
674.28	840.05
674.62	835.33
674.96	829.88
675.30	824.69
675.64	818.67
675.97	814.26
676.31	808.83
676.65	803.95
676.99	800.10
677.33	794.43
677.67	790.02
678.01	784.24
678.34	779.00
678.68	774.40
679.02	769.14
679.36	764.64
679.70	758.93
680.04	753.95
680.37	748.88
680.71	743.95
681.05	739.21
681.39	734.93
681.73	729.69
682.06	724.67
682.40	720.07
682.74	715.74
683.08	711.07
683.42	705.95
683.75	701.71
684.09	696.14
684.43	691.81
684.77	686.71
685.10	682.14
685.44	677.52
685.78	672.29
686.12	668.07
686.45	662.90
686.79	658.71
687.13	654.67
687.46	650.43
687.80	646.98
688.14	642.48
688.48	637.79
688.81	632.83
689.15	629.19
689.49	624.45
689.82	620.86
690.16	615.71
690.50	611.38
690.83	607.07
691.17	601.86
691.51	597.83
691.84	593.64
692.18	589.74
692.52	585.60
692.85	582.17
693.19	578.55
693.52	575.36
693.86	571.29
694.20	567.10
694.53	563.02
694.87	558.57
695.21	554.83
695.54	550.98
695.88	546.93
696.21	542.02
696.55	538.43
696.88	533.93
697.22	530.12
697.56	526.57
697.89	522.38
698.23	519.40
698.56	515.76
698.90	512.24
699.23	508.19
699.57	504.79
699.90	501.05
700.24	497.36
700.58	493.81
700.91	490.36
701.25	488.79
701.58	486.55
701.92	484.00
702.25	480.90
702.59	477.10
702.92	474.26
703.26	471.36
703.59	468.38
703.93	467.24
704.26	464.31
704.60	461.55
704.93	458.50
705.26	455.83
705.60	453.19
705.93	450.24
706.27	447.95
706.60	445.45
706.94	443.24
707.27	440.17
707.61	437.45
707.94	434.86
708.27	430.81
708.61	427.19
708.94	424.33
709.28	421.93
709.61	419.21
709.94	417.31
710.28	415.24
710.61	412.76
710.95	408.50
711.28	407.86
711.61	405.24
711.95	403.69
712.28	401.14
712.61	398.36
712.95	397.36
713.28	396.21
713.61	393.95
713.95	391.14
714.28	389.05
714.61	386.71
714.95	384.64
715.28	381.93
715.61	379.81
715.95	377.76
716.28	375.26
716.61	373.95
716.95	371.40
717.28	369.31
717.61	367.26
717.94	365.48
718.28	361.86
718.61	359.81
718.94	357.50
719.27	355.31
719.61	353.79
719.94	350.83
720.27	347.98
720.60	345.67
720.94	343.81
721.27	342.33
721.60	341.36
721.93	339.29
722.27	338.83
722.60	337.52
722.93	335.52
723.26	334.00
723.59	332.19
723.93	331.10
724.26	329.57
724.59	328.10
724.92	326.98
725.25	326.50
725.59	325.45
725.92	324.31
726.25	323.43
726.58	322.40
726.91	321.38
727.24	320.50
727.57	319.64
727.91	318.45
728.24	317.29
728.57	315.74
728.90	315.21
729.23	313.31
729.56	313.05
729.89	312.19
730.22	311.00
730.55	309.81
730.89	308.60
731.22	307.55
731.55	306.88
731.88	305.50
732.21	303.76
732.54	302.52
732.87	301.45
733.20	300.29
733.53	299.17
733.86	298.40
734.19	297.29
734.52	296.38
734.85	296.67
735.18	295.67
735.51	295.26
735.84	294.48
736.17	294.31
736.50	292.31
736.83	293.86
737.16	293.55
737.49	292.83
737.82	291.71
738.15	291.07
738.48	289.93
738.81	289.05
739.14	288.29
739.47	287.40
739.80	286.45
740.13	285.83
740.46	284.57
740.79	283.40
741.12	282.14
741.45	281.12
741.78	279.38
742.11	279.02
742.44	277.74
742.77	277.02
743.10	275.81
743.43	274.95
743.75	271.98
744.08	273.74
744.41	272.67
744.74	271.93
745.07	270.76
745.40	270.19
745.73	270.52
746.06	269.98
746.39	269.33
746.71	268.36
747.04	267.33
747.37	266.76
747.70	266.45
748.03	265.98
748.36	265.71
748.68	264.86
749.01	263.55
749.34	263.12
749.67	262.52
750.00	262.26
750.33	263.12
750.65	262.79
750.98	259.52
751.31	259.48
751.64	259.05
751.97	259.88
752.29	259.17
752.62	257.62
752.95	256.90
753.28	256.40
753.60	255.88
753.93	256.21
754.26	255.83
754.59	254.90
754.91	254.19
755.24	253.40
755.57	252.88
755.90	252.43
756.22	251.76
756.55	250.83
756.88	249.86
757.20	248.02
757.53	246.93
757.86	246.00
758.19	245.43
758.51	244.98
758.84	243.17
759.17	242.69
759.49	242.29
759.82	242.81
760.15	242.67
760.47	242.48
760.80	241.36
761.13	241.26
761.45	240.62
761.78	240.36
762.11	239.83
762.43	239.50
762.76	239.07
763.08	238.79
763.41	238.60
763.74	238.36
764.06	238.12
764.39	237.88
764.71	237.76
765.04	237.14
765.37	236.76
765.69	236.40
766.02	236.07
766.34	235.74
766.67	234.60
767.00	234.36
767.32	235.10
767.65	236.02
767.97	235.74
768.30	235.60
768.62	235.50
768.95	235.19
769.27	234.74
769.60	234.90
769.92	234.52
770.25	233.90
770.57	233.29
770.90	233.19
771.22	232.74
771.55	232.76
771.87	232.64
772.20	232.36
772.52	233.81
772.85	235.88
773.17	235.69
773.50	235.36
773.82	235.00
774.15	234.00
774.47	232.45
774.80	231.64
775.12	231.48
775.45	230.93
775.77	230.88
776.09	230.98
776.42	230.57
776.74	230.86
777.07	230.67
777.39	230.79
777.72	230.31
778.04	230.36
778.36	229.74
778.69	229.43
779.01	229.45
779.33	227.81
779.66	225.52
779.98	225.19
780.31	225.02
780.63	225.57
780.95	225.64
781.28	225.69
781.60	225.48
781.92	225.45
782.25	225.33
782.57	225.31
782.89	225.12
783.22	224.76
783.54	224.36
783.86	224.60
784.19	224.07
784.51	224.57
784.83	224.26
785.16	224.43
