SpectraSuite Data File
++++++++++++++++++++++++++++++++++++
Date: Tue Apr 02 18:42:19 EDT 2013
User: group
Dark Spectrum Present: No
Reference Spectrum Present: No
Number of Sampled Component Spectra: 1
Spectrometers: USB2E7196
Integration Time (usec): 580000 (USB2E7196)
Spectra Averaged: 2 (USB2E7196)
Boxcar Smoothing: 10 (USB2E7196)
Correct for Electrical Dark: No (USB2E7196)
Strobe/Lamp Enabled: No (USB2E7196)
Correct for Detector Non-linearity: No (USB2E7196)
Correct for Stray Light: No (USB2E7196)
Number of Pixels in Processed Spectrum: 2048
>>>>>Begin Processed Spectral Data<<<<<
339.09	0.00
339.48	191.50
339.86	192.50
340.24	193.00
340.63	196.00
341.01	231.00
341.39	201.00
341.78	206.50
342.16	208.50
342.54	204.50
342.93	196.26
343.31	205.79
343.69	206.40
344.07	206.93
344.46	207.69
344.84	208.45
345.22	207.17
345.60	207.43
345.99	207.60
346.37	207.52
346.75	207.62
347.13	207.88
347.52	208.14
347.90	208.74
348.28	208.88
348.66	209.29
349.05	208.76
349.43	208.74
349.81	208.88
350.19	209.12
350.57	209.40
350.96	209.62
351.34	210.10
351.72	210.33
352.10	210.40
352.48	210.33
352.87	210.26
353.25	210.48
353.63	210.62
354.01	210.60
354.39	210.93
354.77	211.17
355.15	211.48
355.54	211.38
355.92	210.98
356.30	210.93
356.68	212.45
357.06	212.76
357.44	212.67
357.82	212.69
358.20	213.36
358.58	213.33
358.97	213.83
359.35	214.45
359.73	215.05
360.11	215.24
360.49	215.62
360.87	215.69
361.25	216.12
361.63	216.79
362.01	217.19
362.39	217.33
362.77	217.38
363.15	217.45
363.53	217.74
363.91	217.95
364.29	218.19
364.67	216.19
365.05	216.40
365.43	216.81
365.81	217.38
366.19	217.43
366.57	218.21
366.95	218.00
367.33	217.31
367.71	217.12
368.09	217.67
368.47	217.40
368.85	217.48
369.23	217.88
369.61	217.24
369.99	217.64
370.37	217.71
370.75	218.90
371.13	218.62
371.51	218.02
371.89	218.29
372.27	218.29
372.65	218.17
373.03	217.98
373.41	217.74
373.78	217.45
374.16	216.60
374.54	216.05
374.92	215.76
375.30	216.00
375.68	215.64
376.06	215.67
376.44	215.81
376.82	215.81
377.19	215.48
377.57	215.67
377.95	215.05
378.33	214.86
378.71	213.33
379.09	213.67
379.47	214.07
379.84	213.67
380.22	213.60
380.60	213.57
380.98	213.57
381.36	213.43
381.73	213.17
382.11	213.40
382.49	213.45
382.87	213.17
383.25	213.07
383.62	215.45
384.00	214.98
384.38	214.86
384.76	215.05
385.13	215.86
385.51	215.69
385.89	215.40
386.27	215.29
386.64	215.64
387.02	215.38
387.40	215.29
387.78	215.48
388.15	215.26
388.53	215.12
388.91	214.95
389.29	214.86
389.66	215.12
390.04	215.24
390.42	215.48
390.79	215.79
391.17	215.71
391.55	213.36
391.92	213.50
392.30	213.90
392.68	213.69
393.05	213.43
393.43	213.50
393.81	213.55
394.18	213.38
394.56	213.62
394.94	214.14
395.31	214.21
395.69	214.90
396.06	215.36
396.44	215.67
396.82	215.57
397.19	216.71
397.57	216.62
397.95	216.95
398.32	216.79
398.70	216.95
399.07	217.74
399.45	217.83
399.82	218.00
400.20	217.83
400.58	217.64
400.95	217.05
401.33	217.45
401.70	219.05
402.08	219.33
402.45	219.17
402.83	219.55
403.20	219.62
403.58	219.31
403.95	219.86
404.33	220.26
404.71	220.64
405.08	221.86
405.46	222.17
405.83	222.33
406.21	222.50
406.58	222.79
406.96	222.86
407.33	223.60
407.70	224.02
408.08	226.14
408.45	227.19
408.83	228.31
409.20	228.69
409.58	228.05
409.95	229.17
410.33	230.31
410.70	230.57
411.08	231.86
411.45	232.88
411.82	233.60
412.20	235.29
412.57	237.83
412.95	237.43
413.32	239.05
413.69	240.36
414.07	242.10
414.44	244.07
414.82	245.95
415.19	248.14
415.56	250.38
415.94	251.26
416.31	254.26
416.68	256.64
417.06	260.02
417.43	263.74
417.81	267.02
418.18	270.81
418.55	274.48
418.93	278.36
419.30	282.71
419.67	287.17
420.04	291.40
420.42	295.62
420.79	302.60
421.16	308.55
421.54	315.83
421.91	321.69
422.28	327.57
422.66	334.36
423.03	342.17
423.40	348.86
423.77	356.52
424.15	363.38
424.52	371.17
424.89	379.86
425.26	387.93
425.64	395.62
426.01	404.00
426.38	413.33
426.75	423.07
427.13	432.31
427.50	442.64
427.87	453.19
428.24	463.24
428.61	471.67
428.99	482.88
429.36	493.24
429.73	505.17
430.10	517.14
430.47	529.07
430.85	539.60
431.22	552.57
431.59	567.19
431.96	580.36
432.33	594.62
432.70	608.40
433.08	624.24
433.45	639.55
433.82	654.88
434.19	672.10
434.56	689.00
434.93	704.79
435.30	720.17
435.68	737.21
436.05	754.64
436.42	772.00
436.79	787.69
437.16	804.93
437.53	822.81
437.90	841.14
438.27	858.79
438.64	876.93
439.01	893.74
439.38	908.10
439.75	923.36
440.13	940.45
440.50	956.50
440.87	969.60
441.24	983.48
441.61	998.36
441.98	1008.64
442.35	1020.45
442.72	1034.07
443.09	1047.62
443.46	1055.60
443.83	1061.38
444.20	1066.74
444.57	1073.24
444.94	1076.95
445.31	1080.52
445.68	1086.10
446.05	1087.74
446.42	1087.02
446.79	1086.45
447.16	1084.19
447.53	1083.07
447.90	1076.86
448.27	1070.36
448.64	1061.71
449.01	1055.36
449.37	1044.12
449.74	1033.31
450.11	1022.05
450.48	1007.00
450.85	991.00
451.22	978.45
451.59	966.38
451.96	954.05
452.33	938.29
452.70	923.86
453.07	906.62
453.43	887.02
453.80	869.88
454.17	854.07
454.54	837.95
454.91	821.52
455.28	805.31
455.65	790.10
456.02	777.88
456.38	764.83
456.75	749.10
457.12	735.45
457.49	722.40
457.86	708.12
458.23	697.95
458.59	686.21
458.96	674.05
459.33	662.74
459.70	652.29
460.07	643.76
460.43	633.79
460.80	624.71
461.17	616.90
461.54	609.14
461.91	600.81
462.27	592.83
462.64	585.38
463.01	577.31
463.38	570.74
463.74	559.95
464.11	553.24
464.48	547.21
464.85	540.83
465.21	536.31
465.58	531.00
465.95	524.00
466.32	518.74
466.68	513.17
467.05	508.24
467.42	503.26
467.78	497.93
468.15	492.79
468.52	489.64
468.88	483.76
469.25	478.69
469.62	475.00
469.98	470.79
470.35	467.69
470.72	464.57
471.08	459.71
471.45	457.50
471.82	455.05
472.18	451.62
472.55	449.33
472.92	445.71
473.28	442.88
473.65	440.40
474.02	437.55
474.38	435.79
474.75	433.43
475.11	430.86
475.48	429.05
475.85	427.50
476.21	425.02
476.58	424.07
476.94	423.12
477.31	422.33
477.67	421.36
478.04	420.40
478.41	419.40
478.77	420.88
479.14	419.26
479.50	418.55
479.87	418.45
480.23	417.69
480.60	417.38
480.96	417.43
481.33	418.40
481.69	418.81
482.06	418.90
482.42	419.21
482.79	419.67
483.15	419.81
483.52	420.93
483.88	421.71
484.25	421.76
484.61	422.48
484.98	422.50
485.34	424.17
485.71	425.21
486.07	426.83
486.44	426.90
486.80	428.64
487.17	429.86
487.53	432.14
487.90	434.31
488.26	437.19
488.62	439.36
488.99	440.74
489.35	443.71
489.72	446.17
490.08	449.07
490.44	452.00
490.81	455.36
491.17	457.95
491.54	461.14
491.90	465.43
492.26	469.33
492.63	473.40
492.99	476.86
493.36	481.69
493.72	485.76
494.08	489.43
494.45	494.26
494.81	499.55
495.17	504.02
495.54	509.43
495.90	514.36
496.26	519.69
496.63	525.14
496.99	530.19
497.35	535.86
497.72	541.55
498.08	547.31
498.44	553.12
498.80	559.74
499.17	566.14
499.53	572.50
499.89	579.69
500.26	586.98
500.62	593.88
500.98	600.45
501.34	607.19
501.71	614.83
502.07	621.74
502.43	628.90
502.79	636.14
503.16	643.00
503.52	649.86
503.88	657.00
504.24	665.00
504.60	673.21
504.97	681.43
505.33	688.81
505.69	697.60
506.05	705.52
506.41	712.64
506.78	719.90
507.14	727.02
507.50	733.83
507.86	740.71
508.22	748.14
508.59	754.98
508.95	763.40
509.31	771.64
509.67	779.55
510.03	786.93
510.39	794.33
510.75	802.31
511.12	809.98
511.48	818.00
511.84	824.98
512.20	832.19
512.56	840.10
512.92	848.29
513.28	855.52
513.64	863.62
514.00	871.26
514.37	879.14
514.73	886.45
515.09	894.31
515.45	902.07
515.81	909.83
516.17	917.02
516.53	923.21
516.89	929.14
517.25	936.60
517.61	944.36
517.97	950.43
518.33	957.29
518.69	964.31
519.05	970.95
519.41	977.43
519.77	984.98
520.13	991.05
520.49	997.05
520.85	1002.45
521.21	1008.74
521.57	1014.60
521.93	1020.21
522.29	1026.36
522.65	1031.71
523.01	1037.21
523.37	1042.10
523.73	1047.81
524.09	1053.21
524.45	1058.50
524.81	1062.71
525.17	1066.67
525.53	1072.38
525.89	1077.05
526.25	1082.36
526.61	1086.48
526.97	1090.81
527.33	1094.57
527.68	1100.14
528.04	1104.48
528.40	1109.10
528.76	1112.69
529.12	1117.67
529.48	1123.10
529.84	1127.02
530.20	1131.10
530.56	1135.19
530.91	1139.69
531.27	1144.29
531.63	1148.74
531.99	1153.45
532.35	1156.76
532.71	1161.60
533.07	1166.21
533.42	1172.57
533.78	1176.17
534.14	1180.74
534.50	1185.14
534.86	1189.40
535.21	1191.55
535.57	1195.90
535.93	1198.81
536.29	1203.31
536.65	1207.50
537.00	1210.14
537.36	1213.86
537.72	1217.52
538.08	1221.40
538.44	1224.45
538.79	1227.79
539.15	1231.07
539.51	1234.55
539.87	1238.95
540.22	1242.36
540.58	1245.88
540.94	1247.50
541.29	1250.93
541.65	1253.17
542.01	1256.95
542.37	1259.38
542.72	1262.31
543.08	1264.79
543.44	1269.67
543.79	1271.50
544.15	1274.14
544.51	1277.83
544.87	1281.10
545.22	1284.71
545.58	1287.71
545.94	1290.93
546.29	1293.52
546.65	1296.12
547.01	1297.93
547.36	1300.50
547.72	1303.29
548.07	1306.07
548.43	1308.36
548.79	1310.74
549.14	1314.33
549.50	1317.45
549.86	1320.10
550.21	1324.31
550.57	1328.02
550.92	1330.10
551.28	1333.24
551.64	1335.71
551.99	1338.83
552.35	1341.69
552.70	1344.26
553.06	1347.60
553.41	1350.43
553.77	1355.12
554.13	1358.52
554.48	1363.50
554.84	1368.69
555.19	1372.14
555.55	1377.00
555.90	1381.17
556.26	1385.36
556.61	1388.36
556.97	1391.14
557.32	1395.19
557.68	1397.93
558.03	1401.33
558.39	1404.83
558.74	1409.83
559.10	1414.02
559.45	1417.64
559.81	1423.00
560.16	1427.31
560.52	1431.31
560.87	1435.93
561.23	1439.90
561.58	1446.02
561.94	1450.12
562.29	1453.45
562.64	1457.93
563.00	1460.88
563.35	1464.95
563.71	1469.43
564.06	1474.93
564.42	1479.62
564.77	1485.48
565.12	1491.71
565.48	1498.76
565.83	1505.64
566.19	1511.29
566.54	1517.17
566.89	1522.69
567.25	1528.98
567.60	1536.24
567.96	1544.26
568.31	1551.81
568.66	1558.17
569.02	1562.64
569.37	1567.93
569.72	1573.71
570.08	1578.31
570.43	1583.93
570.78	1589.69
571.14	1595.48
571.49	1601.17
571.84	1607.17
572.20	1611.55
572.55	1615.81
572.90	1618.57
573.26	1621.67
573.61	1625.79
573.96	1630.55
574.31	1635.74
574.67	1638.64
575.02	1641.86
575.37	1643.48
575.72	1645.90
576.08	1649.67
576.43	1653.60
576.78	1656.76
577.13	1660.21
577.49	1664.86
577.84	1669.12
578.19	1672.48
578.54	1676.43
578.90	1680.48
579.25	1684.31
579.60	1687.19
579.95	1690.33
580.30	1694.31
580.66	1699.14
581.01	1701.98
581.36	1704.95
581.71	1708.00
582.06	1712.76
582.42	1715.57
582.77	1719.10
583.12	1723.00
583.47	1725.88
583.82	1728.40
584.17	1731.90
584.53	1734.93
584.88	1736.95
585.23	1739.93
585.58	1742.62
585.93	1744.00
586.28	1745.57
586.63	1748.07
586.98	1750.93
587.34	1754.02
587.69	1756.88
588.04	1757.29
588.39	1759.19
588.74	1760.12
589.09	1761.26
589.44	1760.76
589.79	1762.00
590.14	1764.24
590.49	1765.31
590.84	1765.45
591.19	1766.64
591.54	1767.26
591.89	1768.69
592.25	1772.45
592.60	1772.50
592.95	1773.02
593.30	1774.43
593.65	1775.00
594.00	1774.52
594.35	1780.93
594.70	1779.86
595.05	1779.60
595.40	1781.43
595.75	1782.48
596.10	1784.21
596.45	1785.71
596.80	1786.52
597.15	1787.62
597.50	1786.86
597.85	1787.57
598.19	1788.19
598.54	1788.31
598.89	1788.50
599.24	1788.76
599.59	1786.71
599.94	1787.05
600.29	1787.86
600.64	1788.19
600.99	1788.86
601.34	1789.57
601.69	1783.43
602.04	1783.76
602.39	1783.83
602.74	1782.88
603.08	1781.17
603.43	1781.05
603.78	1779.57
604.13	1779.00
604.48	1777.10
604.83	1777.02
605.18	1776.21
605.53	1775.90
605.87	1775.12
606.22	1774.57
606.57	1772.19
606.92	1770.93
607.27	1769.26
607.62	1767.45
607.96	1766.55
608.31	1765.21
608.66	1763.64
609.01	1761.88
609.36	1760.88
609.70	1757.62
610.05	1755.02
610.40	1753.90
610.75	1751.24
611.10	1749.64
611.44	1746.55
611.79	1744.55
612.14	1741.33
612.49	1737.31
612.83	1733.52
613.18	1729.40
613.53	1725.67
613.88	1721.93
614.22	1718.29
614.57	1714.88
614.92	1711.64
615.27	1706.88
615.61	1701.90
615.96	1698.00
616.31	1694.57
616.65	1691.31
617.00	1688.74
617.35	1685.45
617.70	1680.69
618.04	1675.93
618.39	1669.88
618.74	1667.14
619.08	1662.48
619.43	1658.21
619.78	1654.12
620.12	1650.02
620.47	1646.83
620.82	1642.86
621.16	1639.10
621.51	1635.62
621.85	1630.45
622.20	1625.26
622.55	1620.52
622.89	1617.17
623.24	1612.64
623.59	1608.29
623.93	1603.12
624.28	1598.57
624.62	1596.29
624.97	1593.43
625.32	1588.90
625.66	1585.67
626.01	1579.98
626.35	1576.00
626.70	1571.50
627.04	1568.79
627.39	1564.48
627.73	1561.29
628.08	1557.12
628.43	1554.05
628.77	1549.79
629.12	1545.81
629.46	1541.31
629.81	1537.36
630.15	1531.81
630.50	1527.17
630.84	1521.98
631.19	1517.14
631.53	1511.86
631.88	1504.60
632.22	1498.62
632.57	1494.14
632.91	1488.50
633.26	1484.48
633.60	1479.02
633.95	1473.67
634.29	1467.29
634.64	1461.07
634.98	1455.45
635.32	1451.45
635.67	1446.62
636.01	1440.76
636.36	1435.40
636.70	1431.79
637.05	1426.62
637.39	1421.95
637.73	1417.31
638.08	1413.88
638.42	1408.69
638.77	1404.43
639.11	1399.71
639.45	1394.43
639.80	1388.86
640.14	1383.02
640.49	1376.81
640.83	1371.36
641.17	1366.48
641.52	1360.31
641.86	1355.86
642.20	1350.81
642.55	1343.29
642.89	1336.45
643.23	1330.48
643.58	1325.83
643.92	1318.93
644.26	1312.74
644.61	1307.02
644.95	1299.71
645.29	1291.50
645.64	1285.79
645.98	1278.93
646.32	1272.36
646.66	1265.31
647.01	1258.31
647.35	1253.71
647.69	1247.93
648.04	1242.38
648.38	1236.40
648.72	1230.83
649.06	1224.21
649.41	1217.02
649.75	1210.90
650.09	1204.21
650.43	1197.98
650.78	1190.88
651.12	1184.45
651.46	1177.93
651.80	1171.10
652.14	1165.10
652.49	1159.33
652.83	1152.24
653.17	1145.12
653.51	1138.07
653.85	1132.71
654.20	1126.40
654.54	1118.60
654.88	1111.67
655.22	1105.74
655.56	1098.40
655.90	1091.62
656.25	1085.26
656.59	1078.86
656.93	1072.50
657.27	1067.40
657.61	1060.83
657.95	1055.14
658.29	1048.79
658.64	1043.05
658.98	1036.36
659.32	1029.52
659.66	1022.62
660.00	1016.52
660.34	1010.29
660.68	1004.60
661.02	997.17
661.36	990.69
661.70	985.17
662.05	979.19
662.39	972.81
662.73	967.62
663.07	962.48
663.41	956.45
663.75	949.81
664.09	943.83
664.43	936.10
664.77	930.26
665.11	923.21
665.45	917.10
665.79	911.45
666.13	905.45
666.47	900.02
666.81	894.33
667.15	888.26
667.49	883.48
667.83	878.45
668.17	873.57
668.51	868.60
668.85	863.00
669.19	857.76
669.53	851.45
669.87	845.33
670.21	838.98
670.55	833.12
670.89	828.67
671.23	823.79
671.57	819.24
671.91	813.88
672.25	808.45
672.58	804.12
672.92	798.02
673.26	793.17
673.60	787.98
673.94	783.33
674.28	778.43
674.62	773.43
674.96	767.76
675.30	763.02
675.64	758.07
675.97	752.95
676.31	747.86
676.65	742.45
676.99	738.14
677.33	732.86
677.67	729.00
678.01	723.88
678.34	719.07
678.68	714.81
679.02	710.07
679.36	705.00
679.70	699.62
680.04	694.88
680.37	690.38
680.71	686.05
681.05	681.67
681.39	677.12
681.73	672.00
682.06	667.83
682.40	663.14
682.74	658.88
683.08	655.45
683.42	650.81
683.75	647.64
684.09	642.69
684.43	638.21
684.77	633.33
685.10	629.10
685.44	624.48
685.78	619.71
686.12	615.17
686.45	611.40
686.79	606.79
687.13	603.07
687.46	599.10
687.80	594.83
688.14	590.57
688.48	586.71
688.81	582.81
689.15	578.95
689.49	574.93
689.82	570.71
690.16	565.93
690.50	562.24
690.83	557.76
691.17	553.64
691.51	550.02
691.84	546.10
692.18	541.52
692.52	537.83
692.85	534.14
693.19	531.76
693.52	528.05
693.86	524.31
694.20	520.48
694.53	516.10
694.87	512.55
695.21	508.64
695.54	504.50
695.88	500.45
696.21	496.36
696.55	493.00
696.88	489.60
697.22	486.24
697.56	482.76
697.89	478.74
698.23	475.79
698.56	472.38
698.90	469.29
699.23	466.02
699.57	462.71
699.90	459.55
700.24	455.74
700.58	452.67
700.91	450.14
701.25	448.74
701.58	446.79
701.92	444.29
702.25	441.40
702.59	438.71
702.92	436.55
703.26	433.79
703.59	431.07
703.93	430.48
704.26	427.90
704.60	425.33
704.93	423.24
705.26	420.43
705.60	418.60
705.93	415.86
706.27	414.07
706.60	411.98
706.94	410.24
707.27	407.38
707.61	405.29
707.94	402.93
708.27	399.02
708.61	396.12
708.94	393.86
709.28	391.83
709.61	389.67
709.94	387.52
710.28	385.52
710.61	383.07
710.95	378.95
711.28	378.14
711.61	376.17
711.95	374.52
712.28	372.33
712.61	369.93
712.95	369.21
713.28	367.79
713.61	365.62
713.95	362.88
714.28	361.29
714.61	359.50
714.95	357.40
715.28	355.36
715.61	353.88
715.95	352.21
716.28	350.48
716.61	349.12
716.95	347.02
717.28	345.17
717.61	343.62
717.94	341.67
718.28	338.45
718.61	336.81
718.94	334.71
719.27	333.33
719.61	331.69
719.94	329.52
720.27	327.12
720.60	325.43
720.94	323.95
721.27	322.57
721.60	321.29
721.93	320.02
722.27	319.36
722.60	317.95
722.93	316.52
723.26	315.38
723.59	313.64
723.93	312.69
724.26	311.43
724.59	310.31
724.92	309.57
725.25	309.24
725.59	307.86
725.92	307.00
726.25	305.83
726.58	305.12
726.91	303.64
727.24	303.00
727.57	302.14
727.91	300.81
728.24	300.07
728.57	298.67
728.90	298.02
729.23	296.33
729.56	296.38
729.89	295.26
730.22	294.02
730.55	293.21
730.89	292.26
731.22	291.62
731.55	290.74
731.88	289.81
732.21	288.29
732.54	287.36
732.87	286.48
733.20	285.90
733.53	284.83
733.86	284.26
734.19	283.21
734.52	282.55
734.85	283.40
735.18	282.07
735.51	282.12
735.84	281.33
736.17	281.10
736.50	279.24
736.83	280.69
737.16	280.26
737.49	279.43
737.82	278.50
738.15	277.93
738.48	276.90
738.81	276.21
739.14	275.45
739.47	274.67
739.80	273.71
740.13	273.07
740.46	272.07
740.79	271.07
741.12	270.36
741.45	269.62
741.78	267.83
742.11	267.88
742.44	266.86
742.77	266.38
743.10	265.43
743.43	264.71
743.75	261.93
744.08	263.62
744.41	262.90
744.74	262.19
745.07	261.12
745.40	260.95
745.73	261.19
746.06	260.69
746.39	260.38
746.71	259.86
747.04	258.79
747.37	258.31
747.70	258.05
748.03	257.55
748.36	257.33
748.68	256.88
749.01	255.55
749.34	254.76
749.67	254.38
750.00	254.52
750.33	255.52
750.65	255.29
750.98	252.45
751.31	252.19
751.64	251.90
751.97	252.79
752.29	252.26
752.62	250.93
752.95	250.21
753.28	249.52
753.60	249.02
753.93	249.40
754.26	249.24
754.59	248.40
754.91	247.95
755.24	247.19
755.57	246.48
755.90	246.10
756.22	245.76
756.55	245.10
756.88	244.45
757.20	242.76
757.53	241.79
757.86	241.17
758.19	241.00
758.51	240.67
758.84	239.17
759.17	238.55
759.49	238.07
759.82	238.93
760.15	238.95
760.47	238.55
760.80	237.64
761.13	237.81
761.45	237.45
761.78	237.07
762.11	236.74
762.43	236.45
762.76	236.02
763.08	236.02
763.41	235.67
763.74	235.26
764.06	234.90
764.39	234.86
764.71	234.79
765.04	234.33
765.37	233.98
765.69	233.57
766.02	233.21
766.34	233.10
766.67	231.98
767.00	231.93
767.32	232.93
767.65	233.98
767.97	233.21
768.30	233.19
768.62	232.93
768.95	232.45
769.27	232.31
769.60	232.55
769.92	232.07
770.25	231.45
770.57	230.88
770.90	230.81
771.22	230.40
771.55	230.29
771.87	229.98
772.20	229.76
772.52	231.33
772.85	233.79
773.17	233.48
773.50	233.33
773.82	233.00
774.15	231.79
774.47	230.14
774.80	229.90
775.12	229.81
775.45	229.74
775.77	229.76
776.09	230.10
776.42	229.88
776.74	230.33
777.07	230.43
777.39	230.17
777.72	229.74
778.04	230.02
778.36	229.76
778.69	229.76
779.01	229.83
779.33	228.19
779.66	225.86
779.98	225.67
780.31	225.60
780.63	226.52
780.95	226.88
781.28	226.81
781.60	226.71
781.92	226.21
782.25	225.79
782.57	225.64
782.89	225.00
783.22	224.88
783.54	224.10
783.86	224.02
784.19	223.86
784.51	224.31
784.83	223.48
785.16	223.36
