SpectraSuite Data File
++++++++++++++++++++++++++++++++++++
Date: Tue Apr 02 18:43:36 EDT 2013
User: group
Dark Spectrum Present: No
Reference Spectrum Present: No
Number of Sampled Component Spectra: 1
Spectrometers: USB2E7196
Integration Time (usec): 580000 (USB2E7196)
Spectra Averaged: 2 (USB2E7196)
Boxcar Smoothing: 10 (USB2E7196)
Correct for Electrical Dark: No (USB2E7196)
Strobe/Lamp Enabled: No (USB2E7196)
Correct for Detector Non-linearity: No (USB2E7196)
Correct for Stray Light: No (USB2E7196)
Number of Pixels in Processed Spectrum: 2048
>>>>>Begin Processed Spectral Data<<<<<
339.09	0.00
339.48	195.50
339.86	195.50
340.24	201.00
340.63	196.50
341.01	236.00
341.39	208.00
341.78	210.00
342.16	210.50
342.54	207.50
342.93	199.21
343.31	209.17
343.69	209.95
344.07	210.64
344.46	210.98
344.84	211.38
345.22	209.98
345.60	209.90
345.99	209.74
346.37	209.81
346.75	209.74
347.13	209.74
347.52	209.79
347.90	210.55
348.28	210.60
348.66	210.88
349.05	210.05
349.43	210.14
349.81	210.33
350.19	210.17
350.57	210.05
350.96	210.31
351.34	210.60
351.72	210.55
352.10	210.48
352.48	210.29
352.87	210.45
353.25	210.45
353.63	210.48
354.01	210.57
354.39	210.67
354.77	210.83
355.15	211.29
355.54	211.02
355.92	210.31
356.30	210.36
356.68	211.55
357.06	211.76
357.44	211.57
357.82	211.55
358.20	212.86
358.58	213.00
358.97	213.10
359.35	213.40
359.73	213.36
360.11	213.55
360.49	214.02
360.87	214.14
361.25	214.57
361.63	215.45
362.01	215.62
362.39	215.64
362.77	215.93
363.15	215.98
363.53	216.02
363.91	216.29
364.29	216.40
364.67	214.71
365.05	214.93
365.43	215.33
365.81	215.83
366.19	216.00
366.57	217.05
366.95	217.02
367.33	216.67
367.71	216.88
368.09	217.26
368.47	217.31
368.85	217.31
369.23	217.86
369.61	217.07
369.99	217.81
370.37	217.98
370.75	218.93
371.13	218.60
371.51	218.48
371.89	218.60
372.27	218.79
372.65	219.19
373.03	219.26
373.41	219.05
373.78	218.76
374.16	217.55
374.54	216.71
374.92	216.71
375.30	216.67
375.68	216.48
376.06	216.48
376.44	216.40
376.82	216.62
377.19	216.50
377.57	216.50
377.95	216.02
378.33	215.90
378.71	214.74
379.09	214.90
379.47	215.21
379.84	215.05
380.22	214.95
380.60	214.52
380.98	214.33
381.36	214.29
381.73	214.10
382.11	214.64
382.49	215.05
382.87	214.60
383.25	214.83
383.62	216.98
384.00	216.67
384.38	216.60
384.76	216.95
385.13	217.60
385.51	217.62
385.89	217.02
386.27	216.88
386.64	216.98
387.02	217.02
387.40	216.88
387.78	217.19
388.15	217.17
388.53	217.02
388.91	217.21
389.29	217.07
389.66	217.31
390.04	216.90
390.42	217.05
390.79	217.02
391.17	216.71
391.55	214.71
391.92	214.43
392.30	214.71
392.68	214.19
393.05	213.95
393.43	214.12
393.81	214.60
394.18	214.36
394.56	214.48
394.94	214.90
395.31	215.00
395.69	215.36
396.06	215.38
396.44	215.81
396.82	215.33
397.19	216.62
397.57	216.21
397.95	216.48
398.32	215.95
398.70	216.40
399.07	216.79
399.45	216.71
399.82	216.98
400.20	216.52
400.58	216.55
400.95	215.88
401.33	216.45
401.70	217.86
402.08	218.12
402.45	218.14
402.83	218.62
403.20	218.48
403.58	218.29
403.95	218.71
404.33	218.86
404.71	219.40
405.08	220.45
405.46	220.95
405.83	221.48
406.21	221.62
406.58	221.88
406.96	222.26
407.33	222.86
407.70	223.50
408.08	225.69
408.45	226.67
408.83	227.52
409.20	227.74
409.58	227.21
409.95	228.33
410.33	229.31
410.70	229.19
411.08	230.71
411.45	231.95
411.82	232.95
412.20	234.55
412.57	236.98
412.95	236.64
413.32	238.52
413.69	239.76
414.07	241.48
414.44	243.31
414.82	245.36
415.19	247.76
415.56	250.24
415.94	251.29
416.31	253.90
416.68	256.57
417.06	259.86
417.43	263.55
417.81	266.83
418.18	270.57
418.55	274.69
418.93	278.19
419.30	282.07
419.67	286.31
420.04	290.74
420.42	294.74
420.79	301.74
421.16	307.02
421.54	314.10
421.91	320.29
422.28	326.55
422.66	333.14
423.03	340.88
423.40	347.24
423.77	354.57
424.15	361.69
424.52	369.29
424.89	377.83
425.26	384.98
425.64	392.52
426.01	400.83
426.38	409.55
426.75	419.31
427.13	428.52
427.50	438.33
427.87	448.43
428.24	458.21
428.61	467.00
428.99	478.71
429.36	488.98
429.73	500.69
430.10	512.17
430.47	524.00
430.85	534.48
431.22	547.26
431.59	562.24
431.96	575.26
432.33	589.31
432.70	602.88
433.08	619.10
433.45	634.17
433.82	649.64
434.19	666.07
434.56	682.57
434.93	698.50
435.30	714.52
435.68	731.60
436.05	749.21
436.42	765.67
436.79	780.79
437.16	797.74
437.53	814.67
437.90	832.60
438.27	850.12
438.64	868.40
439.01	885.86
439.38	899.57
439.75	914.12
440.13	931.38
440.50	947.40
440.87	960.31
441.24	973.81
441.61	988.43
441.98	999.57
442.35	1011.57
442.72	1024.24
443.09	1037.40
443.46	1045.74
443.83	1050.60
444.20	1055.40
444.57	1061.64
444.94	1064.62
445.31	1068.69
445.68	1074.48
446.05	1075.71
446.42	1074.24
446.79	1072.88
447.16	1071.43
447.53	1070.43
447.90	1063.93
448.27	1056.40
448.64	1047.83
449.01	1041.69
449.37	1030.67
449.74	1020.24
450.11	1009.74
450.48	995.19
450.85	979.31
451.22	966.00
451.59	954.76
451.96	943.21
452.33	927.79
452.70	914.67
453.07	897.43
453.43	877.52
453.80	860.90
454.17	845.31
454.54	829.60
454.91	813.26
455.28	797.21
455.65	782.10
456.02	771.50
456.38	758.71
456.75	743.40
457.12	729.55
457.49	716.50
457.86	701.48
458.23	691.45
458.59	679.76
458.96	667.95
459.33	656.88
459.70	645.93
460.07	637.52
460.43	627.48
460.80	618.88
461.17	611.88
461.54	603.74
461.91	596.14
462.27	587.67
462.64	580.40
463.01	572.98
463.38	566.81
463.74	556.02
464.11	549.36
464.48	543.55
464.85	537.67
465.21	533.02
465.58	528.19
465.95	521.90
466.32	517.31
466.68	512.21
467.05	507.43
467.42	502.95
467.78	497.43
468.15	492.60
468.52	488.79
468.88	483.24
469.25	478.45
469.62	474.93
469.98	471.36
470.35	467.71
470.72	464.26
471.08	459.36
471.45	456.57
471.82	454.26
472.18	450.74
472.55	447.98
472.92	444.69
473.28	441.43
473.65	438.26
474.02	435.07
474.38	433.33
474.75	431.02
475.11	428.50
475.48	427.40
475.85	425.21
476.21	423.48
476.58	421.90
476.94	421.14
477.31	419.24
477.67	418.21
478.04	417.07
478.41	416.07
478.77	417.67
479.14	416.40
479.50	415.07
479.87	414.76
480.23	414.50
480.60	413.95
480.96	414.33
481.33	415.24
481.69	415.52
482.06	415.57
482.42	416.00
482.79	416.52
483.15	416.71
483.52	417.95
483.88	418.17
484.25	418.52
484.61	419.36
484.98	420.17
485.34	421.83
485.71	423.24
486.07	424.40
486.44	423.74
486.80	425.74
487.17	427.48
487.53	429.74
487.90	431.79
488.26	434.69
488.62	437.07
488.99	438.90
489.35	441.74
489.72	443.93
490.08	446.50
490.44	449.14
490.81	452.19
491.17	454.79
491.54	458.55
491.90	462.69
492.26	466.14
492.63	470.10
492.99	473.21
493.36	477.60
493.72	482.29
494.08	486.67
494.45	491.12
494.81	496.50
495.17	501.02
495.54	506.33
495.90	510.90
496.26	515.71
496.63	521.38
496.99	526.10
497.35	531.88
497.72	537.81
498.08	544.17
498.44	550.14
498.80	556.38
499.17	562.29
499.53	568.29
499.89	575.19
500.26	581.60
500.62	588.43
500.98	595.31
501.34	602.33
501.71	609.86
502.07	616.69
502.43	623.45
502.79	630.52
503.16	636.88
503.52	644.17
503.88	651.38
504.24	658.90
504.60	667.05
504.97	674.93
505.33	682.24
505.69	690.38
506.05	698.05
506.41	706.21
506.78	714.45
507.14	722.05
507.50	729.07
507.86	737.29
508.22	745.00
508.59	752.31
508.95	760.12
509.31	768.14
509.67	776.50
510.03	783.93
510.39	792.19
510.75	800.19
511.12	808.12
511.48	816.05
511.84	823.62
512.20	831.33
512.56	838.83
512.92	846.36
513.28	853.79
513.64	861.83
514.00	868.62
514.37	875.50
514.73	882.90
515.09	890.60
515.45	897.62
515.81	904.86
516.17	911.52
516.53	918.29
516.89	924.24
517.25	930.38
517.61	937.48
517.97	943.43
518.33	949.79
518.69	956.29
519.05	962.62
519.41	968.57
519.77	975.50
520.13	981.19
520.49	987.10
520.85	992.93
521.21	998.45
521.57	1005.02
521.93	1010.55
522.29	1016.43
522.65	1021.74
523.01	1027.26
523.37	1032.19
523.73	1037.67
524.09	1042.29
524.45	1047.05
524.81	1051.29
525.17	1056.12
525.53	1060.71
525.89	1065.93
526.25	1069.98
526.61	1073.88
526.97	1078.29
527.33	1082.17
527.68	1088.36
528.04	1093.21
528.40	1096.50
528.76	1100.38
529.12	1104.71
529.48	1109.48
529.84	1113.05
530.20	1118.43
530.56	1123.50
530.91	1128.10
531.27	1132.26
531.63	1136.55
531.99	1141.40
532.35	1145.60
532.71	1149.26
533.07	1153.29
533.42	1159.24
533.78	1163.64
534.14	1168.33
534.50	1172.62
534.86	1177.43
535.21	1180.14
535.57	1184.69
535.93	1188.93
536.29	1193.98
536.65	1197.67
537.00	1200.86
537.36	1204.26
537.72	1206.38
538.08	1209.10
538.44	1212.62
538.79	1217.10
539.15	1219.95
539.51	1223.24
539.87	1227.29
540.22	1231.17
540.58	1235.14
540.94	1236.55
541.29	1239.64
541.65	1242.40
542.01	1245.50
542.37	1247.67
542.72	1250.00
543.08	1251.12
543.44	1254.29
543.79	1255.64
544.15	1258.24
544.51	1262.02
544.87	1265.19
545.22	1269.10
545.58	1271.83
545.94	1274.55
546.29	1275.81
546.65	1279.26
547.01	1281.86
547.36	1284.48
547.72	1286.48
548.07	1288.71
548.43	1290.98
548.79	1293.57
549.14	1296.19
549.50	1299.43
549.86	1300.98
550.21	1304.38
550.57	1308.74
550.92	1310.83
551.28	1314.50
551.64	1316.50
551.99	1319.19
552.35	1322.17
552.70	1324.60
553.06	1327.43
553.41	1330.79
553.77	1335.71
554.13	1339.81
554.48	1344.12
554.84	1348.02
555.19	1351.81
555.55	1357.67
555.90	1360.93
556.26	1364.38
556.61	1368.40
556.97	1371.29
557.32	1376.50
557.68	1379.71
558.03	1382.50
558.39	1386.69
558.74	1390.31
559.10	1395.29
559.45	1399.24
559.81	1403.95
560.16	1407.79
560.52	1412.60
560.87	1416.81
561.23	1420.52
561.58	1425.43
561.94	1428.29
562.29	1432.19
562.64	1437.19
563.00	1440.40
563.35	1445.90
563.71	1451.43
564.06	1456.71
564.42	1462.31
564.77	1467.52
565.12	1473.74
565.48	1481.90
565.83	1487.98
566.19	1493.74
566.54	1499.05
566.89	1503.88
567.25	1509.95
567.60	1517.40
567.96	1524.21
568.31	1530.52
568.66	1536.52
569.02	1540.93
569.37	1546.88
569.72	1552.38
570.08	1557.79
570.43	1562.50
570.78	1568.43
571.14	1573.83
571.49	1579.29
571.84	1584.83
572.20	1589.62
572.55	1594.31
572.90	1597.19
573.26	1600.90
573.61	1604.83
573.96	1609.88
574.31	1614.98
574.67	1618.21
575.02	1620.43
575.37	1622.26
575.72	1625.40
576.08	1629.00
576.43	1632.69
576.78	1636.17
577.13	1640.98
577.49	1644.24
577.84	1648.00
578.19	1651.64
578.54	1655.55
578.90	1659.57
579.25	1662.88
579.60	1665.95
579.95	1668.76
580.30	1672.24
580.66	1676.55
581.01	1680.52
581.36	1683.38
581.71	1686.12
582.06	1690.95
582.42	1695.98
582.77	1699.55
583.12	1702.36
583.47	1705.31
583.82	1708.83
584.17	1713.31
584.53	1716.29
584.88	1719.79
585.23	1723.14
585.58	1725.29
585.93	1727.31
586.28	1728.50
586.63	1730.76
586.98	1733.26
587.34	1736.81
587.69	1738.60
588.04	1741.50
588.39	1743.88
588.74	1746.12
589.09	1749.40
589.44	1749.62
589.79	1751.10
590.14	1753.60
590.49	1755.38
590.84	1756.83
591.19	1758.00
591.54	1759.76
591.89	1760.36
592.25	1763.40
592.60	1764.50
592.95	1767.19
593.30	1768.55
593.65	1769.88
594.00	1769.69
594.35	1775.67
594.70	1775.93
595.05	1777.64
595.40	1777.60
595.75	1777.52
596.10	1778.74
596.45	1778.64
596.80	1779.95
597.15	1779.88
597.50	1780.45
597.85	1782.48
598.19	1783.00
598.54	1783.64
598.89	1782.79
599.24	1783.93
599.59	1782.40
599.94	1783.05
600.29	1782.71
600.64	1782.86
600.99	1784.05
601.34	1785.83
601.69	1781.67
602.04	1780.74
602.39	1780.40
602.74	1780.67
603.08	1780.71
603.43	1780.71
603.78	1780.90
604.13	1781.26
604.48	1780.43
604.83	1779.86
605.18	1779.05
605.53	1778.33
605.87	1777.33
606.22	1776.36
606.57	1774.88
606.92	1773.60
607.27	1772.38
607.62	1771.12
607.96	1770.62
608.31	1769.31
608.66	1767.83
609.01	1765.76
609.36	1765.52
609.70	1763.29
610.05	1761.26
610.40	1760.26
610.75	1757.81
611.10	1755.31
611.44	1752.64
611.79	1750.50
612.14	1747.88
612.49	1744.12
612.83	1741.69
613.18	1738.33
613.53	1735.64
613.88	1732.31
614.22	1729.50
614.57	1725.07
614.92	1721.31
615.27	1716.83
615.61	1712.05
615.96	1708.55
616.31	1705.07
616.65	1702.10
617.00	1699.98
617.35	1697.43
617.70	1694.19
618.04	1690.00
618.39	1685.79
618.74	1681.76
619.08	1677.55
619.43	1674.02
619.78	1670.67
620.12	1667.38
620.47	1664.43
620.82	1660.12
621.16	1655.88
621.51	1653.02
621.85	1649.79
622.20	1645.31
622.55	1640.90
622.89	1637.67
623.24	1633.71
623.59	1630.21
623.93	1626.05
624.28	1620.69
624.62	1617.48
624.97	1614.48
625.32	1610.88
625.66	1607.50
626.01	1603.31
626.35	1600.40
626.70	1596.76
627.04	1593.90
627.39	1589.55
627.73	1586.21
628.08	1583.07
628.43	1580.17
628.77	1575.31
629.12	1571.71
629.46	1567.93
629.81	1564.93
630.15	1560.14
630.50	1555.90
630.84	1550.95
631.19	1545.62
631.53	1541.55
631.88	1533.95
632.22	1526.10
632.57	1521.95
632.91	1515.95
633.26	1511.29
633.60	1505.98
633.95	1500.14
634.29	1494.48
634.64	1490.02
634.98	1484.71
635.32	1480.76
635.67	1475.95
636.01	1471.26
636.36	1466.14
636.70	1462.17
637.05	1457.69
637.39	1453.71
637.73	1448.26
638.08	1444.43
638.42	1439.50
638.77	1434.57
639.11	1430.55
639.45	1426.88
639.80	1420.88
640.14	1417.29
640.49	1411.98
640.83	1406.14
641.17	1401.43
641.52	1395.10
641.86	1389.29
642.20	1385.67
642.55	1378.71
642.89	1373.38
643.23	1366.67
643.58	1362.17
643.92	1355.33
644.26	1349.55
644.61	1343.90
644.95	1338.45
645.29	1331.02
645.64	1325.88
645.98	1320.33
646.32	1315.07
646.66	1308.29
647.01	1301.88
647.35	1295.86
647.69	1290.24
648.04	1285.36
648.38	1279.64
648.72	1274.45
649.06	1268.43
649.41	1260.86
649.75	1254.36
650.09	1247.19
650.43	1241.50
650.78	1233.50
651.12	1227.17
651.46	1219.90
651.80	1212.83
652.14	1206.24
652.49	1200.86
652.83	1194.62
653.17	1187.48
653.51	1180.90
653.85	1174.95
654.20	1168.83
654.54	1161.21
654.88	1153.98
655.22	1147.38
655.56	1140.60
655.90	1133.57
656.25	1126.88
656.59	1120.67
656.93	1114.79
657.27	1109.43
657.61	1102.86
657.95	1098.00
658.29	1091.79
658.64	1086.07
658.98	1079.55
659.32	1072.76
659.66	1066.48
660.00	1060.26
660.34	1054.19
660.68	1047.86
661.02	1041.83
661.36	1035.74
661.70	1030.40
662.05	1024.24
662.39	1018.10
662.73	1012.88
663.07	1008.21
663.41	1002.69
663.75	995.57
664.09	989.69
664.43	983.43
664.77	977.07
665.11	970.17
665.45	964.86
665.79	959.12
666.13	953.74
666.47	948.45
666.81	942.17
667.15	935.43
667.49	930.10
667.83	924.64
668.17	918.76
668.51	912.74
668.85	906.98
669.19	903.12
669.53	896.64
669.87	890.07
670.21	883.45
670.55	876.79
670.89	872.88
671.23	867.45
671.57	861.55
671.91	857.43
672.25	851.93
672.58	847.43
672.92	841.31
673.26	835.76
673.60	830.74
673.94	825.74
674.28	821.07
674.62	815.71
674.96	810.07
675.30	804.93
675.64	800.38
675.97	795.07
676.31	788.81
676.65	784.14
676.99	779.98
677.33	775.29
677.67	771.31
678.01	765.02
678.34	760.31
678.68	755.83
679.02	750.14
679.36	745.26
679.70	739.10
680.04	734.29
680.37	729.50
680.71	724.05
681.05	719.52
681.39	714.55
681.73	710.36
682.06	706.10
682.40	701.69
682.74	697.19
683.08	693.60
683.42	688.79
683.75	684.62
684.09	679.24
684.43	674.36
684.77	669.02
685.10	665.02
685.44	660.14
685.78	655.67
686.12	651.40
686.45	646.93
686.79	642.64
687.13	638.57
687.46	634.02
687.80	630.31
688.14	625.31
688.48	621.33
688.81	616.19
689.15	612.69
689.49	608.38
689.82	604.14
690.16	599.10
690.50	595.33
690.83	590.50
691.17	585.95
691.51	581.88
691.84	578.52
692.18	574.21
692.52	570.26
692.85	566.71
693.19	563.52
693.52	559.40
693.86	555.29
694.20	551.67
694.53	548.21
694.87	544.12
695.21	540.43
695.54	536.24
695.88	532.21
696.21	526.90
696.55	523.05
696.88	519.45
697.22	515.95
697.56	512.55
697.89	509.14
698.23	505.93
698.56	502.29
698.90	498.79
699.23	494.88
699.57	491.98
699.90	488.07
700.24	483.90
700.58	480.43
700.91	477.74
701.25	475.81
701.58	473.45
701.92	471.02
702.25	467.93
702.59	464.86
702.92	462.24
703.26	459.95
703.59	457.21
703.93	456.17
704.26	453.45
704.60	450.02
704.93	447.50
705.26	445.05
705.60	442.62
705.93	439.74
706.27	438.02
706.60	435.29
706.94	433.05
707.27	430.50
707.61	428.60
707.94	425.76
708.27	421.76
708.61	418.26
708.94	415.36
709.28	413.67
709.61	411.31
709.94	408.95
710.28	406.50
710.61	404.14
710.95	399.62
711.28	398.83
711.61	397.07
711.95	394.98
712.28	392.62
712.61	390.29
712.95	389.12
713.28	387.48
713.61	385.21
713.95	382.55
714.28	380.67
714.61	378.26
714.95	376.00
715.28	373.98
715.61	371.86
715.95	369.98
716.28	367.36
716.61	365.36
716.95	363.31
717.28	361.12
717.61	359.00
717.94	357.36
718.28	353.88
718.61	351.86
718.94	349.57
719.27	347.62
719.61	346.10
719.94	343.81
720.27	340.86
720.60	338.90
720.94	337.50
721.27	335.90
721.60	334.64
721.93	332.90
722.27	331.71
722.60	330.26
722.93	328.55
723.26	327.17
723.59	325.55
723.93	324.29
724.26	323.19
724.59	321.79
724.92	320.67
725.25	319.88
725.59	318.67
725.92	317.98
726.25	317.05
726.58	315.83
726.91	314.29
727.24	313.50
727.57	312.40
727.91	310.93
728.24	310.00
728.57	308.67
728.90	308.00
729.23	306.21
729.56	306.10
729.89	305.00
730.22	303.86
730.55	302.67
730.89	301.60
731.22	300.52
731.55	299.64
731.88	298.64
732.21	297.45
732.54	296.38
732.87	295.10
733.20	294.00
733.53	292.86
733.86	292.02
734.19	290.81
734.52	290.31
734.85	290.52
735.18	289.38
735.51	289.38
735.84	288.69
736.17	288.69
736.50	287.00
736.83	288.26
737.16	287.67
737.49	287.17
737.82	286.17
738.15	285.62
738.48	284.69
738.81	283.67
739.14	282.57
739.47	281.62
739.80	281.33
740.13	280.67
740.46	279.67
740.79	278.74
741.12	278.00
741.45	276.69
741.78	275.05
742.11	274.71
742.44	273.29
742.77	272.81
743.10	271.76
743.43	271.10
743.75	268.31
744.08	270.14
744.41	269.07
744.74	268.71
745.07	267.55
745.40	267.48
745.73	267.79
746.06	267.12
746.39	266.71
746.71	265.60
747.04	264.79
747.37	264.21
747.70	263.95
748.03	263.31
748.36	263.02
748.68	262.50
749.01	261.48
749.34	260.95
749.67	260.19
750.00	259.93
750.33	260.64
750.65	260.38
750.98	257.57
751.31	257.45
751.64	256.81
751.97	257.71
752.29	256.79
752.62	255.24
752.95	254.83
753.28	254.10
753.60	253.43
753.93	253.40
754.26	253.19
754.59	251.95
754.91	251.48
755.24	251.10
755.57	250.64
755.90	250.10
756.22	249.45
756.55	248.76
756.88	247.95
757.20	246.24
757.53	245.29
757.86	244.69
758.19	244.36
758.51	243.71
758.84	242.24
759.17	241.98
759.49	241.83
759.82	242.45
760.15	242.19
760.47	241.95
760.80	241.17
761.13	241.17
761.45	240.93
761.78	240.62
762.11	240.00
762.43	239.50
762.76	239.26
763.08	239.17
763.41	239.19
763.74	239.02
764.06	238.76
764.39	238.67
764.71	238.14
765.04	237.74
765.37	237.62
765.69	237.21
766.02	236.69
766.34	236.24
766.67	235.12
767.00	235.45
767.32	236.33
767.65	236.98
767.97	236.29
768.30	236.33
768.62	236.07
768.95	235.69
769.27	235.26
769.60	235.33
769.92	234.79
770.25	233.88
770.57	233.19
770.90	232.95
771.22	232.38
771.55	232.60
771.87	232.43
772.20	231.90
772.52	233.50
772.85	235.74
773.17	235.62
773.50	235.29
773.82	234.62
774.15	233.33
774.47	232.19
774.80	232.10
775.12	231.76
775.45	231.79
775.77	231.76
776.09	231.98
776.42	231.67
776.74	232.26
777.07	232.17
777.39	232.12
777.72	231.64
778.04	231.86
778.36	231.62
778.69	231.40
779.01	231.48
779.33	229.40
779.66	226.86
779.98	226.48
780.31	226.40
780.63	227.10
780.95	227.50
781.28	227.29
781.60	226.74
781.92	226.60
782.25	225.98
782.57	225.79
782.89	225.50
783.22	225.14
783.54	224.60
783.86	224.67
784.19	224.38
784.51	225.10
784.83	224.64
785.16	224.07
