SpectraSuite Data File
++++++++++++++++++++++++++++++++++++
Date: Tue Apr 02 18:45:12 EDT 2013
User: group
Dark Spectrum Present: No
Reference Spectrum Present: No
Number of Sampled Component Spectra: 1
Spectrometers: USB2E7196
Integration Time (usec): 580000 (USB2E7196)
Spectra Averaged: 2 (USB2E7196)
Boxcar Smoothing: 10 (USB2E7196)
Correct for Electrical Dark: No (USB2E7196)
Strobe/Lamp Enabled: No (USB2E7196)
Correct for Detector Non-linearity: No (USB2E7196)
Correct for Stray Light: No (USB2E7196)
Number of Pixels in Processed Spectrum: 2048
>>>>>Begin Processed Spectral Data<<<<<
339.09	0.00
339.48	193.50
339.86	191.00
340.24	192.50
340.63	195.00
341.01	227.00
341.39	200.50
341.78	205.50
342.16	208.00
342.54	205.00
342.93	196.60
343.31	206.29
343.69	206.71
344.07	207.55
344.46	208.74
344.84	209.55
345.22	208.64
345.60	208.98
345.99	209.24
346.37	209.14
346.75	209.02
347.13	209.17
347.52	209.52
347.90	210.19
348.28	210.19
348.66	210.81
349.05	210.19
349.43	210.69
349.81	211.05
350.19	210.93
350.57	210.74
350.96	211.26
351.34	211.69
351.72	212.07
352.10	212.17
352.48	211.83
352.87	211.76
353.25	211.76
353.63	211.74
354.01	211.67
354.39	212.00
354.77	212.38
355.15	213.12
355.54	212.67
355.92	212.07
356.30	212.21
356.68	213.43
357.06	213.52
357.44	213.12
357.82	213.10
358.20	214.40
358.58	214.60
358.97	214.71
359.35	215.29
359.73	215.74
360.11	215.69
360.49	215.83
360.87	215.90
361.25	216.29
361.63	217.33
362.01	217.69
362.39	217.55
362.77	217.86
363.15	217.86
363.53	218.14
363.91	218.38
364.29	218.64
364.67	216.67
365.05	216.79
365.43	217.19
365.81	217.36
366.19	217.36
366.57	218.31
366.95	218.02
367.33	217.57
367.71	217.38
368.09	217.93
368.47	217.74
368.85	217.83
369.23	218.29
369.61	217.29
369.99	217.76
370.37	218.24
370.75	219.02
371.13	218.43
371.51	218.14
371.89	218.29
372.27	218.24
372.65	218.45
373.03	218.52
373.41	218.52
373.78	218.21
374.16	217.00
374.54	216.10
374.92	216.00
375.30	215.81
375.68	215.52
376.06	215.50
376.44	215.60
376.82	215.69
377.19	215.36
377.57	215.43
377.95	214.62
378.33	214.45
378.71	213.29
379.09	213.43
379.47	213.71
379.84	213.36
380.22	213.29
380.60	213.10
380.98	212.95
381.36	212.67
381.73	212.60
382.11	213.17
382.49	213.38
382.87	213.33
383.25	213.36
383.62	215.69
384.00	215.24
384.38	215.14
384.76	215.48
385.13	216.48
385.51	216.43
385.89	216.31
386.27	216.21
386.64	216.60
387.02	216.62
387.40	216.50
387.78	216.71
388.15	216.64
388.53	216.36
388.91	216.21
389.29	216.12
389.66	216.48
390.04	216.07
390.42	216.38
390.79	216.52
391.17	216.50
391.55	214.36
391.92	214.36
392.30	214.69
392.68	214.07
393.05	213.74
393.43	214.07
393.81	214.12
394.18	213.86
394.56	213.83
394.94	214.21
395.31	214.05
395.69	214.40
396.06	214.69
396.44	215.17
396.82	215.33
397.19	216.40
397.57	215.95
397.95	216.36
398.32	215.55
398.70	215.50
399.07	215.88
399.45	215.79
399.82	215.69
400.20	215.33
400.58	215.38
400.95	214.69
401.33	214.83
401.70	216.38
402.08	216.67
402.45	216.55
402.83	216.93
403.20	217.14
403.58	217.26
403.95	217.57
404.33	217.90
404.71	217.95
405.08	219.00
405.46	219.43
405.83	219.60
406.21	220.14
406.58	220.67
406.96	221.02
407.33	221.48
407.70	222.45
408.08	224.81
408.45	225.74
408.83	226.55
409.20	226.90
409.58	226.79
409.95	227.74
410.33	228.86
410.70	229.14
411.08	230.50
411.45	231.45
411.82	232.26
412.20	233.74
412.57	236.10
412.95	235.62
413.32	237.33
413.69	238.74
414.07	240.48
414.44	242.24
414.82	244.21
415.19	246.67
415.56	248.79
415.94	249.86
416.31	252.79
416.68	255.83
417.06	259.31
417.43	262.52
417.81	266.17
418.18	269.90
418.55	273.57
418.93	277.55
419.30	281.81
419.67	286.43
420.04	290.76
420.42	294.79
420.79	302.05
421.16	307.69
421.54	315.02
421.91	320.98
422.28	327.02
422.66	333.81
423.03	341.74
423.40	348.57
423.77	355.64
424.15	362.48
424.52	369.45
424.89	377.88
425.26	385.29
425.64	392.36
426.01	400.31
426.38	408.90
426.75	418.24
427.13	426.57
427.50	436.38
427.87	446.55
428.24	456.86
428.61	465.50
428.99	476.71
429.36	486.69
429.73	498.12
430.10	509.69
430.47	521.05
430.85	531.50
431.22	543.71
431.59	558.26
431.96	570.88
432.33	584.79
432.70	598.45
433.08	614.26
433.45	630.17
433.82	645.33
434.19	662.29
434.56	678.95
434.93	695.40
435.30	710.74
435.68	728.21
436.05	745.45
436.42	762.26
436.79	778.00
437.16	795.21
437.53	812.74
437.90	830.50
438.27	848.24
438.64	865.95
439.01	882.88
439.38	896.69
439.75	912.00
440.13	929.02
440.50	944.86
440.87	958.36
441.24	971.48
441.61	985.81
441.98	996.76
442.35	1008.55
442.72	1021.29
443.09	1034.64
443.46	1041.90
443.83	1046.67
444.20	1051.36
444.57	1057.62
444.94	1060.71
445.31	1063.64
445.68	1069.62
446.05	1070.98
446.42	1069.24
446.79	1068.79
447.16	1067.02
447.53	1065.26
447.90	1059.33
448.27	1052.21
448.64	1043.76
449.01	1037.31
449.37	1027.02
449.74	1016.36
450.11	1005.07
450.48	990.55
450.85	974.76
451.22	962.05
451.59	950.86
451.96	939.17
452.33	923.24
452.70	908.57
453.07	891.98
453.43	871.71
453.80	855.38
454.17	840.62
454.54	824.76
454.91	808.57
455.28	792.76
455.65	777.50
456.02	766.45
456.38	753.48
456.75	738.17
457.12	724.57
457.49	711.79
457.86	697.62
458.23	687.86
458.59	676.24
458.96	664.38
459.33	653.14
459.70	642.62
460.07	634.52
460.43	625.43
460.80	617.21
461.17	610.38
461.54	602.17
461.91	594.55
462.27	586.38
462.64	579.57
463.01	572.36
463.38	565.93
463.74	555.40
464.11	548.88
464.48	543.43
464.85	537.36
465.21	532.83
465.58	528.26
465.95	521.55
466.32	516.45
466.68	511.57
467.05	506.83
467.42	502.17
467.78	496.69
468.15	491.95
468.52	488.36
468.88	482.40
469.25	477.86
469.62	473.83
469.98	470.26
470.35	466.55
470.72	462.98
471.08	458.86
471.45	455.69
471.82	452.67
472.18	448.86
472.55	446.05
472.92	442.57
473.28	439.26
473.65	436.48
474.02	434.10
474.38	432.12
474.75	429.98
475.11	427.55
475.48	426.07
475.85	424.24
476.21	422.38
476.58	421.40
476.94	420.19
477.31	418.86
477.67	417.40
478.04	416.79
478.41	415.95
478.77	416.83
479.14	415.62
479.50	414.81
479.87	414.29
480.23	414.07
480.60	413.55
480.96	413.52
481.33	414.19
481.69	414.17
482.06	414.10
482.42	414.48
482.79	414.62
483.15	415.00
483.52	416.10
483.88	416.43
484.25	417.12
484.61	417.69
484.98	418.43
485.34	419.71
485.71	420.88
486.07	422.43
486.44	422.21
486.80	424.02
487.17	425.48
487.53	428.02
487.90	430.07
488.26	432.98
488.62	435.74
488.99	437.43
489.35	440.31
489.72	443.17
490.08	445.57
490.44	448.21
490.81	450.98
491.17	453.76
491.54	457.07
491.90	460.86
492.26	464.45
492.63	468.26
492.99	472.26
493.36	476.00
493.72	480.12
494.08	484.57
494.45	489.57
494.81	495.10
495.17	499.45
495.54	505.00
495.90	509.81
496.26	515.10
496.63	520.79
496.99	525.88
497.35	531.45
497.72	537.81
498.08	543.86
498.44	550.21
498.80	556.83
499.17	563.00
499.53	569.33
499.89	576.12
500.26	582.95
500.62	589.52
500.98	597.19
501.34	604.02
501.71	611.43
502.07	618.02
502.43	624.71
502.79	631.55
503.16	638.43
503.52	645.57
503.88	652.17
504.24	659.64
504.60	667.71
504.97	675.60
505.33	683.50
505.69	691.95
506.05	699.74
506.41	706.55
506.78	714.48
507.14	721.55
507.50	729.57
507.86	737.55
508.22	744.93
508.59	751.50
508.95	759.88
509.31	768.10
509.67	776.48
510.03	784.67
510.39	792.67
510.75	800.29
511.12	808.05
511.48	815.67
511.84	822.93
512.20	830.10
512.56	837.67
512.92	845.12
513.28	852.64
513.64	859.83
514.00	867.31
514.37	874.55
514.73	882.05
515.09	889.95
515.45	896.79
515.81	904.02
516.17	911.64
516.53	918.10
516.89	924.00
517.25	930.31
517.61	936.60
517.97	943.02
518.33	949.10
518.69	955.43
519.05	961.93
519.41	968.67
519.77	976.21
520.13	982.07
520.49	987.79
520.85	993.05
521.21	999.81
521.57	1006.10
521.93	1011.19
522.29	1016.83
522.65	1020.83
523.01	1026.17
523.37	1030.71
523.73	1035.83
524.09	1039.86
524.45	1044.69
524.81	1049.05
525.17	1053.29
525.53	1057.98
525.89	1062.81
526.25	1067.45
526.61	1071.74
526.97	1075.19
527.33	1078.43
527.68	1084.12
528.04	1088.24
528.40	1092.36
528.76	1095.40
529.12	1099.31
529.48	1104.17
529.84	1107.81
530.20	1112.55
530.56	1117.21
530.91	1122.24
531.27	1126.14
531.63	1131.40
531.99	1134.48
532.35	1138.69
532.71	1142.19
533.07	1146.33
533.42	1152.79
533.78	1156.88
534.14	1161.60
534.50	1166.00
534.86	1170.40
535.21	1172.67
535.57	1176.33
535.93	1180.38
536.29	1185.60
536.65	1190.05
537.00	1193.33
537.36	1197.29
537.72	1201.05
538.08	1204.14
538.44	1206.62
538.79	1210.26
539.15	1212.93
539.51	1217.62
539.87	1221.50
540.22	1225.67
540.58	1228.95
540.94	1229.90
541.29	1232.95
541.65	1234.83
542.01	1238.36
542.37	1241.17
542.72	1243.50
543.08	1246.17
543.44	1248.98
543.79	1250.00
544.15	1252.90
544.51	1256.74
544.87	1259.40
545.22	1261.40
545.58	1263.83
545.94	1267.17
546.29	1270.10
546.65	1272.93
547.01	1274.69
547.36	1276.83
547.72	1279.05
548.07	1281.52
548.43	1283.71
548.79	1285.52
549.14	1288.33
549.50	1291.36
549.86	1292.76
550.21	1295.40
550.57	1298.17
550.92	1300.86
551.28	1304.00
551.64	1306.74
551.99	1308.95
552.35	1311.83
552.70	1315.05
553.06	1318.48
553.41	1321.24
553.77	1324.50
554.13	1327.76
554.48	1332.38
554.84	1336.76
555.19	1340.95
555.55	1345.93
555.90	1350.00
556.26	1353.90
556.61	1357.14
556.97	1359.95
557.32	1364.69
557.68	1369.12
558.03	1372.90
558.39	1376.74
558.74	1380.71
559.10	1384.17
559.45	1388.24
559.81	1391.69
560.16	1395.10
560.52	1398.93
560.87	1403.88
561.23	1408.02
561.58	1413.71
561.94	1416.81
562.29	1420.26
562.64	1425.07
563.00	1428.64
563.35	1432.90
563.71	1437.98
564.06	1444.12
564.42	1449.17
564.77	1454.24
565.12	1460.19
565.48	1467.62
565.83	1473.57
566.19	1479.21
566.54	1484.81
566.89	1490.12
567.25	1497.71
567.60	1505.33
567.96	1513.33
568.31	1520.19
568.66	1526.12
569.02	1530.38
569.37	1536.60
569.72	1543.12
570.08	1547.95
570.43	1552.62
570.78	1558.31
571.14	1564.45
571.49	1569.02
571.84	1575.02
572.20	1580.05
572.55	1584.76
572.90	1587.31
573.26	1591.62
573.61	1596.79
573.96	1601.79
574.31	1607.07
574.67	1610.48
575.02	1614.14
575.37	1615.90
575.72	1618.83
576.08	1623.45
576.43	1627.86
576.78	1631.90
577.13	1635.10
577.49	1638.81
577.84	1643.86
578.19	1648.26
578.54	1651.81
578.90	1656.17
579.25	1658.79
579.60	1662.14
579.95	1665.00
580.30	1668.69
580.66	1672.26
581.01	1675.83
581.36	1678.12
581.71	1680.14
582.06	1684.48
582.42	1687.21
582.77	1690.50
583.12	1693.74
583.47	1697.00
583.82	1699.64
584.17	1701.90
584.53	1705.83
584.88	1709.76
585.23	1713.67
585.58	1716.10
585.93	1718.33
586.28	1720.95
586.63	1724.93
586.98	1728.12
587.34	1731.48
587.69	1734.38
588.04	1736.90
588.39	1739.31
588.74	1741.55
589.09	1744.67
589.44	1745.36
589.79	1748.10
590.14	1751.38
590.49	1752.74
590.84	1752.60
591.19	1754.88
591.54	1757.24
591.89	1756.98
592.25	1759.60
592.60	1759.43
592.95	1761.24
593.30	1763.45
593.65	1764.86
594.00	1764.24
594.35	1770.83
594.70	1771.05
595.05	1772.71
595.40	1773.83
595.75	1773.67
596.10	1775.43
596.45	1777.21
596.80	1778.48
597.15	1779.55
597.50	1778.95
597.85	1780.50
598.19	1781.60
598.54	1781.38
598.89	1781.55
599.24	1783.52
599.59	1782.36
599.94	1782.43
600.29	1782.43
600.64	1781.31
600.99	1780.86
601.34	1782.81
601.69	1776.48
602.04	1775.50
602.39	1775.02
602.74	1774.83
603.08	1774.43
603.43	1775.10
603.78	1773.26
604.13	1772.98
604.48	1771.50
604.83	1771.21
605.18	1770.69
605.53	1769.88
605.87	1769.29
606.22	1768.60
606.57	1767.43
606.92	1765.71
607.27	1765.33
607.62	1763.76
607.96	1762.90
608.31	1763.05
608.66	1760.88
609.01	1759.69
609.36	1759.86
609.70	1757.83
610.05	1755.62
610.40	1754.81
610.75	1751.64
611.10	1750.69
611.44	1747.95
611.79	1746.10
612.14	1744.31
612.49	1740.60
612.83	1738.64
613.18	1736.60
613.53	1734.12
613.88	1729.69
614.22	1726.88
614.57	1722.64
614.92	1719.31
615.27	1716.43
615.61	1712.00
615.96	1708.88
616.31	1706.48
616.65	1703.43
617.00	1701.31
617.35	1698.55
617.70	1694.50
618.04	1691.19
618.39	1686.93
618.74	1684.26
619.08	1680.50
619.43	1676.45
619.78	1673.74
620.12	1670.38
620.47	1666.90
620.82	1662.64
621.16	1659.90
621.51	1657.76
621.85	1654.17
622.20	1650.36
622.55	1646.02
622.89	1642.55
623.24	1639.71
623.59	1635.88
623.93	1631.60
624.28	1627.00
624.62	1624.98
624.97	1623.14
625.32	1619.60
625.66	1615.36
626.01	1610.93
626.35	1607.69
626.70	1603.86
627.04	1600.43
627.39	1596.55
627.73	1593.29
628.08	1590.38
628.43	1586.50
628.77	1581.88
629.12	1579.05
629.46	1575.81
629.81	1572.12
630.15	1567.60
630.50	1562.57
630.84	1557.26
631.19	1552.76
631.53	1548.29
631.88	1541.12
632.22	1534.98
632.57	1531.10
632.91	1526.67
633.26	1522.74
633.60	1518.45
633.95	1513.76
634.29	1507.88
634.64	1502.76
634.98	1497.14
635.32	1493.14
635.67	1489.86
636.01	1485.55
636.36	1480.45
636.70	1476.93
637.05	1472.69
637.39	1468.88
637.73	1464.69
638.08	1461.67
638.42	1456.86
638.77	1452.14
639.11	1447.71
639.45	1442.98
639.80	1437.52
640.14	1432.93
640.49	1427.67
640.83	1421.26
641.17	1416.21
641.52	1411.74
641.86	1408.05
642.20	1404.07
642.55	1398.19
642.89	1391.95
643.23	1385.90
643.58	1381.36
643.92	1374.93
644.26	1369.05
644.61	1363.98
644.95	1357.45
645.29	1350.00
645.64	1345.76
645.98	1339.93
646.32	1335.67
646.66	1329.71
647.01	1323.98
647.35	1318.52
647.69	1312.64
648.04	1307.76
648.38	1302.55
648.72	1297.19
649.06	1290.64
649.41	1283.98
649.75	1277.74
650.09	1272.00
650.43	1266.17
650.78	1259.52
651.12	1253.38
651.46	1247.52
651.80	1240.52
652.14	1234.83
652.49	1230.12
652.83	1223.24
653.17	1216.98
653.51	1210.07
653.85	1204.45
654.20	1197.69
654.54	1191.12
654.88	1185.07
655.22	1179.45
655.56	1172.21
655.90	1165.90
656.25	1159.48
656.59	1153.86
656.93	1147.57
657.27	1142.74
657.61	1136.38
657.95	1131.02
658.29	1124.43
658.64	1118.74
658.98	1112.14
659.32	1105.81
659.66	1098.69
660.00	1092.21
660.34	1086.71
660.68	1080.02
661.02	1073.26
661.36	1066.83
661.70	1061.05
662.05	1054.71
662.39	1047.69
662.73	1042.93
663.07	1037.88
663.41	1031.81
663.75	1025.17
664.09	1019.60
664.43	1012.33
664.77	1006.62
665.11	999.38
665.45	993.64
665.79	988.19
666.13	982.57
666.47	976.98
666.81	971.64
667.15	966.33
667.49	961.33
667.83	956.93
668.17	951.29
668.51	946.38
668.85	940.83
669.19	936.48
669.53	930.55
669.87	924.38
670.21	918.40
670.55	912.36
670.89	908.07
671.23	902.48
671.57	897.24
671.91	891.76
672.25	886.83
672.58	882.31
672.92	875.76
673.26	870.71
673.60	865.12
673.94	859.64
674.28	854.36
674.62	848.86
674.96	842.90
675.30	838.14
675.64	832.79
675.97	827.43
676.31	821.64
676.65	816.57
676.99	812.62
677.33	806.81
677.67	802.29
678.01	795.90
678.34	791.31
678.68	786.62
679.02	781.67
679.36	776.71
679.70	770.98
680.04	766.29
680.37	761.26
680.71	756.40
681.05	752.38
681.39	747.76
681.73	742.81
682.06	737.88
682.40	733.69
682.74	729.29
683.08	725.36
683.42	720.10
683.75	715.71
684.09	710.19
684.43	705.31
684.77	700.79
685.10	696.33
685.44	691.29
685.78	685.95
686.12	681.19
686.45	676.86
686.79	672.40
687.13	668.74
687.46	664.14
687.80	660.31
688.14	655.17
688.48	650.93
688.81	646.14
689.15	642.29
689.49	636.95
689.82	632.69
690.16	627.64
690.50	623.52
690.83	619.10
691.17	614.31
691.51	610.31
691.84	606.12
692.18	601.95
692.52	598.12
692.85	595.05
693.19	591.81
693.52	588.05
693.86	583.45
694.20	579.14
694.53	575.07
694.87	570.60
695.21	566.81
695.54	562.36
695.88	558.24
696.21	553.76
696.55	549.57
696.88	545.57
697.22	541.86
697.56	538.50
697.89	534.81
698.23	531.60
698.56	527.74
698.90	523.88
699.23	520.26
699.57	516.69
699.90	512.43
700.24	508.29
700.58	504.55
700.91	501.98
701.25	499.83
701.58	497.52
701.92	494.71
702.25	491.43
702.59	487.98
702.92	484.83
703.26	481.74
703.59	479.12
703.93	477.55
704.26	474.48
704.60	471.36
704.93	468.50
705.26	465.05
705.60	462.95
705.93	459.79
706.27	456.98
706.60	454.14
706.94	452.26
707.27	449.02
707.61	445.79
707.94	442.55
708.27	438.29
708.61	434.60
708.94	431.69
709.28	429.12
709.61	426.57
709.94	423.83
710.28	421.36
710.61	418.60
710.95	414.26
711.28	413.33
711.61	410.69
711.95	408.69
712.28	406.43
712.61	403.24
712.95	402.21
713.28	401.00
713.61	398.19
713.95	395.31
714.28	393.67
714.61	391.71
714.95	389.38
715.28	386.83
715.61	384.83
715.95	382.81
716.28	380.57
716.61	378.98
716.95	376.90
717.28	374.79
717.61	372.74
717.94	370.76
718.28	367.19
718.61	365.43
718.94	363.19
719.27	361.29
719.61	359.88
719.94	357.24
720.27	354.33
720.60	352.43
720.94	350.45
721.27	349.00
721.60	347.57
721.93	346.31
722.27	345.52
722.60	343.90
722.93	342.02
723.26	340.40
723.59	338.12
723.93	336.93
724.26	335.48
724.59	334.14
724.92	333.12
725.25	332.55
725.59	330.83
725.92	329.67
726.25	328.10
726.58	326.69
726.91	325.31
727.24	324.29
727.57	323.29
727.91	321.45
728.24	319.93
728.57	318.33
728.90	317.29
729.23	315.62
729.56	315.31
729.89	314.43
730.22	313.07
730.55	312.10
730.89	310.83
731.22	309.55
731.55	308.50
731.88	307.36
732.21	305.64
732.54	304.52
732.87	303.14
733.20	302.29
733.53	301.19
733.86	300.07
734.19	298.76
734.52	297.86
734.85	298.45
735.18	297.12
735.51	296.88
735.84	295.90
736.17	295.43
736.50	293.50
736.83	294.60
737.16	294.10
737.49	293.55
737.82	292.29
738.15	291.43
738.48	290.81
738.81	289.67
739.14	288.57
739.47	287.62
739.80	286.71
740.13	286.24
740.46	285.33
740.79	284.45
741.12	283.60
741.45	282.60
741.78	280.71
742.11	280.79
742.44	279.52
742.77	279.05
743.10	277.86
743.43	277.05
743.75	274.17
744.08	276.02
744.41	274.90
744.74	274.38
745.07	273.69
745.40	273.07
745.73	273.17
746.06	272.52
746.39	272.29
746.71	271.64
747.04	270.55
747.37	269.50
747.70	269.12
748.03	268.62
748.36	268.31
748.68	267.83
749.01	266.71
749.34	266.17
749.67	265.57
750.00	265.48
750.33	266.29
750.65	266.07
750.98	262.74
751.31	262.24
751.64	262.00
751.97	262.83
752.29	261.93
752.62	260.57
752.95	260.07
753.28	259.40
753.60	258.90
753.93	259.00
754.26	259.02
754.59	257.86
754.91	256.98
755.24	256.29
755.57	255.50
755.90	254.57
756.22	253.74
756.55	252.74
756.88	251.57
757.20	249.86
757.53	248.69
757.86	248.36
758.19	247.93
758.51	247.17
758.84	245.40
759.17	244.95
759.49	244.57
759.82	244.90
760.15	244.26
760.47	243.62
760.80	242.62
761.13	242.43
761.45	242.31
761.78	241.69
762.11	241.21
762.43	240.79
762.76	240.40
763.08	240.45
763.41	240.31
763.74	240.24
764.06	239.93
764.39	239.64
764.71	238.98
765.04	238.33
765.37	237.86
765.69	237.31
766.02	237.07
766.34	236.88
766.67	235.86
767.00	235.90
767.32	236.90
767.65	237.90
767.97	237.29
768.30	237.17
768.62	237.36
768.95	237.12
769.27	237.17
769.60	237.40
769.92	236.81
770.25	236.05
770.57	235.45
770.90	235.26
771.22	234.76
771.55	234.64
771.87	234.74
772.20	234.64
772.52	236.21
772.85	238.36
773.17	238.17
773.50	237.83
773.82	237.31
774.15	236.05
774.47	234.43
774.80	234.00
775.12	233.71
775.45	233.17
775.77	232.95
776.09	232.67
776.42	232.50
776.74	233.07
777.07	233.00
777.39	232.81
777.72	232.19
778.04	232.38
778.36	232.00
778.69	231.98
779.01	231.90
779.33	230.14
779.66	227.79
779.98	227.33
780.31	227.24
780.63	228.02
780.95	228.12
781.28	227.95
781.60	227.81
781.92	227.48
782.25	227.50
782.57	227.52
782.89	226.90
783.22	226.55
783.54	225.74
783.86	225.83
784.19	225.43
784.51	226.19
784.83	225.88
785.16	225.67
