SpectraSuite Data File
++++++++++++++++++++++++++++++++++++
Date: Tue Apr 02 18:40:16 EDT 2013
User: group
Dark Spectrum Present: No
Reference Spectrum Present: No
Number of Sampled Component Spectra: 1
Spectrometers: USB2E7196
Integration Time (usec): 580000 (USB2E7196)
Spectra Averaged: 2 (USB2E7196)
Boxcar Smoothing: 10 (USB2E7196)
Correct for Electrical Dark: No (USB2E7196)
Strobe/Lamp Enabled: No (USB2E7196)
Correct for Detector Non-linearity: No (USB2E7196)
Correct for Stray Light: No (USB2E7196)
Number of Pixels in Processed Spectrum: 2048
>>>>>Begin Processed Spectral Data<<<<<
339.09	0.00
339.48	191.00
339.86	192.00
340.24	191.50
340.63	196.00
341.01	230.50
341.39	202.50
341.78	205.50
342.16	208.50
342.54	205.00
342.93	196.29
343.31	206.00
343.69	206.57
344.07	207.14
344.46	208.17
344.84	208.83
345.22	207.62
345.60	208.12
345.99	208.52
346.37	208.48
346.75	208.74
347.13	208.90
347.52	209.24
347.90	209.83
348.28	209.79
348.66	209.98
349.05	209.33
349.43	209.88
349.81	210.40
350.19	210.79
350.57	210.76
350.96	211.10
351.34	211.62
351.72	211.81
352.10	212.19
352.48	211.79
352.87	211.95
353.25	212.12
353.63	211.90
354.01	211.69
354.39	212.12
354.77	212.02
355.15	212.52
355.54	212.33
355.92	211.74
356.30	211.83
356.68	213.43
357.06	213.71
357.44	213.26
357.82	213.19
358.20	214.36
358.58	214.31
358.97	214.19
359.35	214.57
359.73	215.00
360.11	215.07
360.49	215.12
360.87	215.05
361.25	215.52
361.63	216.29
362.01	216.60
362.39	216.45
362.77	216.62
363.15	216.48
363.53	216.55
363.91	216.86
364.29	216.88
364.67	214.79
365.05	214.90
365.43	215.12
365.81	215.45
366.19	214.93
366.57	215.93
366.95	216.02
367.33	215.43
367.71	215.36
368.09	215.64
368.47	215.98
368.85	216.00
369.23	216.38
369.61	215.69
369.99	216.38
370.37	216.55
370.75	217.55
371.13	217.38
371.51	217.19
371.89	217.19
372.27	217.43
372.65	217.67
373.03	217.57
373.41	217.45
373.78	217.17
374.16	216.40
374.54	215.62
374.92	215.52
375.30	215.48
375.68	215.00
376.06	214.98
376.44	214.86
376.82	214.76
377.19	214.52
377.57	214.60
377.95	213.74
378.33	213.55
378.71	212.55
379.09	212.74
379.47	212.88
379.84	212.52
380.22	212.19
380.60	211.76
380.98	211.76
381.36	211.76
381.73	211.62
382.11	212.19
382.49	212.21
382.87	211.86
383.25	211.64
383.62	214.38
384.00	213.98
384.38	213.98
384.76	214.50
385.13	215.00
385.51	215.00
385.89	214.88
386.27	215.02
386.64	215.14
387.02	214.74
387.40	214.57
387.78	215.14
388.15	215.38
388.53	215.60
388.91	215.74
389.29	215.76
389.66	215.95
390.04	215.67
390.42	216.26
390.79	216.60
391.17	216.88
391.55	214.36
391.92	214.36
392.30	214.76
392.68	214.17
393.05	214.10
393.43	214.19
393.81	214.43
394.18	214.07
394.56	214.40
394.94	215.02
395.31	214.74
395.69	215.33
396.06	215.50
396.44	215.57
396.82	215.21
397.19	216.17
397.57	215.86
397.95	216.10
398.32	215.40
398.70	215.52
399.07	216.10
399.45	216.21
399.82	216.43
400.20	216.02
400.58	216.07
400.95	215.45
401.33	215.88
401.70	217.12
402.08	217.33
402.45	217.26
402.83	217.90
403.20	218.48
403.58	218.02
403.95	218.69
404.33	219.05
404.71	219.60
405.08	220.88
405.46	221.38
405.83	221.71
406.21	222.00
406.58	222.50
406.96	222.67
407.33	223.40
407.70	224.00
408.08	226.33
408.45	227.40
408.83	228.48
409.20	228.88
409.58	228.21
409.95	229.60
410.33	230.52
410.70	230.79
411.08	232.05
411.45	233.17
411.82	233.90
412.20	235.62
412.57	238.17
412.95	237.74
413.32	239.71
413.69	241.24
414.07	243.24
414.44	245.02
414.82	247.12
415.19	249.55
415.56	251.86
415.94	253.26
416.31	256.19
416.68	259.29
417.06	262.79
417.43	266.95
417.81	270.19
418.18	273.98
418.55	278.00
418.93	282.12
419.30	286.48
419.67	291.29
420.04	296.26
420.42	300.76
420.79	308.60
421.16	314.52
421.54	321.81
421.91	328.38
422.28	335.17
422.66	342.60
423.03	350.57
423.40	358.05
423.77	366.02
424.15	373.69
424.52	381.67
424.89	390.62
425.26	398.57
425.64	407.07
426.01	415.86
426.38	425.48
426.75	435.71
427.13	446.05
427.50	456.69
427.87	466.88
428.24	477.90
428.61	487.10
428.99	499.50
429.36	511.02
429.73	522.95
430.10	535.21
430.47	547.57
430.85	559.21
431.22	572.40
431.59	588.17
431.96	601.81
432.33	616.52
432.70	631.24
433.08	648.90
433.45	664.93
433.82	681.50
434.19	699.10
434.56	717.24
434.93	734.24
435.30	751.10
435.68	769.86
436.05	788.07
436.42	805.67
436.79	822.86
437.16	840.93
437.53	860.57
437.90	879.81
438.27	899.43
438.64	919.21
439.01	938.38
439.38	953.05
439.75	969.24
440.13	987.74
440.50	1004.40
440.87	1018.14
441.24	1032.64
441.61	1048.50
441.98	1060.33
442.35	1073.12
442.72	1086.60
443.09	1100.76
443.46	1108.74
443.83	1114.43
444.20	1120.62
444.57	1126.79
444.94	1130.38
445.31	1133.81
445.68	1139.67
446.05	1140.33
446.42	1138.79
446.79	1137.19
447.16	1134.69
447.53	1133.64
447.90	1126.79
448.27	1119.95
448.64	1110.52
449.01	1104.52
449.37	1092.52
449.74	1080.93
450.11	1068.76
450.48	1053.12
450.85	1035.52
451.22	1021.90
451.59	1009.17
451.96	996.02
452.33	979.24
452.70	963.95
453.07	945.93
453.43	924.90
453.80	906.98
454.17	889.43
454.54	872.69
454.91	855.38
455.28	838.00
455.65	821.95
456.02	809.62
456.38	796.00
456.75	778.93
457.12	764.45
457.49	750.83
457.86	735.05
458.23	724.05
458.59	712.43
458.96	700.64
459.33	688.74
459.70	677.33
460.07	668.00
460.43	657.74
460.80	648.14
461.17	640.50
461.54	632.31
461.91	624.12
462.27	615.24
462.64	607.67
463.01	599.57
463.38	592.26
463.74	580.50
464.11	573.05
464.48	566.60
464.85	559.67
465.21	555.00
465.58	549.95
465.95	543.02
466.32	537.33
466.68	531.33
467.05	526.21
467.42	520.95
467.78	515.19
468.15	509.64
468.52	505.55
468.88	499.52
469.25	494.14
469.62	490.71
469.98	486.48
470.35	482.83
470.72	478.95
471.08	474.14
471.45	471.76
471.82	469.00
472.18	465.45
472.55	463.40
472.92	459.48
473.28	456.29
473.65	453.50
474.02	450.55
474.38	448.26
474.75	446.21
475.11	443.29
475.48	441.71
475.85	440.05
476.21	437.98
476.58	436.45
476.94	435.40
477.31	433.83
477.67	432.19
478.04	431.02
478.41	430.24
478.77	431.95
479.14	430.52
479.50	429.69
479.87	429.31
480.23	428.40
480.60	427.74
480.96	427.67
481.33	428.07
481.69	427.88
482.06	428.31
482.42	428.19
482.79	429.05
483.15	429.00
483.52	430.10
483.88	430.83
484.25	431.36
484.61	431.81
484.98	432.74
485.34	434.67
485.71	435.76
486.07	437.10
486.44	436.57
486.80	438.33
487.17	440.02
487.53	442.26
487.90	444.69
488.26	448.26
488.62	451.21
488.99	453.74
489.35	456.67
489.72	458.86
490.08	462.14
490.44	465.24
490.81	468.88
491.17	471.86
491.54	475.64
491.90	479.83
492.26	483.79
492.63	487.90
492.99	491.93
493.36	497.19
493.72	501.95
494.08	506.36
494.45	511.69
494.81	517.33
495.17	522.50
495.54	528.19
495.90	532.98
496.26	537.74
496.63	543.10
496.99	549.12
497.35	555.81
497.72	562.45
498.08	568.67
498.44	575.60
498.80	583.33
499.17	589.69
499.53	596.12
499.89	603.50
500.26	610.40
500.62	617.90
500.98	625.12
501.34	632.83
501.71	640.74
502.07	647.95
502.43	655.26
502.79	663.05
503.16	670.43
503.52	677.95
503.88	686.00
504.24	694.00
504.60	702.10
504.97	709.93
505.33	717.64
505.69	727.21
506.05	734.64
506.41	742.12
506.78	750.95
507.14	759.14
507.50	767.90
507.86	776.98
508.22	785.24
508.59	793.38
508.95	801.31
509.31	811.02
509.67	819.14
510.03	827.64
510.39	835.90
510.75	844.60
511.12	853.38
511.48	861.69
511.84	870.07
512.20	878.83
512.56	887.69
512.92	896.26
513.28	904.07
513.64	913.00
514.00	921.76
514.37	929.69
514.73	938.29
515.09	946.52
515.45	954.33
515.81	962.24
516.17	970.57
516.53	977.86
516.89	984.07
517.25	992.05
517.61	1000.60
517.97	1007.50
518.33	1015.05
518.69	1022.26
519.05	1029.90
519.41	1037.24
519.77	1045.55
520.13	1052.26
520.49	1058.76
520.85	1065.02
521.21	1072.93
521.57	1079.43
521.93	1086.07
522.29	1092.52
522.65	1098.38
523.01	1105.17
523.37	1110.93
523.73	1116.57
524.09	1123.00
524.45	1129.02
524.81	1134.62
525.17	1139.64
525.53	1145.57
525.89	1151.14
526.25	1157.50
526.61	1162.60
526.97	1167.64
527.33	1172.07
527.68	1179.12
528.04	1184.17
528.40	1189.43
528.76	1193.90
529.12	1198.40
529.48	1204.12
529.84	1209.12
530.20	1214.81
530.56	1220.10
530.91	1226.12
531.27	1231.45
531.63	1236.69
531.99	1241.50
532.35	1246.81
532.71	1251.76
533.07	1257.57
533.42	1264.74
533.78	1269.26
534.14	1275.33
534.50	1280.64
534.86	1285.90
535.21	1289.45
535.57	1295.21
535.93	1299.60
536.29	1305.17
536.65	1310.79
537.00	1314.98
537.36	1319.81
537.72	1324.19
538.08	1328.67
538.44	1332.52
538.79	1337.55
539.15	1341.74
539.51	1346.52
539.87	1351.57
540.22	1356.21
540.58	1360.88
540.94	1363.60
541.29	1367.95
541.65	1370.50
542.01	1374.83
542.37	1378.00
542.72	1381.07
543.08	1384.10
543.44	1389.10
543.79	1391.64
544.15	1395.81
544.51	1399.36
544.87	1403.02
545.22	1406.71
545.58	1410.24
545.94	1414.31
546.29	1417.86
546.65	1422.07
547.01	1425.21
547.36	1428.81
547.72	1431.62
548.07	1434.81
548.43	1437.55
548.79	1440.07
549.14	1444.38
549.50	1448.31
549.86	1452.05
550.21	1456.31
550.57	1460.64
550.92	1463.31
551.28	1467.48
551.64	1470.31
551.99	1475.24
552.35	1479.24
552.70	1482.24
553.06	1485.52
553.41	1488.62
553.77	1493.86
554.13	1498.07
554.48	1503.50
554.84	1507.57
555.19	1511.83
555.55	1516.40
555.90	1521.31
556.26	1527.07
556.61	1530.71
556.97	1534.38
557.32	1538.45
557.68	1542.88
558.03	1547.10
558.39	1551.17
558.74	1555.48
559.10	1559.81
559.45	1563.64
559.81	1567.98
560.16	1572.81
560.52	1577.62
560.87	1582.86
561.23	1585.98
561.58	1591.57
561.94	1595.24
562.29	1599.17
562.64	1604.76
563.00	1609.26
563.35	1614.07
563.71	1618.05
564.06	1623.86
564.42	1629.14
564.77	1634.95
565.12	1640.45
565.48	1647.31
565.83	1653.45
566.19	1659.24
566.54	1665.14
566.89	1669.81
567.25	1675.71
567.60	1682.36
567.96	1689.38
568.31	1695.88
568.66	1701.21
569.02	1705.48
569.37	1710.45
569.72	1716.57
570.08	1720.43
570.43	1724.90
570.78	1729.00
571.14	1734.19
571.49	1738.55
571.84	1743.05
572.20	1746.40
572.55	1750.05
572.90	1751.76
573.26	1754.95
573.61	1757.93
573.96	1761.52
574.31	1765.14
574.67	1768.38
575.02	1769.71
575.37	1770.74
575.72	1772.14
576.08	1775.07
576.43	1777.29
576.78	1779.90
577.13	1781.64
577.49	1784.36
577.84	1787.10
578.19	1788.86
578.54	1790.83
578.90	1793.50
579.25	1795.31
579.60	1797.14
579.95	1798.45
580.30	1801.00
580.66	1803.69
581.01	1806.07
581.36	1806.64
581.71	1808.95
582.06	1811.17
582.42	1814.64
582.77	1815.48
583.12	1816.79
583.47	1817.67
583.82	1818.79
584.17	1821.19
584.53	1822.76
584.88	1824.62
585.23	1825.36
585.58	1826.67
585.93	1827.02
586.28	1827.33
586.63	1828.02
586.98	1829.38
587.34	1831.36
587.69	1831.21
588.04	1830.76
588.39	1830.67
588.74	1830.40
589.09	1829.64
589.44	1827.95
589.79	1826.90
590.14	1827.17
590.49	1826.69
590.84	1826.24
591.19	1826.31
591.54	1824.95
591.89	1823.40
592.25	1823.64
592.60	1822.45
592.95	1822.05
593.30	1821.93
593.65	1820.79
594.00	1818.64
594.35	1823.17
594.70	1820.48
595.05	1819.79
595.40	1818.50
595.75	1816.48
596.10	1816.19
596.45	1815.48
596.80	1815.79
597.15	1814.57
597.50	1812.24
597.85	1811.83
598.19	1809.38
598.54	1807.38
598.89	1805.07
599.24	1804.64
599.59	1800.98
599.94	1799.26
600.29	1797.24
600.64	1795.14
600.99	1793.24
601.34	1792.93
601.69	1785.33
602.04	1783.02
602.39	1780.43
602.74	1778.95
603.08	1776.38
603.43	1775.38
603.78	1772.64
604.13	1769.26
604.48	1765.88
604.83	1765.48
605.18	1762.48
605.53	1761.05
605.87	1758.19
606.22	1756.17
606.57	1752.10
606.92	1749.14
607.27	1745.74
607.62	1742.98
607.96	1739.81
608.31	1738.07
608.66	1734.40
609.01	1730.93
609.36	1728.29
609.70	1724.71
610.05	1720.29
610.40	1716.83
610.75	1711.81
611.10	1707.98
611.44	1703.74
611.79	1699.55
612.14	1694.10
612.49	1688.90
612.83	1683.98
613.18	1678.55
613.53	1672.98
613.88	1667.95
614.22	1664.02
614.57	1659.07
614.92	1652.83
615.27	1647.33
615.61	1640.21
615.96	1633.90
616.31	1628.62
616.65	1623.86
617.00	1618.88
617.35	1613.98
617.70	1608.64
618.04	1602.64
618.39	1597.05
618.74	1591.10
619.08	1585.45
619.43	1579.38
619.78	1574.10
620.12	1568.07
620.47	1563.95
620.82	1558.14
621.16	1552.38
621.51	1547.31
621.85	1541.29
622.20	1536.60
622.55	1530.26
622.89	1525.07
623.24	1520.36
623.59	1513.98
623.93	1508.17
624.28	1503.60
624.62	1500.24
624.97	1496.83
625.32	1491.88
625.66	1486.74
626.01	1481.50
626.35	1476.57
626.70	1471.90
627.04	1467.43
627.39	1462.24
627.73	1457.57
628.08	1452.81
628.43	1448.83
628.77	1442.50
629.12	1437.83
629.46	1432.50
629.81	1427.69
630.15	1422.31
630.50	1416.26
630.84	1410.98
631.19	1404.93
631.53	1397.40
631.88	1388.88
632.22	1380.43
632.57	1374.76
632.91	1367.98
633.26	1363.12
633.60	1357.79
633.95	1351.14
634.29	1344.40
634.64	1339.10
634.98	1331.43
635.32	1326.43
635.67	1319.74
636.01	1313.40
636.36	1307.88
636.70	1302.19
637.05	1296.81
637.39	1290.71
637.73	1284.90
638.08	1279.83
638.42	1274.43
638.77	1270.17
639.11	1264.74
639.45	1259.62
639.80	1253.02
640.14	1247.38
640.49	1240.76
640.83	1233.86
641.17	1227.93
641.52	1221.98
641.86	1214.62
642.20	1210.14
642.55	1202.95
642.89	1196.67
643.23	1190.43
643.58	1184.21
643.92	1176.40
644.26	1169.24
644.61	1162.88
644.95	1156.31
645.29	1148.69
645.64	1142.24
645.98	1135.60
646.32	1129.07
646.66	1121.86
647.01	1116.05
647.35	1109.60
647.69	1102.67
648.04	1096.69
648.38	1091.71
648.72	1084.83
649.06	1079.05
649.41	1071.64
649.75	1064.98
650.09	1058.76
650.43	1052.57
650.78	1045.81
651.12	1040.07
651.46	1034.62
651.80	1028.67
652.14	1022.79
652.49	1017.19
652.83	1010.36
653.17	1003.48
653.51	996.74
653.85	990.50
654.20	983.40
654.54	976.45
654.88	970.00
655.22	963.90
655.56	956.67
655.90	950.55
656.25	944.21
656.59	937.43
656.93	931.62
657.27	925.81
657.61	919.21
657.95	913.14
658.29	906.98
658.64	900.55
658.98	894.33
659.32	888.14
659.66	881.93
660.00	876.36
660.34	870.71
660.68	865.14
661.02	859.19
661.36	853.14
661.70	848.21
662.05	842.74
662.39	836.90
662.73	831.50
663.07	826.76
663.41	821.07
663.75	815.26
664.09	809.36
664.43	803.33
664.77	797.81
665.11	791.98
665.45	787.10
665.79	781.05
666.13	774.86
666.47	769.10
666.81	763.83
667.15	758.10
667.49	752.50
667.83	748.12
668.17	743.14
668.51	738.24
668.85	733.17
669.19	728.74
669.53	723.21
669.87	717.60
670.21	711.43
670.55	706.60
670.89	702.69
671.23	697.88
671.57	692.88
671.91	688.33
672.25	683.74
672.58	679.07
672.92	674.79
673.26	670.24
673.60	665.57
673.94	660.86
674.28	656.24
674.62	652.17
674.96	647.31
675.30	643.17
675.64	638.69
675.97	633.88
676.31	628.81
676.65	624.19
676.99	620.81
677.33	616.95
677.67	613.14
678.01	608.55
678.34	605.21
678.68	601.14
679.02	596.36
679.36	592.10
679.70	587.24
680.04	583.29
680.37	579.40
680.71	575.86
681.05	572.29
681.39	569.00
681.73	564.67
682.06	560.43
682.40	556.40
682.74	552.86
683.08	550.21
683.42	546.26
683.75	542.67
684.09	538.19
684.43	534.31
684.77	530.14
685.10	526.36
685.44	521.83
685.78	517.95
686.12	514.81
686.45	511.31
686.79	508.33
687.13	504.57
687.46	501.19
687.80	498.24
688.14	494.57
688.48	491.17
688.81	487.98
689.15	485.21
689.49	482.10
689.82	478.90
690.16	474.60
690.50	471.67
690.83	468.52
691.17	464.83
691.51	461.45
691.84	458.55
692.18	455.33
692.52	452.64
692.85	450.31
693.19	448.21
693.52	445.14
693.86	441.76
694.20	438.86
694.53	436.38
694.87	433.14
695.21	429.71
695.54	426.29
695.88	423.00
696.21	419.21
696.55	416.40
696.88	413.71
697.22	411.19
697.56	408.55
697.89	405.86
698.23	403.98
698.56	402.02
698.90	399.86
699.23	397.38
699.57	394.86
699.90	392.10
700.24	388.86
700.58	386.71
700.91	384.67
701.25	384.00
701.58	382.21
701.92	380.24
702.25	378.62
702.59	376.43
702.92	374.55
703.26	372.88
703.59	370.88
703.93	370.26
704.26	368.52
704.60	367.00
704.93	365.36
705.26	363.43
705.60	361.57
705.93	359.17
706.27	357.86
706.60	356.43
706.94	355.45
707.27	353.71
707.61	352.17
707.94	350.36
708.27	346.95
708.61	344.43
708.94	342.45
709.28	341.02
709.61	339.69
709.94	338.10
710.28	336.60
710.61	335.05
710.95	332.12
711.28	331.74
711.61	329.95
711.95	329.07
712.28	327.31
712.61	325.95
712.95	325.79
713.28	325.07
713.61	323.48
713.95	321.45
714.28	320.57
714.61	318.79
714.95	317.76
715.28	316.62
715.61	315.29
715.95	314.19
716.28	312.57
716.61	311.67
716.95	310.40
717.28	309.00
717.61	307.76
717.94	306.48
718.28	303.81
718.61	302.38
718.94	300.62
719.27	299.43
719.61	298.29
719.94	296.26
720.27	294.24
720.60	292.81
720.94	291.86
721.27	290.83
721.60	290.38
721.93	289.19
722.27	288.71
722.60	288.10
722.93	287.17
723.26	286.43
723.59	285.17
723.93	284.69
724.26	283.98
724.59	282.90
724.92	282.29
725.25	282.26
725.59	281.62
725.92	281.02
726.25	280.40
726.58	279.60
726.91	278.86
727.24	278.17
727.57	277.62
727.91	276.40
728.24	275.76
728.57	274.71
728.90	274.40
729.23	273.02
729.56	273.36
729.89	272.67
730.22	271.79
730.55	270.69
730.89	269.76
731.22	269.24
731.55	268.74
731.88	268.12
732.21	266.81
732.54	266.02
732.87	265.33
733.20	264.52
733.53	263.95
733.86	263.62
734.19	262.79
734.52	262.45
734.85	263.57
735.18	262.43
735.51	262.45
735.84	261.79
736.17	261.93
736.50	260.02
736.83	261.88
737.16	261.71
737.49	261.60
737.82	261.02
738.15	260.76
738.48	260.36
738.81	259.57
739.14	258.93
739.47	258.40
739.80	257.74
740.13	257.69
740.46	256.81
740.79	255.93
741.12	255.50
741.45	254.71
741.78	253.07
742.11	253.60
742.44	252.76
742.77	252.57
743.10	251.67
743.43	251.60
743.75	249.10
744.08	251.05
744.41	250.50
744.74	250.10
745.07	248.74
745.40	248.62
745.73	249.21
746.06	249.07
746.39	248.93
746.71	248.33
747.04	247.79
747.37	247.31
747.70	247.26
748.03	247.19
748.36	247.12
748.68	246.74
749.01	245.69
749.34	245.07
749.67	244.81
750.00	244.79
750.33	245.76
750.65	245.71
750.98	242.69
751.31	242.50
751.64	242.19
751.97	243.33
752.29	242.60
752.62	241.50
752.95	241.05
753.28	240.48
753.60	240.45
753.93	240.71
754.26	240.52
754.59	239.83
754.91	239.31
755.24	238.95
755.57	238.43
755.90	238.00
756.22	237.86
756.55	237.36
756.88	236.71
757.20	235.05
757.53	233.86
757.86	233.88
758.19	233.60
758.51	233.50
758.84	232.29
759.17	231.90
759.49	231.67
759.82	232.62
760.15	232.40
760.47	231.95
760.80	230.95
761.13	231.36
761.45	231.29
761.78	231.12
762.11	230.83
762.43	230.98
762.76	230.74
763.08	230.86
763.41	230.57
763.74	230.62
764.06	230.50
764.39	230.67
764.71	230.29
765.04	230.07
765.37	229.52
765.69	229.40
766.02	229.26
766.34	228.95
766.67	227.76
767.00	227.90
767.32	228.90
767.65	230.05
767.97	229.69
768.30	229.31
768.62	229.10
768.95	228.83
769.27	228.36
769.60	228.62
769.92	228.05
770.25	227.45
770.57	226.81
770.90	226.60
771.22	226.19
771.55	226.17
771.87	226.02
772.20	225.93
772.52	227.45
772.85	230.14
773.17	230.17
773.50	230.19
773.82	229.98
774.15	228.79
774.47	227.26
774.80	226.90
775.12	226.88
775.45	226.76
775.77	227.10
776.09	227.02
776.42	226.67
776.74	227.02
777.07	226.98
777.39	227.31
777.72	227.10
778.04	227.19
778.36	227.10
778.69	226.98
779.01	226.86
779.33	225.19
779.66	222.67
779.98	222.29
780.31	221.95
780.63	222.83
780.95	222.98
781.28	223.02
781.60	222.86
781.92	222.83
782.25	222.71
782.57	222.05
782.89	222.00
783.22	222.07
783.54	221.55
783.86	221.76
784.19	221.40
784.51	221.81
784.83	221.69
785.16	221.60
