SpectraSuite Data File
++++++++++++++++++++++++++++++++++++
Date: Tue Apr 02 18:44:01 EDT 2013
User: group
Dark Spectrum Present: No
Reference Spectrum Present: No
Number of Sampled Component Spectra: 1
Spectrometers: USB2E7196
Integration Time (usec): 580000 (USB2E7196)
Spectra Averaged: 2 (USB2E7196)
Boxcar Smoothing: 10 (USB2E7196)
Correct for Electrical Dark: No (USB2E7196)
Strobe/Lamp Enabled: No (USB2E7196)
Correct for Detector Non-linearity: No (USB2E7196)
Correct for Stray Light: No (USB2E7196)
Number of Pixels in Processed Spectrum: 2048
>>>>>Begin Processed Spectral Data<<<<<
339.09	0.00
339.48	198.50
339.86	194.50
340.24	196.00
340.63	194.00
341.01	230.00
341.39	203.00
341.78	208.00
342.16	204.00
342.54	210.50
342.93	197.36
343.31	207.17
343.69	207.52
344.07	208.17
344.46	208.93
344.84	209.57
345.22	208.52
345.60	208.86
345.99	208.90
346.37	209.05
346.75	209.05
347.13	209.02
347.52	208.90
347.90	209.64
348.28	210.05
348.66	210.57
349.05	209.71
349.43	209.86
349.81	209.95
350.19	210.05
350.57	210.12
350.96	210.36
351.34	210.69
351.72	210.86
352.10	210.71
352.48	210.64
352.87	210.69
353.25	210.55
353.63	210.43
354.01	210.36
354.39	210.57
354.77	210.45
355.15	211.10
355.54	211.02
355.92	210.71
356.30	210.52
356.68	211.67
357.06	212.07
357.44	211.95
357.82	211.98
358.20	213.05
358.58	213.07
358.97	213.17
359.35	213.29
359.73	213.60
360.11	213.71
360.49	213.60
360.87	213.57
361.25	213.88
361.63	214.74
362.01	215.10
362.39	215.07
362.77	215.36
363.15	215.07
363.53	215.17
363.91	214.90
364.29	215.02
364.67	213.24
365.05	213.24
365.43	213.38
365.81	214.00
366.19	214.14
366.57	215.02
366.95	215.02
367.33	214.93
367.71	214.74
368.09	215.17
368.47	215.36
368.85	215.45
369.23	215.83
369.61	214.98
369.99	215.50
370.37	215.81
370.75	216.81
371.13	216.57
371.51	216.21
371.89	216.67
372.27	216.67
372.65	216.74
373.03	216.64
373.41	216.83
373.78	216.43
374.16	215.29
374.54	214.64
374.92	214.33
375.30	214.17
375.68	214.07
376.06	214.07
376.44	214.02
376.82	214.07
377.19	214.07
377.57	213.98
377.95	213.26
378.33	213.26
378.71	211.88
379.09	212.17
379.47	212.60
379.84	212.26
380.22	212.26
380.60	211.90
380.98	211.86
381.36	211.55
381.73	211.31
382.11	211.69
382.49	211.71
382.87	211.52
383.25	211.62
383.62	213.93
384.00	213.74
384.38	213.71
384.76	214.21
385.13	215.12
385.51	215.33
385.89	215.07
386.27	214.95
386.64	215.17
387.02	215.07
387.40	214.79
387.78	215.00
388.15	215.36
388.53	215.52
388.91	215.71
389.29	215.48
389.66	215.93
390.04	215.60
390.42	215.71
390.79	216.21
391.17	216.26
391.55	213.83
391.92	213.88
392.30	214.21
392.68	213.83
393.05	213.76
393.43	214.02
393.81	214.29
394.18	213.98
394.56	214.29
394.94	214.76
395.31	214.86
395.69	215.50
396.06	215.67
396.44	215.71
396.82	215.38
397.19	216.76
397.57	216.36
397.95	216.98
398.32	216.45
398.70	216.33
399.07	216.88
399.45	216.95
399.82	216.60
400.20	216.33
400.58	216.36
400.95	215.31
401.33	215.62
401.70	217.31
402.08	217.71
402.45	217.67
402.83	218.07
403.20	218.12
403.58	217.79
403.95	218.12
404.33	218.67
404.71	219.21
405.08	220.38
405.46	221.02
405.83	221.10
406.21	221.60
406.58	222.02
406.96	222.07
407.33	222.95
407.70	223.95
408.08	226.14
408.45	226.90
408.83	228.07
409.20	228.31
409.58	227.55
409.95	228.45
410.33	229.55
410.70	229.76
411.08	231.21
411.45	232.45
411.82	233.17
412.20	234.64
412.57	237.07
412.95	236.60
413.32	238.10
413.69	239.40
414.07	241.07
414.44	243.00
414.82	245.07
415.19	247.12
415.56	249.31
415.94	250.38
416.31	253.26
416.68	256.10
417.06	259.31
417.43	262.74
417.81	266.19
418.18	269.60
418.55	273.57
418.93	277.31
419.30	281.40
419.67	285.90
420.04	290.12
420.42	294.07
420.79	301.33
421.16	307.05
421.54	314.21
421.91	320.43
422.28	326.36
422.66	332.93
423.03	341.10
423.40	348.05
423.77	355.26
424.15	362.40
424.52	369.86
424.89	378.67
425.26	386.45
425.64	394.33
426.01	402.79
426.38	411.76
426.75	421.52
427.13	430.74
427.50	440.40
427.87	450.29
428.24	460.21
428.61	468.36
428.99	479.29
429.36	489.57
429.73	500.69
430.10	512.21
430.47	524.14
430.85	534.45
431.22	546.90
431.59	561.62
431.96	574.19
432.33	587.83
432.70	601.48
433.08	617.14
433.45	632.29
433.82	647.40
434.19	664.17
434.56	680.90
434.93	696.64
435.30	712.64
435.68	730.40
436.05	748.43
436.42	765.67
436.79	781.00
437.16	798.60
437.53	816.90
437.90	834.69
438.27	852.69
438.64	870.71
439.01	887.29
439.38	900.76
439.75	915.95
440.13	933.38
440.50	948.76
440.87	962.05
441.24	974.98
441.61	989.69
441.98	1000.40
442.35	1011.71
442.72	1024.71
443.09	1037.76
443.46	1045.24
443.83	1050.00
444.20	1054.90
444.57	1061.43
444.94	1064.64
445.31	1067.86
445.68	1073.60
446.05	1074.02
446.42	1072.90
446.79	1072.38
447.16	1070.50
447.53	1069.50
447.90	1062.74
448.27	1056.14
448.64	1047.83
449.01	1042.43
449.37	1032.10
449.74	1021.21
450.11	1011.07
450.48	996.38
450.85	980.67
451.22	968.52
451.59	956.33
451.96	945.00
452.33	929.71
452.70	915.14
453.07	897.90
453.43	878.10
453.80	862.00
454.17	846.60
454.54	830.67
454.91	814.55
455.28	797.88
455.65	783.26
456.02	772.38
456.38	759.95
456.75	744.00
457.12	729.81
457.49	717.12
457.86	702.38
458.23	692.14
458.59	680.40
458.96	668.38
459.33	657.60
459.70	646.64
460.07	638.43
460.43	629.19
460.80	620.74
461.17	613.69
461.54	605.57
461.91	597.31
462.27	589.45
462.64	582.67
463.01	575.69
463.38	569.31
463.74	558.31
464.11	551.33
464.48	545.36
464.85	539.29
465.21	534.36
465.58	529.07
465.95	522.69
466.32	517.88
466.68	512.36
467.05	507.43
467.42	502.43
467.78	496.67
468.15	491.36
468.52	487.71
468.88	481.93
469.25	477.10
469.62	474.02
469.98	470.29
470.35	466.93
470.72	463.21
471.08	458.71
471.45	455.71
471.82	453.21
472.18	450.02
472.55	447.24
472.92	444.10
473.28	441.17
473.65	438.24
474.02	435.26
474.38	433.14
474.75	431.26
475.11	428.69
475.48	427.07
475.85	425.26
476.21	423.05
476.58	421.79
476.94	420.62
477.31	418.67
477.67	417.17
478.04	415.90
478.41	415.29
478.77	416.48
479.14	415.62
479.50	414.43
479.87	413.86
480.23	413.76
480.60	413.43
480.96	413.05
481.33	413.60
481.69	414.00
482.06	414.24
482.42	414.31
482.79	414.67
483.15	414.81
483.52	415.71
483.88	416.50
484.25	417.07
484.61	418.12
484.98	418.95
485.34	420.69
485.71	422.07
486.07	423.52
486.44	422.95
486.80	424.60
487.17	426.07
487.53	428.40
487.90	430.48
488.26	433.50
488.62	436.57
488.99	438.55
489.35	441.00
489.72	443.88
490.08	446.79
490.44	449.98
490.81	453.60
491.17	456.88
491.54	460.19
491.90	464.31
492.26	468.12
492.63	471.88
492.99	475.40
493.36	479.55
493.72	483.79
494.08	488.26
494.45	492.62
494.81	497.76
495.17	502.17
495.54	507.36
495.90	511.83
496.26	516.69
496.63	522.29
496.99	527.57
497.35	533.21
497.72	539.21
498.08	544.64
498.44	550.64
498.80	557.05
499.17	563.21
499.53	569.36
499.89	575.62
500.26	582.43
500.62	589.10
500.98	596.45
501.34	602.98
501.71	610.43
502.07	617.55
502.43	624.48
502.79	631.43
503.16	638.45
503.52	645.24
503.88	651.98
504.24	659.71
504.60	667.10
504.97	674.74
505.33	682.33
505.69	691.05
506.05	698.67
506.41	706.24
506.78	714.26
507.14	721.79
507.50	729.60
507.86	737.52
508.22	745.43
508.59	752.43
508.95	760.95
509.31	769.33
509.67	777.57
510.03	784.88
510.39	793.07
510.75	800.31
511.12	808.14
511.48	816.48
511.84	824.05
512.20	832.26
512.56	839.81
512.92	847.69
513.28	855.07
513.64	862.64
514.00	869.52
514.37	876.86
514.73	884.07
515.09	891.79
515.45	898.88
515.81	906.00
516.17	913.14
516.53	919.33
516.89	925.12
517.25	931.29
517.61	938.52
517.97	944.74
518.33	951.67
518.69	958.10
519.05	964.64
519.41	970.71
519.77	977.55
520.13	983.38
520.49	988.71
520.85	994.17
521.21	1000.76
521.57	1007.02
521.93	1012.26
522.29	1018.19
522.65	1022.43
523.01	1027.93
523.37	1032.81
523.73	1038.17
524.09	1043.36
524.45	1048.24
524.81	1053.50
525.17	1058.24
525.53	1062.64
525.89	1067.36
526.25	1072.81
526.61	1076.40
526.97	1080.62
527.33	1084.64
527.68	1091.12
528.04	1095.40
528.40	1099.00
528.76	1102.00
529.12	1106.05
529.48	1110.40
529.84	1113.93
530.20	1118.98
530.56	1122.83
530.91	1127.48
531.27	1131.57
531.63	1136.48
531.99	1139.48
532.35	1143.29
532.71	1147.40
533.07	1152.52
533.42	1158.69
533.78	1162.79
534.14	1168.07
534.50	1172.02
534.86	1177.21
535.21	1178.88
535.57	1183.36
535.93	1187.71
536.29	1192.55
536.65	1196.48
537.00	1200.10
537.36	1203.76
537.72	1206.76
538.08	1210.19
538.44	1213.52
538.79	1216.24
539.15	1218.48
539.51	1222.88
539.87	1226.12
540.22	1229.62
540.58	1232.64
540.94	1233.62
541.29	1236.14
541.65	1237.55
542.01	1241.57
542.37	1242.98
542.72	1245.10
543.08	1247.67
543.44	1250.62
543.79	1252.33
544.15	1254.76
544.51	1258.17
544.87	1261.14
545.22	1263.62
545.58	1265.98
545.94	1267.93
546.29	1270.98
546.65	1273.64
547.01	1276.29
547.36	1279.05
547.72	1280.93
548.07	1283.48
548.43	1286.12
548.79	1288.50
549.14	1291.50
549.50	1292.90
549.86	1294.12
550.21	1298.33
550.57	1301.05
550.92	1303.69
551.28	1307.26
551.64	1309.71
551.99	1312.45
552.35	1314.93
552.70	1317.83
553.06	1321.10
553.41	1324.76
553.77	1329.24
554.13	1332.64
554.48	1337.26
554.84	1341.24
555.19	1345.52
555.55	1350.95
555.90	1354.17
556.26	1357.81
556.61	1361.05
556.97	1364.69
557.32	1369.10
557.68	1371.67
558.03	1375.95
558.39	1379.33
558.74	1382.83
559.10	1387.90
559.45	1391.69
559.81	1397.00
560.16	1401.64
560.52	1407.00
560.87	1411.67
561.23	1414.83
561.58	1420.86
561.94	1423.64
562.29	1427.76
562.64	1432.19
563.00	1435.45
563.35	1439.62
563.71	1444.83
564.06	1450.55
564.42	1455.55
564.77	1461.38
565.12	1467.90
565.48	1474.43
565.83	1481.19
566.19	1487.43
566.54	1492.76
566.89	1497.64
567.25	1503.71
567.60	1511.12
567.96	1518.10
568.31	1525.05
568.66	1532.02
569.02	1536.36
569.37	1542.40
569.72	1548.17
570.08	1553.14
570.43	1557.93
570.78	1565.12
571.14	1570.26
571.49	1574.81
571.84	1580.86
572.20	1586.31
572.55	1590.57
572.90	1593.93
573.26	1599.00
573.61	1602.93
573.96	1608.24
574.31	1612.69
574.67	1616.12
575.02	1619.14
575.37	1620.81
575.72	1622.57
576.08	1626.55
576.43	1630.43
576.78	1634.21
577.13	1637.38
577.49	1641.45
577.84	1645.43
578.19	1648.69
578.54	1653.10
578.90	1657.69
579.25	1661.14
579.60	1664.52
579.95	1668.17
580.30	1671.69
580.66	1675.21
581.01	1678.62
581.36	1681.07
581.71	1685.43
582.06	1689.12
582.42	1692.57
582.77	1696.14
583.12	1700.31
583.47	1702.67
583.82	1705.95
584.17	1708.71
584.53	1713.43
584.88	1716.05
585.23	1719.93
585.58	1722.57
585.93	1724.00
586.28	1727.40
586.63	1729.79
586.98	1732.38
587.34	1736.40
587.69	1738.98
588.04	1740.40
588.39	1743.48
588.74	1745.19
589.09	1747.14
589.44	1748.57
589.79	1750.62
590.14	1752.43
590.49	1754.02
590.84	1756.50
591.19	1757.93
591.54	1759.93
591.89	1760.12
592.25	1763.33
592.60	1763.60
592.95	1765.45
593.30	1767.38
593.65	1766.88
594.00	1767.17
594.35	1773.43
594.70	1773.14
595.05	1773.86
595.40	1775.31
595.75	1774.40
596.10	1776.17
596.45	1777.05
596.80	1778.00
597.15	1779.17
597.50	1780.10
597.85	1781.64
598.19	1780.60
598.54	1780.31
598.89	1780.45
599.24	1781.50
599.59	1780.79
599.94	1780.86
600.29	1780.81
600.64	1781.10
600.99	1782.43
601.34	1783.38
601.69	1777.83
602.04	1777.14
602.39	1776.36
602.74	1776.10
603.08	1776.90
603.43	1776.52
603.78	1774.86
604.13	1774.60
604.48	1772.71
604.83	1772.86
605.18	1772.17
605.53	1772.31
605.87	1771.38
606.22	1770.02
606.57	1768.93
606.92	1767.45
607.27	1766.81
607.62	1765.79
607.96	1764.64
608.31	1763.83
608.66	1763.38
609.01	1761.74
609.36	1761.48
609.70	1760.29
610.05	1757.81
610.40	1755.76
610.75	1752.81
611.10	1751.64
611.44	1749.10
611.79	1747.38
612.14	1744.45
612.49	1741.05
612.83	1739.26
613.18	1736.60
613.53	1734.40
613.88	1731.19
614.22	1727.67
614.57	1723.17
614.92	1719.62
615.27	1715.90
615.61	1711.52
615.96	1707.21
616.31	1704.24
616.65	1700.98
617.00	1697.90
617.35	1695.19
617.70	1692.57
618.04	1689.38
618.39	1685.24
618.74	1682.26
619.08	1678.71
619.43	1675.55
619.78	1672.52
620.12	1668.74
620.47	1665.74
620.82	1660.90
621.16	1656.48
621.51	1654.64
621.85	1652.12
622.20	1648.07
622.55	1643.88
622.89	1640.19
623.24	1637.14
623.59	1632.98
623.93	1628.48
624.28	1624.36
624.62	1621.67
624.97	1618.24
625.32	1614.52
625.66	1610.67
626.01	1605.88
626.35	1602.10
626.70	1598.17
627.04	1594.29
627.39	1589.57
627.73	1586.38
628.08	1585.05
628.43	1581.62
628.77	1576.40
629.12	1573.26
629.46	1570.67
629.81	1567.31
630.15	1562.29
630.50	1557.19
630.84	1552.17
631.19	1546.64
631.53	1542.33
631.88	1535.29
632.22	1529.71
632.57	1526.00
632.91	1521.71
633.26	1517.71
633.60	1512.57
633.95	1506.67
634.29	1501.00
634.64	1496.31
634.98	1491.05
635.32	1486.07
635.67	1482.10
636.01	1477.76
636.36	1471.64
636.70	1466.33
637.05	1462.12
637.39	1458.69
637.73	1454.48
638.08	1451.69
638.42	1447.79
638.77	1443.60
639.11	1439.81
639.45	1434.74
639.80	1428.93
640.14	1424.36
640.49	1419.50
640.83	1414.81
641.17	1409.90
641.52	1405.67
641.86	1400.40
642.20	1396.10
642.55	1389.36
642.89	1383.33
643.23	1377.95
643.58	1373.00
643.92	1367.02
644.26	1360.71
644.61	1355.57
644.95	1349.93
645.29	1343.79
645.64	1338.29
645.98	1331.64
646.32	1326.57
646.66	1320.45
647.01	1314.36
647.35	1308.60
647.69	1302.76
648.04	1296.93
648.38	1291.40
648.72	1284.38
649.06	1277.98
649.41	1271.71
649.75	1265.67
650.09	1259.67
650.43	1252.26
650.78	1246.02
651.12	1239.88
651.46	1233.43
651.80	1226.62
652.14	1220.50
652.49	1214.19
652.83	1207.81
653.17	1201.05
653.51	1193.71
653.85	1187.60
654.20	1180.93
654.54	1173.81
654.88	1166.83
655.22	1160.67
655.56	1154.02
655.90	1147.45
656.25	1141.12
656.59	1133.79
656.93	1127.12
657.27	1121.40
657.61	1116.05
657.95	1109.60
658.29	1103.21
658.64	1097.62
658.98	1091.21
659.32	1084.07
659.66	1077.21
660.00	1070.24
660.34	1064.48
660.68	1058.33
661.02	1051.55
661.36	1045.60
661.70	1039.55
662.05	1033.05
662.39	1026.88
662.73	1021.40
663.07	1017.02
663.41	1011.31
663.75	1005.29
664.09	999.79
664.43	992.48
664.77	985.86
665.11	979.55
665.45	973.67
665.79	967.10
666.13	960.90
666.47	955.86
666.81	949.86
667.15	944.43
667.49	938.90
667.83	933.52
668.17	927.93
668.51	922.00
668.85	916.83
669.19	912.67
669.53	906.33
669.87	899.90
670.21	893.90
670.55	888.45
670.89	884.24
671.23	879.07
671.57	874.64
671.91	869.10
672.25	863.45
672.58	858.05
672.92	852.12
673.26	846.33
673.60	840.12
673.94	834.83
674.28	829.67
674.62	824.67
674.96	819.33
675.30	814.79
675.64	809.60
675.97	804.43
676.31	798.52
676.65	793.57
676.99	790.00
677.33	784.52
677.67	779.24
678.01	772.81
678.34	767.76
678.68	762.79
679.02	758.07
679.36	753.45
679.70	748.14
680.04	743.81
680.37	739.45
680.71	734.60
681.05	730.19
681.39	725.64
681.73	721.07
682.06	716.21
682.40	711.48
682.74	707.60
683.08	703.69
683.42	698.57
683.75	693.62
684.09	687.69
684.43	683.10
684.77	678.38
685.10	674.00
685.44	669.48
685.78	664.43
686.12	659.81
686.45	655.52
686.79	650.86
687.13	646.64
687.46	642.02
687.80	638.45
688.14	633.62
688.48	629.12
688.81	624.36
689.15	620.48
689.49	616.00
689.82	611.40
690.16	605.50
690.50	601.55
690.83	597.74
691.17	593.76
691.51	589.43
691.84	585.57
692.18	581.57
692.52	577.57
692.85	573.71
693.19	570.79
693.52	566.71
693.86	562.76
694.20	558.93
694.53	555.12
694.87	550.79
695.21	546.81
695.54	542.90
695.88	538.69
696.21	534.07
696.55	529.86
696.88	526.43
697.22	523.36
697.56	519.74
697.89	515.88
698.23	512.26
698.56	508.45
698.90	505.33
699.23	501.60
699.57	497.88
699.90	494.69
700.24	490.43
700.58	487.17
700.91	484.24
701.25	482.64
701.58	480.14
701.92	477.21
702.25	474.43
702.59	471.10
702.92	468.43
703.26	465.48
703.59	463.31
703.93	461.52
704.26	458.76
704.60	455.83
704.93	452.90
705.26	450.00
705.60	447.48
705.93	443.79
706.27	441.52
706.60	439.33
706.94	437.17
707.27	434.50
707.61	432.00
707.94	428.98
708.27	424.90
708.61	421.60
708.94	418.74
709.28	416.52
709.61	414.26
709.94	411.95
710.28	409.79
710.61	407.14
710.95	403.36
711.28	402.40
711.61	399.98
711.95	398.12
712.28	395.74
712.61	393.60
712.95	392.95
713.28	391.48
713.61	388.76
713.95	385.74
714.28	383.86
714.61	381.69
714.95	379.93
715.28	377.64
715.61	375.60
715.95	373.93
716.28	371.64
716.61	370.02
716.95	367.67
717.28	365.55
717.61	363.45
717.94	361.45
718.28	358.26
718.61	356.45
718.94	354.21
719.27	352.31
719.61	350.60
719.94	348.10
720.27	345.43
720.60	343.38
720.94	341.88
721.27	340.24
721.60	339.00
721.93	337.24
722.27	336.33
722.60	335.12
722.93	333.45
723.26	332.05
723.59	330.36
723.93	329.19
724.26	327.81
724.59	326.36
724.92	325.17
725.25	324.38
725.59	323.21
725.92	322.52
726.25	321.29
726.58	319.86
726.91	318.50
727.24	317.79
727.57	316.86
727.91	315.26
728.24	314.43
728.57	312.93
728.90	312.02
729.23	309.88
729.56	309.60
729.89	308.45
730.22	307.29
730.55	305.81
730.89	304.90
731.22	304.00
731.55	302.79
731.88	301.86
732.21	300.52
732.54	299.36
732.87	297.95
733.20	297.26
733.53	296.60
733.86	295.43
734.19	293.95
734.52	293.07
734.85	293.83
735.18	292.55
735.51	292.33
735.84	291.76
736.17	291.71
736.50	289.74
736.83	291.62
737.16	291.00
737.49	290.48
737.82	289.43
738.15	288.83
738.48	288.05
738.81	287.38
739.14	286.07
739.47	285.10
739.80	284.33
740.13	283.69
740.46	282.17
740.79	281.10
741.12	280.26
741.45	279.52
741.78	277.43
742.11	277.19
742.44	275.90
742.77	275.14
743.10	274.02
743.43	273.40
743.75	270.33
744.08	271.76
744.41	270.90
744.74	270.10
745.07	268.86
745.40	268.64
745.73	268.52
746.06	268.12
746.39	267.93
746.71	267.17
747.04	266.21
747.37	265.76
747.70	265.79
748.03	265.52
748.36	265.17
748.68	264.69
749.01	263.29
749.34	262.50
749.67	261.88
750.00	261.60
750.33	262.76
750.65	262.24
750.98	259.29
751.31	258.62
751.64	258.10
751.97	258.95
752.29	258.33
752.62	256.98
752.95	256.43
753.28	255.60
753.60	255.12
753.93	255.12
754.26	254.93
754.59	253.81
754.91	252.98
755.24	252.17
755.57	251.36
755.90	251.07
756.22	250.38
756.55	249.74
756.88	248.95
757.20	246.98
757.53	245.74
757.86	245.43
758.19	245.29
758.51	244.95
758.84	243.24
759.17	242.69
759.49	242.36
759.82	243.02
760.15	242.76
760.47	242.38
760.80	241.33
761.13	241.19
761.45	240.76
761.78	240.33
762.11	240.00
762.43	239.90
762.76	239.52
763.08	239.50
763.41	239.29
763.74	238.88
764.06	238.29
764.39	238.38
764.71	237.93
765.04	237.52
765.37	237.05
765.69	236.83
766.02	236.43
766.34	235.86
766.67	234.52
767.00	234.64
767.32	235.69
767.65	236.86
767.97	236.31
768.30	236.21
768.62	236.21
768.95	235.74
769.27	235.33
769.60	235.43
769.92	234.95
770.25	234.14
770.57	233.62
770.90	233.64
771.22	232.88
771.55	232.83
771.87	232.64
772.20	232.21
772.52	233.93
772.85	236.29
773.17	236.14
773.50	236.00
773.82	235.21
774.15	233.74
774.47	231.95
774.80	231.60
775.12	231.64
775.45	231.36
775.77	231.40
776.09	231.52
776.42	231.17
776.74	231.60
777.07	231.67
777.39	231.64
777.72	231.24
778.04	231.62
778.36	231.05
778.69	230.95
779.01	231.17
779.33	229.10
779.66	226.60
779.98	226.45
780.31	226.40
780.63	227.19
780.95	227.43
781.28	227.48
781.60	227.29
781.92	226.76
782.25	226.60
782.57	226.57
782.89	226.05
783.22	225.81
783.54	225.10
783.86	224.95
784.19	224.74
784.51	225.36
784.83	224.62
785.16	224.62
