SpectraSuite Data File
++++++++++++++++++++++++++++++++++++
Date: Tue Apr 02 18:42:51 EDT 2013
User: group
Dark Spectrum Present: No
Reference Spectrum Present: No
Number of Sampled Component Spectra: 1
Spectrometers: USB2E7196
Integration Time (usec): 580000 (USB2E7196)
Spectra Averaged: 2 (USB2E7196)
Boxcar Smoothing: 10 (USB2E7196)
Correct for Electrical Dark: No (USB2E7196)
Strobe/Lamp Enabled: No (USB2E7196)
Correct for Detector Non-linearity: No (USB2E7196)
Correct for Stray Light: No (USB2E7196)
Number of Pixels in Processed Spectrum: 2048
>>>>>Begin Processed Spectral Data<<<<<
339.09	0.00
339.48	193.50
339.86	197.00
340.24	198.50
340.63	197.50
341.01	232.50
341.39	201.50
341.78	203.00
342.16	207.00
342.54	207.50
342.93	198.05
343.31	207.71
343.69	208.43
344.07	208.81
344.46	209.29
344.84	209.64
345.22	208.64
345.60	208.93
345.99	209.24
346.37	209.38
346.75	209.38
347.13	209.29
347.52	209.40
347.90	210.17
348.28	210.57
348.66	210.86
349.05	210.21
349.43	210.45
349.81	210.60
350.19	210.76
350.57	210.81
350.96	211.17
351.34	211.33
351.72	211.26
352.10	211.43
352.48	211.48
352.87	211.62
353.25	211.40
353.63	211.43
354.01	211.45
354.39	211.81
354.77	212.02
355.15	212.83
355.54	212.52
355.92	211.93
356.30	211.76
356.68	213.10
357.06	213.33
357.44	213.10
357.82	213.12
358.20	213.98
358.58	214.00
358.97	214.02
359.35	214.50
359.73	215.02
360.11	214.98
360.49	215.19
360.87	215.19
361.25	215.74
361.63	216.57
362.01	216.76
362.39	216.31
362.77	216.43
363.15	216.17
363.53	216.36
363.91	216.14
364.29	216.07
364.67	214.12
365.05	214.14
365.43	214.07
365.81	214.52
366.19	214.38
366.57	214.98
366.95	214.86
367.33	214.62
367.71	214.43
368.09	215.02
368.47	214.86
368.85	214.90
369.23	215.40
369.61	214.60
369.99	215.05
370.37	215.31
370.75	216.24
371.13	215.74
371.51	215.55
371.89	216.05
372.27	216.12
372.65	216.40
373.03	216.62
373.41	216.74
373.78	216.50
374.16	215.67
374.54	215.17
374.92	215.14
375.30	214.95
375.68	214.69
376.06	214.71
376.44	214.67
376.82	214.83
377.19	214.29
377.57	214.31
377.95	213.69
378.33	213.69
378.71	212.52
379.09	213.02
379.47	213.29
379.84	213.00
380.22	212.98
380.60	212.62
380.98	212.26
381.36	212.26
381.73	211.86
382.11	212.33
382.49	212.45
382.87	212.05
383.25	212.40
383.62	214.76
384.00	214.19
384.38	214.12
384.76	214.48
385.13	215.31
385.51	215.40
385.89	215.36
386.27	215.48
386.64	215.86
387.02	215.62
387.40	215.45
387.78	215.52
388.15	215.69
388.53	215.64
388.91	215.76
389.29	215.57
389.66	215.98
390.04	215.55
390.42	215.93
390.79	216.21
391.17	215.98
391.55	213.79
391.92	213.71
392.30	214.05
392.68	213.57
393.05	213.43
393.43	213.21
393.81	213.26
394.18	212.93
394.56	212.90
394.94	213.38
395.31	213.38
395.69	213.98
396.06	214.21
396.44	214.33
396.82	214.38
397.19	215.62
397.57	215.40
397.95	215.79
398.32	215.24
398.70	215.36
399.07	215.79
399.45	215.62
399.82	215.86
400.20	215.62
400.58	215.67
400.95	215.00
401.33	215.60
401.70	217.17
402.08	217.57
402.45	217.45
402.83	217.98
403.20	218.17
403.58	217.93
403.95	218.33
404.33	218.81
404.71	219.19
405.08	220.17
405.46	220.33
405.83	220.76
406.21	221.31
406.58	221.81
406.96	222.12
407.33	222.86
407.70	223.57
408.08	225.57
408.45	226.38
408.83	227.26
409.20	227.64
409.58	227.02
409.95	228.26
410.33	229.21
410.70	229.36
411.08	230.50
411.45	231.48
411.82	232.10
412.20	233.64
412.57	235.88
412.95	235.62
413.32	237.64
413.69	238.98
414.07	240.55
414.44	242.19
414.82	244.14
415.19	246.71
415.56	248.67
415.94	250.14
416.31	252.98
416.68	255.74
417.06	259.24
417.43	262.81
417.81	266.00
418.18	269.83
418.55	273.67
418.93	277.64
419.30	282.05
419.67	286.60
420.04	290.95
420.42	294.98
420.79	301.86
421.16	307.57
421.54	314.52
421.91	320.45
422.28	326.60
422.66	333.21
423.03	340.81
423.40	348.29
423.77	355.21
424.15	362.57
424.52	370.17
424.89	378.98
425.26	386.64
425.64	394.05
426.01	402.19
426.38	411.07
426.75	421.14
427.13	430.48
427.50	440.07
427.87	450.43
428.24	460.31
428.61	468.90
428.99	480.17
429.36	490.26
429.73	501.76
430.10	513.48
430.47	525.52
430.85	536.74
431.22	548.90
431.59	564.10
431.96	576.90
432.33	591.12
432.70	604.40
433.08	620.55
433.45	636.14
433.82	651.50
434.19	668.31
434.56	684.48
434.93	700.07
435.30	716.40
435.68	733.36
436.05	750.52
436.42	767.71
436.79	783.69
437.16	801.05
437.53	819.57
437.90	837.31
438.27	854.86
438.64	872.57
439.01	889.57
439.38	902.93
439.75	917.74
440.13	934.21
440.50	950.33
440.87	963.38
441.24	976.33
441.61	991.29
441.98	1002.50
442.35	1014.17
442.72	1027.55
443.09	1040.45
443.46	1049.05
443.83	1054.86
444.20	1059.67
444.57	1065.69
444.94	1069.31
445.31	1072.43
445.68	1077.95
446.05	1079.43
446.42	1078.26
446.79	1077.60
447.16	1076.29
447.53	1075.43
447.90	1069.26
448.27	1062.62
448.64	1053.64
449.01	1047.79
449.37	1036.57
449.74	1025.14
450.11	1014.50
450.48	999.38
450.85	983.40
451.22	970.29
451.59	958.24
451.96	946.71
452.33	930.40
452.70	915.86
453.07	898.71
453.43	879.10
453.80	862.43
454.17	846.64
454.54	830.71
454.91	814.14
455.28	797.90
455.65	782.88
456.02	771.38
456.38	759.10
456.75	743.38
457.12	729.83
457.49	717.14
457.86	702.43
458.23	692.98
458.59	681.57
458.96	669.21
459.33	658.76
459.70	648.33
460.07	640.19
460.43	630.76
460.80	621.64
461.17	614.31
461.54	606.12
461.91	598.12
462.27	590.40
462.64	583.52
463.01	575.79
463.38	569.74
463.74	558.71
464.11	551.86
464.48	546.38
464.85	540.33
465.21	535.86
465.58	530.81
465.95	523.76
466.32	518.90
466.68	513.79
467.05	508.36
467.42	503.17
467.78	497.88
468.15	492.81
468.52	489.40
468.88	483.71
469.25	479.05
469.62	475.45
469.98	470.69
470.35	467.00
470.72	463.62
471.08	458.36
471.45	455.81
471.82	453.33
472.18	449.45
472.55	446.83
472.92	443.38
473.28	440.55
473.65	437.76
474.02	434.76
474.38	432.67
474.75	431.17
475.11	428.60
475.48	427.00
475.85	425.50
476.21	423.69
476.58	422.71
476.94	421.67
477.31	420.38
477.67	419.50
478.04	418.36
478.41	417.83
478.77	420.00
479.14	418.86
479.50	417.79
479.87	417.57
480.23	417.50
480.60	416.95
480.96	417.24
481.33	418.14
481.69	418.36
482.06	418.81
482.42	419.12
482.79	419.81
483.15	420.05
483.52	420.60
483.88	420.83
484.25	421.45
484.61	422.07
484.98	422.48
485.34	424.05
485.71	425.67
486.07	426.64
486.44	425.57
486.80	426.98
487.17	428.71
487.53	431.36
487.90	433.14
488.26	436.05
488.62	438.21
488.99	440.00
489.35	442.95
489.72	445.10
490.08	447.48
490.44	449.95
490.81	453.48
491.17	456.67
491.54	460.12
491.90	463.57
492.26	467.24
492.63	471.29
492.99	475.43
493.36	479.26
493.72	483.64
494.08	488.38
494.45	493.40
494.81	498.38
495.17	502.71
495.54	507.57
495.90	512.45
496.26	517.79
496.63	523.36
496.99	528.67
497.35	534.67
497.72	540.60
498.08	546.36
498.44	552.10
498.80	558.33
499.17	564.88
499.53	571.40
499.89	578.60
500.26	584.98
500.62	591.29
500.98	598.98
501.34	605.69
501.71	613.02
502.07	619.38
502.43	626.21
502.79	632.95
503.16	640.02
503.52	647.12
503.88	654.00
504.24	661.21
504.60	669.02
504.97	676.86
505.33	684.31
505.69	693.36
506.05	700.88
506.41	708.19
506.78	715.40
507.14	722.95
507.50	730.33
507.86	738.50
508.22	746.55
508.59	753.90
508.95	761.93
509.31	770.55
509.67	778.74
510.03	786.07
510.39	794.19
510.75	802.38
511.12	809.69
511.48	817.88
511.84	825.31
512.20	833.36
512.56	840.45
512.92	848.31
513.28	855.81
513.64	863.55
514.00	871.62
514.37	879.21
514.73	886.93
515.09	893.71
515.45	900.81
515.81	907.88
516.17	914.17
516.53	920.67
516.89	926.10
517.25	933.21
517.61	941.14
517.97	947.57
518.33	953.50
518.69	960.88
519.05	966.95
519.41	973.40
519.77	979.90
520.13	985.74
520.49	991.33
520.85	996.69
521.21	1003.29
521.57	1009.26
521.93	1014.26
522.29	1020.02
522.65	1025.86
523.01	1031.71
523.37	1036.62
523.73	1042.76
524.09	1048.10
524.45	1053.45
524.81	1057.60
525.17	1062.64
525.53	1067.38
525.89	1072.98
526.25	1077.62
526.61	1082.05
526.97	1085.71
527.33	1090.14
527.68	1097.07
528.04	1101.38
528.40	1106.19
528.76	1109.74
529.12	1113.69
529.48	1119.62
529.84	1123.14
530.20	1127.95
530.56	1131.71
530.91	1136.31
531.27	1139.86
531.63	1143.98
531.99	1147.62
532.35	1152.10
532.71	1155.79
533.07	1160.40
533.42	1166.43
533.78	1171.07
534.14	1175.52
534.50	1180.50
534.86	1184.38
535.21	1186.45
535.57	1191.19
535.93	1193.60
536.29	1199.12
536.65	1203.05
537.00	1206.21
537.36	1210.12
537.72	1212.62
538.08	1216.76
538.44	1219.45
538.79	1223.31
539.15	1226.93
539.51	1231.38
539.87	1235.36
540.22	1238.21
540.58	1241.43
540.94	1243.00
541.29	1245.64
541.65	1248.14
542.01	1251.31
542.37	1253.52
542.72	1256.21
543.08	1258.05
543.44	1261.95
543.79	1263.19
544.15	1266.33
544.51	1269.79
544.87	1272.57
545.22	1276.17
545.58	1278.19
545.94	1281.26
546.29	1284.00
546.65	1286.43
547.01	1288.98
547.36	1291.55
547.72	1294.02
548.07	1297.19
548.43	1298.67
548.79	1301.05
549.14	1303.48
549.50	1306.43
549.86	1308.67
550.21	1311.64
550.57	1315.10
550.92	1317.71
551.28	1321.45
551.64	1324.93
551.99	1327.52
552.35	1331.07
552.70	1333.07
553.06	1336.69
553.41	1340.48
553.77	1345.02
554.13	1349.10
554.48	1352.71
554.84	1357.05
555.19	1361.02
555.55	1365.67
555.90	1370.55
556.26	1373.69
556.61	1378.74
556.97	1381.76
557.32	1386.05
557.68	1390.21
558.03	1393.93
558.39	1397.83
558.74	1400.50
559.10	1403.45
559.45	1407.93
559.81	1411.95
560.16	1416.45
560.52	1421.19
560.87	1425.57
561.23	1428.93
561.58	1434.79
561.94	1438.14
562.29	1442.24
562.64	1446.71
563.00	1450.52
563.35	1454.52
563.71	1459.67
564.06	1464.05
564.42	1469.24
564.77	1475.05
565.12	1481.57
565.48	1489.48
565.83	1495.60
566.19	1501.81
566.54	1507.90
566.89	1513.83
567.25	1520.29
567.60	1528.10
567.96	1535.62
568.31	1542.29
568.66	1548.55
569.02	1552.83
569.37	1559.88
569.72	1565.00
570.08	1570.31
570.43	1574.21
570.78	1580.79
571.14	1587.00
571.49	1592.29
571.84	1598.38
572.20	1602.95
572.55	1607.19
572.90	1609.71
573.26	1613.88
573.61	1618.71
573.96	1623.86
574.31	1626.81
574.67	1630.45
575.02	1632.86
575.37	1634.43
575.72	1637.10
576.08	1640.50
576.43	1644.10
576.78	1646.71
577.13	1651.00
577.49	1655.07
577.84	1660.24
578.19	1662.83
578.54	1667.07
578.90	1671.02
579.25	1673.71
579.60	1676.76
579.95	1679.57
580.30	1682.90
580.66	1686.45
581.01	1689.86
581.36	1692.31
581.71	1695.67
582.06	1700.07
582.42	1704.38
582.77	1706.86
583.12	1710.38
583.47	1713.29
583.82	1717.02
584.17	1719.81
584.53	1722.29
584.88	1724.36
585.23	1727.10
585.58	1730.17
585.93	1732.00
586.28	1734.60
586.63	1737.76
586.98	1741.24
587.34	1744.50
587.69	1745.81
588.04	1747.90
588.39	1749.69
588.74	1750.67
589.09	1753.21
589.44	1752.86
589.79	1754.24
590.14	1757.05
590.49	1757.74
590.84	1759.62
591.19	1760.50
591.54	1762.14
591.89	1763.40
592.25	1767.74
592.60	1768.14
592.95	1769.40
593.30	1770.05
593.65	1770.50
594.00	1770.38
594.35	1777.17
594.70	1776.19
595.05	1778.02
595.40	1778.57
595.75	1779.76
596.10	1781.10
596.45	1782.31
596.80	1783.43
597.15	1784.26
597.50	1784.67
597.85	1786.45
598.19	1785.93
598.54	1786.69
598.89	1787.33
599.24	1787.55
599.59	1785.48
599.94	1786.10
600.29	1785.76
600.64	1786.19
600.99	1786.50
601.34	1787.45
601.69	1780.60
602.04	1780.48
602.39	1779.90
602.74	1780.19
603.08	1779.38
603.43	1780.29
603.78	1778.57
604.13	1778.43
604.48	1777.43
604.83	1777.64
605.18	1777.00
605.53	1777.02
605.87	1775.74
606.22	1774.29
606.57	1772.71
606.92	1771.26
607.27	1769.71
607.62	1769.74
607.96	1768.86
608.31	1768.29
608.66	1767.24
609.01	1765.40
609.36	1765.21
609.70	1764.10
610.05	1762.02
610.40	1760.38
610.75	1756.76
611.10	1756.29
611.44	1753.86
611.79	1751.62
612.14	1748.88
612.49	1745.02
612.83	1742.62
613.18	1739.33
613.53	1736.81
613.88	1733.76
614.22	1730.31
614.57	1726.43
614.92	1721.21
615.27	1717.81
615.61	1713.67
615.96	1709.60
616.31	1706.31
616.65	1703.29
617.00	1699.38
617.35	1696.19
617.70	1692.21
618.04	1688.98
618.39	1683.45
618.74	1679.86
619.08	1675.50
619.43	1671.00
619.78	1667.40
620.12	1663.67
620.47	1660.10
620.82	1655.02
621.16	1651.10
621.51	1648.21
621.85	1644.40
622.20	1640.74
622.55	1635.86
622.89	1631.90
623.24	1628.48
623.59	1624.52
623.93	1620.12
624.28	1616.38
624.62	1614.05
624.97	1611.33
625.32	1607.31
625.66	1603.95
626.01	1599.52
626.35	1595.40
626.70	1591.50
627.04	1588.12
627.39	1583.74
627.73	1579.95
628.08	1578.02
628.43	1573.52
628.77	1569.00
629.12	1565.76
629.46	1562.12
629.81	1557.76
630.15	1552.55
630.50	1546.76
630.84	1541.50
631.19	1535.62
631.53	1530.83
631.88	1522.31
632.22	1515.36
632.57	1511.02
632.91	1505.29
633.26	1500.31
633.60	1494.29
633.95	1488.64
634.29	1482.48
634.64	1477.43
634.98	1471.57
635.32	1466.31
635.67	1462.79
636.01	1458.10
636.36	1452.62
636.70	1447.83
637.05	1442.67
637.39	1438.12
637.73	1433.90
638.08	1430.81
638.42	1426.24
638.77	1421.31
639.11	1417.00
639.45	1412.21
639.80	1406.38
640.14	1402.00
640.49	1396.60
640.83	1391.33
641.17	1386.21
641.52	1380.81
641.86	1374.98
642.20	1371.26
642.55	1364.57
642.89	1358.52
643.23	1352.55
643.58	1347.98
643.92	1341.02
644.26	1335.31
644.61	1329.55
644.95	1323.07
645.29	1315.45
645.64	1309.83
645.98	1303.90
646.32	1299.29
646.66	1293.12
647.01	1286.95
647.35	1280.76
647.69	1274.81
648.04	1270.05
648.38	1264.36
648.72	1259.33
649.06	1253.02
649.41	1245.64
649.75	1239.26
650.09	1232.60
650.43	1225.83
650.78	1218.12
651.12	1212.07
651.46	1205.81
651.80	1199.19
652.14	1192.86
652.49	1186.79
652.83	1179.60
653.17	1172.24
653.51	1165.05
653.85	1159.48
654.20	1152.95
654.54	1145.14
654.88	1138.14
655.22	1131.74
655.56	1124.90
655.90	1117.67
656.25	1111.19
656.59	1104.88
656.93	1099.02
657.27	1093.43
657.61	1086.38
657.95	1080.52
658.29	1074.00
658.64	1068.33
658.98	1062.38
659.32	1055.88
659.66	1049.69
660.00	1043.55
660.34	1037.38
660.68	1031.05
661.02	1024.21
661.36	1017.83
661.70	1012.48
662.05	1006.29
662.39	1000.48
662.73	995.21
663.07	989.74
663.41	983.76
663.75	976.93
664.09	971.14
664.43	964.14
664.77	959.40
665.11	952.90
665.45	947.36
665.79	940.26
666.13	933.76
666.47	927.79
666.81	921.71
667.15	915.67
667.49	910.60
667.83	905.14
668.17	899.00
668.51	893.40
668.85	887.57
669.19	882.98
669.53	876.48
669.87	869.69
670.21	864.02
670.55	857.88
670.89	854.05
671.23	848.50
671.57	843.43
671.91	838.07
672.25	832.48
672.58	827.88
672.92	822.71
673.26	817.14
673.60	811.83
673.94	806.81
674.28	801.76
674.62	796.55
674.96	791.26
675.30	787.02
675.64	781.88
675.97	777.71
676.31	771.98
676.65	766.52
676.99	762.83
677.33	757.55
677.67	752.86
678.01	746.38
678.34	740.93
678.68	736.14
679.02	730.02
679.36	725.31
679.70	719.71
680.04	714.86
680.37	710.31
680.71	705.31
681.05	701.17
681.39	696.48
681.73	691.45
682.06	686.43
682.40	681.19
682.74	677.02
683.08	672.50
683.42	667.67
683.75	663.62
684.09	658.14
684.43	653.50
684.77	648.88
685.10	644.90
685.44	640.90
685.78	636.31
686.12	632.07
686.45	627.62
686.79	622.69
687.13	619.07
687.46	614.83
687.80	611.33
688.14	606.38
688.48	602.69
688.81	598.90
689.15	595.26
689.49	590.93
689.82	586.40
690.16	581.64
690.50	577.81
690.83	573.93
691.17	569.36
691.51	565.36
691.84	561.86
692.18	557.88
692.52	554.02
692.85	550.31
693.19	547.83
693.52	544.24
693.86	540.90
694.20	536.83
694.53	533.29
694.87	529.38
695.21	525.57
695.54	521.98
695.88	517.17
696.21	512.36
696.55	508.88
696.88	505.33
697.22	501.45
697.56	498.14
697.89	494.31
698.23	491.21
698.56	487.74
698.90	484.29
699.23	480.62
699.57	477.02
699.90	473.36
700.24	469.24
700.58	466.24
700.91	463.31
701.25	461.52
701.58	458.76
701.92	456.14
702.25	453.60
702.59	450.12
702.92	447.86
703.26	445.69
703.59	442.79
703.93	441.67
704.26	439.45
704.60	436.74
704.93	434.10
705.26	431.50
705.60	429.26
705.93	426.57
706.27	424.55
706.60	422.43
706.94	421.05
707.27	418.43
707.61	415.98
707.94	413.52
708.27	409.81
708.61	406.67
708.94	404.43
709.28	402.33
709.61	400.05
709.94	397.64
710.28	395.60
710.61	393.69
710.95	389.76
711.28	388.52
711.61	386.57
711.95	385.07
712.28	382.81
712.61	380.69
712.95	379.50
713.28	378.02
713.61	375.76
713.95	372.90
714.28	371.21
714.61	368.95
714.95	366.83
715.28	364.93
715.61	363.40
715.95	361.21
716.28	358.83
716.61	357.45
716.95	355.50
717.28	353.48
717.61	351.45
717.94	349.90
718.28	346.81
718.61	344.98
718.94	342.71
719.27	341.02
719.61	339.33
719.94	336.98
720.27	334.62
720.60	332.76
720.94	331.33
721.27	329.86
721.60	329.05
721.93	327.48
722.27	326.79
722.60	325.55
722.93	323.64
723.26	322.67
723.59	320.83
723.93	320.14
724.26	319.05
724.59	317.79
724.92	316.64
725.25	316.14
725.59	315.02
725.92	313.98
726.25	312.98
726.58	311.98
726.91	311.26
727.24	310.64
727.57	309.45
727.91	308.05
728.24	307.26
728.57	305.62
728.90	305.00
729.23	303.17
729.56	302.83
729.89	302.21
730.22	300.67
730.55	299.69
730.89	298.29
731.22	297.17
731.55	296.24
731.88	295.33
732.21	293.95
732.54	292.86
732.87	292.14
733.20	291.05
733.53	290.14
733.86	289.02
734.19	287.55
734.52	286.98
734.85	287.60
735.18	286.36
735.51	286.31
735.84	285.33
736.17	285.02
736.50	283.57
736.83	285.21
737.16	284.48
737.49	283.79
737.82	283.14
738.15	282.48
738.48	281.40
738.81	280.67
739.14	280.00
739.47	279.02
739.80	278.07
740.13	277.71
740.46	276.60
740.79	275.67
741.12	274.95
741.45	273.90
741.78	272.07
742.11	272.05
742.44	270.86
742.77	270.62
743.10	269.57
743.43	268.69
743.75	265.83
744.08	268.10
744.41	267.33
744.74	266.52
745.07	265.57
745.40	265.31
745.73	265.43
746.06	264.43
746.39	263.93
746.71	263.10
747.04	262.17
747.37	261.40
747.70	261.02
748.03	260.36
748.36	260.14
748.68	259.74
749.01	258.45
749.34	257.69
749.67	257.21
750.00	256.71
750.33	257.79
750.65	257.55
750.98	254.57
751.31	254.31
751.64	254.07
751.97	255.10
752.29	254.69
752.62	253.33
752.95	252.98
753.28	252.50
753.60	252.05
753.93	252.07
754.26	251.98
754.59	251.19
754.91	250.64
755.24	250.14
755.57	249.40
755.90	248.93
756.22	248.55
756.55	247.67
756.88	247.00
757.20	245.24
757.53	244.19
757.86	243.81
758.19	243.29
758.51	242.50
758.84	240.81
759.17	240.26
759.49	240.21
759.82	240.93
760.15	240.98
760.47	240.69
760.80	239.81
761.13	239.74
761.45	239.14
761.78	238.95
762.11	238.62
762.43	238.17
762.76	237.86
763.08	237.69
763.41	237.50
763.74	237.40
764.06	236.81
764.39	236.57
764.71	236.02
765.04	235.60
765.37	235.43
765.69	235.07
766.02	234.64
766.34	233.88
766.67	232.86
767.00	232.67
767.32	233.45
767.65	234.38
767.97	234.19
768.30	234.29
768.62	233.95
768.95	233.33
769.27	233.05
769.60	233.05
769.92	232.60
770.25	232.12
770.57	231.52
770.90	231.19
771.22	230.60
771.55	230.50
771.87	230.50
772.20	230.07
772.52	231.50
772.85	233.83
773.17	233.90
773.50	233.50
773.82	233.05
774.15	231.93
774.47	230.55
774.80	229.93
775.12	229.48
775.45	229.45
775.77	229.55
776.09	229.64
776.42	229.33
776.74	229.69
777.07	229.55
777.39	229.64
777.72	229.60
778.04	229.88
778.36	229.57
778.69	229.31
779.01	229.38
779.33	227.55
779.66	225.33
779.98	224.88
780.31	224.74
780.63	225.50
780.95	225.67
781.28	225.52
781.60	225.24
781.92	225.14
782.25	224.81
782.57	224.71
782.89	224.62
783.22	224.43
783.54	224.10
783.86	224.19
784.19	223.98
784.51	224.62
784.83	224.19
785.16	224.07
