SpectraSuite Data File
++++++++++++++++++++++++++++++++++++
Date: Tue Apr 02 18:43:31 EDT 2013
User: group
Dark Spectrum Present: No
Reference Spectrum Present: No
Number of Sampled Component Spectra: 1
Spectrometers: USB2E7196
Integration Time (usec): 580000 (USB2E7196)
Spectra Averaged: 2 (USB2E7196)
Boxcar Smoothing: 10 (USB2E7196)
Correct for Electrical Dark: No (USB2E7196)
Strobe/Lamp Enabled: No (USB2E7196)
Correct for Detector Non-linearity: No (USB2E7196)
Correct for Stray Light: No (USB2E7196)
Number of Pixels in Processed Spectrum: 2048
>>>>>Begin Processed Spectral Data<<<<<
339.09	0.00
339.48	189.50
339.86	195.00
340.24	199.50
340.63	201.00
341.01	226.50
341.39	201.50
341.78	208.00
342.16	209.50
342.54	204.00
342.93	197.81
343.31	207.67
343.69	208.36
344.07	208.95
344.46	209.67
344.84	210.31
345.22	209.31
345.60	209.79
345.99	209.88
346.37	210.07
346.75	210.14
347.13	210.00
347.52	209.90
347.90	210.52
348.28	210.55
348.66	211.07
349.05	210.55
349.43	210.81
349.81	210.71
350.19	210.69
350.57	210.88
350.96	211.02
351.34	211.31
351.72	211.62
352.10	211.60
352.48	211.50
352.87	211.33
353.25	211.45
353.63	211.64
354.01	211.71
354.39	211.81
354.77	211.83
355.15	212.60
355.54	212.74
355.92	212.21
356.30	212.19
356.68	213.50
357.06	213.57
357.44	213.26
357.82	213.55
358.20	214.36
358.58	214.55
358.97	214.52
359.35	214.71
359.73	215.10
360.11	215.26
360.49	215.21
360.87	215.14
361.25	215.48
361.63	216.07
362.01	216.10
362.39	215.76
362.77	216.00
363.15	215.76
363.53	215.86
363.91	216.07
364.29	216.12
364.67	214.07
365.05	214.02
365.43	214.43
365.81	214.50
366.19	214.76
366.57	215.50
366.95	215.40
367.33	215.17
367.71	215.17
368.09	215.57
368.47	215.60
368.85	215.52
369.23	215.95
369.61	215.07
369.99	215.79
370.37	216.24
370.75	217.21
371.13	216.69
371.51	216.33
371.89	216.36
372.27	216.57
372.65	216.90
373.03	216.88
373.41	216.60
373.78	216.76
374.16	215.64
374.54	214.60
374.92	214.60
375.30	214.45
375.68	213.98
376.06	213.93
376.44	213.76
376.82	214.07
377.19	213.74
377.57	213.69
377.95	212.86
378.33	212.60
378.71	211.48
379.09	212.02
379.47	212.48
379.84	212.45
380.22	212.33
380.60	211.93
380.98	212.07
381.36	212.12
381.73	211.74
382.11	212.10
382.49	212.55
382.87	212.38
383.25	212.55
383.62	214.98
384.00	214.52
384.38	214.64
384.76	214.71
385.13	215.71
385.51	215.76
385.89	215.71
386.27	215.81
386.64	216.26
387.02	215.69
387.40	215.48
387.78	215.43
388.15	215.48
388.53	215.38
388.91	215.43
389.29	215.19
389.66	215.48
390.04	215.10
390.42	215.33
390.79	215.29
391.17	215.14
391.55	212.62
391.92	212.71
392.30	212.81
392.68	212.71
393.05	212.26
393.43	212.24
393.81	212.26
394.18	211.98
394.56	211.79
394.94	212.38
395.31	212.10
395.69	212.79
396.06	213.21
396.44	213.67
396.82	213.36
397.19	214.62
397.57	214.40
397.95	214.93
398.32	214.40
398.70	214.74
399.07	215.45
399.45	215.62
399.82	215.76
400.20	215.74
400.58	215.69
400.95	215.12
401.33	215.71
401.70	217.43
402.08	217.83
402.45	217.98
402.83	218.76
403.20	219.12
403.58	218.69
403.95	218.95
404.33	219.07
404.71	219.43
405.08	220.71
405.46	220.81
405.83	221.21
406.21	221.74
406.58	222.24
406.96	222.24
407.33	223.07
407.70	223.60
408.08	225.64
408.45	226.48
408.83	227.55
409.20	228.12
409.58	227.31
409.95	228.21
410.33	229.21
410.70	229.43
411.08	230.76
411.45	231.90
411.82	232.79
412.20	234.31
412.57	237.12
412.95	236.43
413.32	238.52
413.69	239.62
414.07	241.02
414.44	242.74
414.82	244.64
415.19	246.60
415.56	248.69
415.94	250.07
416.31	252.88
416.68	255.36
417.06	258.69
417.43	262.67
417.81	266.33
418.18	270.05
418.55	273.79
418.93	277.57
419.30	281.69
419.67	286.12
420.04	290.48
420.42	294.40
420.79	301.57
421.16	307.10
421.54	314.17
421.91	320.38
422.28	326.67
422.66	333.45
423.03	341.55
423.40	348.45
423.77	355.33
424.15	362.52
424.52	370.45
424.89	378.43
425.26	385.50
425.64	392.88
426.01	400.71
426.38	409.29
426.75	418.98
427.13	428.50
427.50	438.12
427.87	448.21
428.24	457.81
428.61	466.38
428.99	477.64
429.36	487.60
429.73	499.21
430.10	510.64
430.47	522.38
430.85	532.52
431.22	545.33
431.59	560.26
431.96	573.31
432.33	587.55
432.70	601.38
433.08	618.10
433.45	633.17
433.82	649.10
434.19	665.95
434.56	682.67
434.93	698.43
435.30	714.05
435.68	732.19
436.05	749.90
436.42	766.57
436.79	782.43
437.16	800.21
437.53	817.79
437.90	835.90
438.27	853.36
438.64	871.67
439.01	888.60
439.38	902.74
439.75	917.88
440.13	934.33
440.50	950.14
440.87	962.69
441.24	975.90
441.61	989.88
441.98	1001.38
442.35	1012.83
442.72	1026.43
443.09	1040.74
443.46	1047.67
443.83	1052.43
444.20	1057.95
444.57	1063.86
444.94	1066.76
445.31	1070.29
445.68	1076.00
446.05	1077.67
446.42	1076.36
446.79	1076.14
447.16	1074.07
447.53	1072.43
447.90	1066.33
448.27	1060.05
448.64	1051.69
449.01	1045.43
449.37	1034.31
449.74	1023.19
450.11	1012.43
450.48	997.33
450.85	980.50
451.22	968.29
451.59	956.21
451.96	944.33
452.33	928.64
452.70	914.69
453.07	897.45
453.43	877.71
453.80	861.33
454.17	845.81
454.54	829.00
454.91	812.36
455.28	796.12
455.65	781.02
456.02	769.31
456.38	756.26
456.75	740.88
457.12	728.12
457.49	715.00
457.86	700.36
458.23	690.07
458.59	678.48
458.96	666.12
459.33	655.76
459.70	645.02
460.07	637.02
460.43	627.10
460.80	618.90
461.17	611.00
461.54	602.60
461.91	594.57
462.27	586.93
462.64	580.14
463.01	572.55
463.38	566.17
463.74	555.43
464.11	548.88
464.48	543.69
464.85	537.38
465.21	532.95
465.58	527.98
465.95	521.17
466.32	516.55
466.68	511.74
467.05	507.19
467.42	502.26
467.78	496.79
468.15	492.00
468.52	487.90
468.88	482.45
469.25	477.79
469.62	474.33
469.98	470.02
470.35	466.36
470.72	462.93
471.08	458.26
471.45	455.79
471.82	452.74
472.18	448.98
472.55	446.38
472.92	442.98
473.28	440.38
473.65	437.57
474.02	434.79
474.38	432.62
474.75	430.52
475.11	427.98
475.48	426.00
475.85	424.64
476.21	422.69
476.58	421.86
476.94	420.88
477.31	419.60
477.67	418.74
478.04	418.10
478.41	417.40
478.77	419.05
479.14	417.55
479.50	417.14
479.87	416.86
480.23	416.48
480.60	415.74
480.96	415.55
481.33	416.50
481.69	416.45
482.06	416.45
482.42	416.60
482.79	417.10
483.15	417.40
483.52	418.07
483.88	418.71
484.25	419.24
484.61	419.90
484.98	420.57
485.34	422.00
485.71	423.19
486.07	424.60
486.44	423.74
486.80	425.38
487.17	426.74
487.53	429.02
487.90	431.62
488.26	434.57
488.62	437.24
488.99	438.55
489.35	441.26
489.72	443.62
490.08	446.21
490.44	448.79
490.81	452.12
491.17	455.02
491.54	459.10
491.90	462.52
492.26	466.05
492.63	469.88
492.99	473.57
493.36	477.52
493.72	482.24
494.08	487.07
494.45	492.33
494.81	497.40
495.17	502.33
495.54	507.14
495.90	511.86
496.26	516.62
496.63	522.33
496.99	528.00
497.35	534.07
497.72	540.02
498.08	545.62
498.44	551.69
498.80	558.57
499.17	564.10
499.53	570.71
499.89	577.83
500.26	584.43
500.62	591.10
500.98	598.57
501.34	605.43
501.71	612.79
502.07	619.00
502.43	626.07
502.79	632.60
503.16	639.76
503.52	646.95
503.88	653.86
504.24	661.33
504.60	668.62
504.97	676.48
505.33	683.81
505.69	692.95
506.05	700.74
506.41	708.05
506.78	715.48
507.14	722.52
507.50	730.21
507.86	737.98
508.22	745.79
508.59	753.17
508.95	760.83
509.31	768.71
509.67	777.00
510.03	784.74
510.39	792.19
510.75	799.69
511.12	807.17
511.48	815.21
511.84	823.14
512.20	831.02
512.56	838.74
512.92	847.10
513.28	854.36
513.64	861.79
514.00	869.02
514.37	876.64
514.73	884.26
515.09	891.50
515.45	898.76
515.81	905.79
516.17	912.74
516.53	919.33
516.89	924.95
517.25	931.76
517.61	937.98
517.97	944.12
518.33	950.60
518.69	957.71
519.05	964.33
519.41	970.67
519.77	977.90
520.13	983.79
520.49	988.38
520.85	993.69
521.21	1000.12
521.57	1005.76
521.93	1011.50
522.29	1017.62
522.65	1022.14
523.01	1028.07
523.37	1033.57
523.73	1038.45
524.09	1043.05
524.45	1048.43
524.81	1052.60
525.17	1058.29
525.53	1064.02
525.89	1068.71
526.25	1073.81
526.61	1077.50
526.97	1080.93
527.33	1084.33
527.68	1090.33
528.04	1095.38
528.40	1099.40
528.76	1103.67
529.12	1108.14
529.48	1112.50
529.84	1116.31
530.20	1121.74
530.56	1125.76
530.91	1129.86
531.27	1134.29
531.63	1139.52
531.99	1143.43
532.35	1147.88
532.71	1151.88
533.07	1155.60
533.42	1161.29
533.78	1164.62
534.14	1169.88
534.50	1174.60
534.86	1179.48
535.21	1181.24
535.57	1185.52
535.93	1189.45
536.29	1194.10
536.65	1198.60
537.00	1201.33
537.36	1204.67
537.72	1207.19
538.08	1210.86
538.44	1214.00
538.79	1217.79
539.15	1220.29
539.51	1224.31
539.87	1228.10
540.22	1231.05
540.58	1234.26
540.94	1236.17
541.29	1239.71
541.65	1242.24
542.01	1244.76
542.37	1247.14
542.72	1249.45
543.08	1251.02
543.44	1254.90
543.79	1255.86
544.15	1259.07
544.51	1263.07
544.87	1266.55
545.22	1270.38
545.58	1272.36
545.94	1275.07
546.29	1277.69
546.65	1281.02
547.01	1283.40
547.36	1285.83
547.72	1288.55
548.07	1291.57
548.43	1293.86
548.79	1295.64
549.14	1297.64
549.50	1300.79
549.86	1302.14
550.21	1305.76
550.57	1309.60
550.92	1311.48
551.28	1315.36
551.64	1317.88
551.99	1320.81
552.35	1323.14
552.70	1325.43
553.06	1329.14
553.41	1332.67
553.77	1337.24
554.13	1340.29
554.48	1344.05
554.84	1348.19
555.19	1351.86
555.55	1357.12
555.90	1360.98
556.26	1365.50
556.61	1370.00
556.97	1373.05
557.32	1377.29
557.68	1381.17
558.03	1384.90
558.39	1388.36
558.74	1391.50
559.10	1394.69
559.45	1397.95
559.81	1402.24
560.16	1405.98
560.52	1409.79
560.87	1414.57
561.23	1416.71
561.58	1422.12
561.94	1425.62
562.29	1429.79
562.64	1434.57
563.00	1437.00
563.35	1441.45
563.71	1446.24
564.06	1450.64
564.42	1456.29
564.77	1462.14
565.12	1468.19
565.48	1475.05
565.83	1481.36
566.19	1487.21
566.54	1492.24
566.89	1498.43
567.25	1504.48
567.60	1512.00
567.96	1519.45
568.31	1525.95
568.66	1532.74
569.02	1537.48
569.37	1543.60
569.72	1548.76
570.08	1553.79
570.43	1559.55
570.78	1565.79
571.14	1570.74
571.49	1576.95
571.84	1582.00
572.20	1587.52
572.55	1591.62
572.90	1594.98
573.26	1599.48
573.61	1603.71
573.96	1608.79
574.31	1612.74
574.67	1617.02
575.02	1620.21
575.37	1622.50
575.72	1625.45
576.08	1629.45
576.43	1633.40
576.78	1636.62
577.13	1641.10
577.49	1645.17
577.84	1649.10
578.19	1652.50
578.54	1656.60
578.90	1660.57
579.25	1664.64
579.60	1666.67
579.95	1670.02
580.30	1673.83
580.66	1677.79
581.01	1682.33
581.36	1685.36
581.71	1689.19
582.06	1693.00
582.42	1696.76
582.77	1700.40
583.12	1703.76
583.47	1706.64
583.82	1709.48
584.17	1713.19
584.53	1715.95
584.88	1718.12
585.23	1722.00
585.58	1724.40
585.93	1726.12
586.28	1728.10
586.63	1730.52
586.98	1734.26
587.34	1737.43
587.69	1739.79
588.04	1741.90
588.39	1743.71
588.74	1745.88
589.09	1748.29
589.44	1749.57
589.79	1751.31
590.14	1753.02
590.49	1754.10
590.84	1755.60
591.19	1757.12
591.54	1758.52
591.89	1758.55
592.25	1762.33
592.60	1761.81
592.95	1762.83
593.30	1765.19
593.65	1765.81
594.00	1766.00
594.35	1772.76
594.70	1772.83
595.05	1774.12
595.40	1774.74
595.75	1774.76
596.10	1777.10
596.45	1777.50
596.80	1778.38
597.15	1778.40
597.50	1778.17
597.85	1779.45
598.19	1778.90
598.54	1779.17
598.89	1780.07
599.24	1783.02
599.59	1782.40
599.94	1783.95
600.29	1784.62
600.64	1784.05
600.99	1785.02
601.34	1786.69
601.69	1779.98
602.04	1779.02
602.39	1778.31
602.74	1779.17
603.08	1778.86
603.43	1778.24
603.78	1778.29
604.13	1777.93
604.48	1777.26
604.83	1778.00
605.18	1778.05
605.53	1777.71
605.87	1776.69
606.22	1775.95
606.57	1773.26
606.92	1771.36
607.27	1769.83
607.62	1769.38
607.96	1769.12
608.31	1768.55
608.66	1767.19
609.01	1765.98
609.36	1765.12
609.70	1764.12
610.05	1760.74
610.40	1759.48
610.75	1756.79
611.10	1754.52
611.44	1751.76
611.79	1749.60
612.14	1746.36
612.49	1742.26
612.83	1740.29
613.18	1738.48
613.53	1735.07
613.88	1732.50
614.22	1729.67
614.57	1725.76
614.92	1721.00
615.27	1717.07
615.61	1712.05
615.96	1707.88
616.31	1704.14
616.65	1701.76
617.00	1698.40
617.35	1695.67
617.70	1692.69
618.04	1688.60
618.39	1684.00
618.74	1680.40
619.08	1677.21
619.43	1673.67
619.78	1670.19
620.12	1666.02
620.47	1662.60
620.82	1657.93
621.16	1653.19
621.51	1650.05
621.85	1646.64
622.20	1643.19
622.55	1638.60
622.89	1634.81
623.24	1631.69
623.59	1627.88
623.93	1622.86
624.28	1619.19
624.62	1617.71
624.97	1614.07
625.32	1610.29
625.66	1607.14
626.01	1603.76
626.35	1600.26
626.70	1595.98
627.04	1593.62
627.39	1589.64
627.73	1586.05
628.08	1583.05
628.43	1579.12
628.77	1574.40
629.12	1571.17
629.46	1567.38
629.81	1564.10
630.15	1559.36
630.50	1553.81
630.84	1550.10
631.19	1545.86
631.53	1539.31
631.88	1531.40
632.22	1525.05
632.57	1520.10
632.91	1514.88
633.26	1510.07
633.60	1504.00
633.95	1499.45
634.29	1492.24
634.64	1488.62
634.98	1482.26
635.32	1478.14
635.67	1473.90
636.01	1468.48
636.36	1462.98
636.70	1458.79
637.05	1453.79
637.39	1449.45
637.73	1444.55
638.08	1440.00
638.42	1435.40
638.77	1431.90
639.11	1427.10
639.45	1422.38
639.80	1417.21
640.14	1411.81
640.49	1406.12
640.83	1400.76
641.17	1395.43
641.52	1390.86
641.86	1384.07
642.20	1379.76
642.55	1373.40
642.89	1368.29
643.23	1362.95
643.58	1358.14
643.92	1350.62
644.26	1344.29
644.61	1338.95
644.95	1332.95
645.29	1326.12
645.64	1321.02
645.98	1314.83
646.32	1309.67
646.66	1302.79
647.01	1297.02
647.35	1291.88
647.69	1285.52
648.04	1280.33
648.38	1275.24
648.72	1268.83
649.06	1263.05
649.41	1257.12
649.75	1250.36
650.09	1243.88
650.43	1237.14
650.78	1230.17
651.12	1224.24
651.46	1218.79
651.80	1212.71
652.14	1206.95
652.49	1201.48
652.83	1194.33
653.17	1187.21
653.51	1180.19
653.85	1174.55
654.20	1167.43
654.54	1159.98
654.88	1153.14
655.22	1146.57
655.56	1139.05
655.90	1132.60
656.25	1126.07
656.59	1118.67
656.93	1112.98
657.27	1107.29
657.61	1101.10
657.95	1095.19
658.29	1089.02
658.64	1082.60
658.98	1075.31
659.32	1068.67
659.66	1061.64
660.00	1055.38
660.34	1049.55
660.68	1042.69
661.02	1036.07
661.36	1030.79
661.70	1024.90
662.05	1019.74
662.39	1013.86
662.73	1008.19
663.07	1002.98
663.41	997.19
663.75	990.43
664.09	984.52
664.43	977.31
664.77	971.57
665.11	964.55
665.45	958.81
665.79	952.50
666.13	946.50
666.47	940.93
666.81	935.43
667.15	929.36
667.49	924.19
667.83	919.57
668.17	914.90
668.51	909.12
668.85	903.90
669.19	899.29
669.53	892.64
669.87	886.93
670.21	881.21
670.55	874.67
670.89	871.07
671.23	865.57
671.57	860.64
671.91	855.60
672.25	850.62
672.58	846.12
672.92	840.62
673.26	835.64
673.60	830.55
673.94	825.36
674.28	820.60
674.62	815.19
674.96	810.14
675.30	804.74
675.64	799.48
675.97	794.45
676.31	787.88
676.65	782.79
676.99	778.69
677.33	773.50
677.67	769.67
678.01	763.74
678.34	758.69
678.68	754.69
679.02	749.71
679.36	744.52
679.70	738.64
680.04	733.71
680.37	728.93
680.71	723.76
681.05	719.24
681.39	714.64
681.73	710.14
682.06	704.88
682.40	700.43
682.74	696.50
683.08	692.95
683.42	688.29
683.75	684.60
684.09	679.10
684.43	674.64
684.77	670.21
685.10	665.40
685.44	661.19
685.78	655.79
686.12	650.98
686.45	646.38
686.79	642.38
687.13	638.69
687.46	634.31
687.80	630.90
688.14	626.02
688.48	621.40
688.81	616.98
689.15	613.83
689.49	608.88
689.82	603.95
690.16	598.24
690.50	594.48
690.83	589.88
691.17	585.43
691.51	581.19
691.84	576.79
692.18	573.33
692.52	568.95
692.85	565.57
693.19	562.64
693.52	559.29
693.86	554.95
694.20	550.93
694.53	546.86
694.87	542.17
695.21	537.98
695.54	534.19
695.88	529.31
696.21	524.38
696.55	520.93
696.88	517.55
697.22	514.19
697.56	511.45
697.89	507.95
698.23	504.95
698.56	501.33
698.90	498.10
699.23	494.05
699.57	490.69
699.90	486.57
700.24	482.88
700.58	479.45
700.91	476.64
701.25	474.90
701.58	472.40
701.92	470.17
702.25	467.90
702.59	464.79
702.92	462.71
703.26	460.17
703.59	457.17
703.93	456.07
704.26	453.71
704.60	449.83
704.93	446.71
705.26	443.43
705.60	440.93
705.93	437.76
706.27	435.90
706.60	433.76
706.94	431.95
707.27	428.76
707.61	426.31
707.94	423.90
708.27	419.67
708.61	417.07
708.94	414.00
709.28	411.60
709.61	408.98
709.94	406.52
710.28	403.93
710.61	401.76
710.95	397.79
711.28	396.67
711.61	394.62
711.95	393.17
712.28	391.14
712.61	388.76
712.95	387.67
713.28	386.05
713.61	383.40
713.95	380.50
714.28	378.52
714.61	376.31
714.95	374.17
715.28	371.74
715.61	369.31
715.95	367.55
716.28	365.52
716.61	364.10
716.95	361.95
717.28	360.17
717.61	358.38
717.94	356.17
718.28	352.60
718.61	350.64
718.94	348.62
719.27	347.07
719.61	345.62
719.94	343.43
720.27	340.93
720.60	339.14
720.94	337.79
721.27	336.38
721.60	335.29
721.93	333.62
722.27	333.33
722.60	332.19
722.93	330.40
723.26	328.67
723.59	327.19
723.93	326.14
724.26	324.95
724.59	323.36
724.92	322.69
725.25	322.07
725.59	320.98
725.92	319.74
726.25	318.48
726.58	317.33
726.91	316.07
727.24	315.12
727.57	314.07
727.91	312.48
728.24	311.48
728.57	309.98
728.90	308.88
729.23	307.19
729.56	306.95
729.89	306.12
730.22	304.98
730.55	303.74
730.89	302.62
731.22	301.57
731.55	300.57
731.88	299.31
732.21	297.90
732.54	296.60
732.87	295.40
733.20	294.71
733.53	293.79
733.86	293.07
734.19	291.48
734.52	290.74
734.85	291.17
735.18	289.83
735.51	289.83
735.84	289.29
736.17	288.79
736.50	287.17
736.83	288.26
737.16	287.76
737.49	286.88
737.82	285.95
738.15	285.26
738.48	284.74
738.81	283.79
739.14	282.98
739.47	282.12
739.80	281.24
740.13	280.33
740.46	279.26
740.79	278.26
741.12	277.81
741.45	276.76
741.78	275.17
742.11	275.12
742.44	273.86
742.77	273.40
743.10	272.19
743.43	271.12
743.75	268.67
744.08	270.33
744.41	269.57
744.74	268.57
745.07	267.40
745.40	266.95
745.73	267.38
746.06	266.81
746.39	266.55
746.71	266.14
747.04	265.02
747.37	264.17
747.70	264.14
748.03	263.52
748.36	263.40
748.68	262.88
749.01	261.67
749.34	261.05
749.67	260.43
750.00	260.38
750.33	261.57
750.65	261.12
750.98	258.12
751.31	257.76
751.64	257.60
751.97	258.48
752.29	257.90
752.62	256.26
752.95	255.74
753.28	255.05
753.60	254.64
753.93	254.98
754.26	254.60
754.59	253.29
754.91	252.50
755.24	251.79
755.57	251.10
755.90	250.45
756.22	249.88
756.55	249.02
756.88	248.24
757.20	246.24
757.53	245.10
757.86	244.69
758.19	244.40
758.51	244.00
758.84	242.38
759.17	241.76
759.49	241.45
759.82	241.98
760.15	241.95
760.47	241.19
760.80	240.19
761.13	240.21
761.45	239.81
761.78	239.55
762.11	239.19
762.43	238.88
762.76	238.81
763.08	238.50
763.41	238.40
763.74	238.29
764.06	237.86
764.39	237.81
764.71	237.48
765.04	236.88
765.37	236.31
765.69	236.12
766.02	235.52
766.34	235.00
766.67	233.76
767.00	233.74
767.32	234.71
767.65	235.76
767.97	235.45
768.30	235.45
768.62	235.31
768.95	234.95
769.27	234.76
769.60	234.76
769.92	234.26
770.25	233.62
770.57	233.10
770.90	233.05
771.22	232.88
771.55	232.62
771.87	232.62
772.20	232.40
772.52	233.71
772.85	236.24
773.17	236.24
773.50	236.14
773.82	235.50
774.15	234.48
774.47	233.02
774.80	232.57
775.12	232.24
775.45	232.17
775.77	231.86
776.09	231.67
776.42	231.52
776.74	231.98
777.07	231.83
777.39	231.64
777.72	231.38
778.04	231.38
778.36	231.21
778.69	231.05
779.01	231.02
779.33	229.19
779.66	227.00
779.98	226.67
780.31	226.40
780.63	227.07
780.95	227.21
781.28	227.29
781.60	227.00
781.92	226.86
782.25	226.67
782.57	226.79
782.89	226.60
783.22	226.29
783.54	225.83
783.86	226.10
784.19	225.86
784.51	226.29
784.83	225.93
785.16	225.60
