SpectraSuite Data File
++++++++++++++++++++++++++++++++++++
Date: Tue Apr 02 18:38:00 EDT 2013
User: group
Dark Spectrum Present: No
Reference Spectrum Present: No
Number of Sampled Component Spectra: 1
Spectrometers: USB2E7196
Integration Time (usec): 580000 (USB2E7196)
Spectra Averaged: 2 (USB2E7196)
Boxcar Smoothing: 10 (USB2E7196)
Correct for Electrical Dark: No (USB2E7196)
Strobe/Lamp Enabled: No (USB2E7196)
Correct for Detector Non-linearity: No (USB2E7196)
Correct for Stray Light: No (USB2E7196)
Number of Pixels in Processed Spectrum: 2048
>>>>>Begin Processed Spectral Data<<<<<
339.09	0.00
339.48	195.50
339.86	193.00
340.24	194.50
340.63	194.50
341.01	231.50
341.39	198.50
341.78	209.50
342.16	214.50
342.54	200.00
342.93	197.26
343.31	207.02
343.69	207.57
344.07	208.40
344.46	209.24
344.84	210.12
345.22	209.05
345.60	209.60
345.99	209.67
346.37	209.55
346.75	209.88
347.13	209.83
347.52	209.88
347.90	210.48
348.28	210.45
348.66	210.81
349.05	209.88
349.43	210.17
349.81	210.38
350.19	210.52
350.57	210.60
350.96	210.83
351.34	211.21
351.72	211.24
352.10	211.19
352.48	210.93
352.87	210.69
353.25	210.79
353.63	210.71
354.01	210.76
354.39	210.62
354.77	210.95
355.15	211.76
355.54	211.67
355.92	211.24
356.30	211.48
356.68	212.60
357.06	213.05
357.44	212.81
357.82	212.90
358.20	213.90
358.58	214.14
358.97	214.07
359.35	214.38
359.73	214.90
360.11	215.00
360.49	215.19
360.87	215.21
361.25	215.50
361.63	216.38
362.01	216.55
362.39	216.67
362.77	216.60
363.15	216.40
363.53	216.45
363.91	216.64
364.29	216.62
364.67	214.86
365.05	214.76
365.43	215.26
365.81	215.52
366.19	215.60
366.57	216.14
366.95	216.14
367.33	215.55
367.71	215.36
368.09	215.86
368.47	215.88
368.85	215.93
369.23	216.38
369.61	215.60
369.99	216.05
370.37	216.33
370.75	217.52
371.13	217.31
371.51	217.17
371.89	217.33
372.27	217.38
372.65	217.60
373.03	217.71
373.41	217.36
373.78	217.02
374.16	215.88
374.54	215.21
374.92	214.98
375.30	215.14
375.68	214.81
376.06	214.71
376.44	214.50
376.82	214.64
377.19	214.38
377.57	214.38
377.95	213.74
378.33	213.52
378.71	212.31
379.09	212.71
379.47	213.21
379.84	213.05
380.22	212.79
380.60	212.50
380.98	212.29
381.36	212.26
381.73	212.00
382.11	212.33
382.49	212.45
382.87	212.29
383.25	212.33
383.62	214.90
384.00	214.40
384.38	214.69
384.76	215.40
385.13	216.17
385.51	216.17
385.89	216.12
386.27	216.26
386.64	216.38
387.02	216.07
387.40	215.55
387.78	215.55
388.15	215.83
388.53	215.62
388.91	215.86
389.29	215.81
389.66	216.12
390.04	215.69
390.42	216.05
390.79	216.19
391.17	216.19
391.55	213.64
391.92	213.67
392.30	213.86
392.68	213.07
393.05	212.90
393.43	212.93
393.81	212.95
394.18	212.76
394.56	212.95
394.94	213.17
395.31	213.19
395.69	213.88
396.06	214.07
396.44	214.52
396.82	214.21
397.19	214.79
397.57	214.71
397.95	215.62
398.32	215.19
398.70	215.60
399.07	216.14
399.45	216.21
399.82	216.36
400.20	216.19
400.58	216.12
400.95	215.33
401.33	216.00
401.70	217.38
402.08	217.57
402.45	217.69
402.83	218.38
403.20	218.79
403.58	218.69
403.95	219.00
404.33	219.45
404.71	219.86
405.08	221.62
405.46	222.10
405.83	222.31
406.21	222.69
406.58	223.07
406.96	223.17
407.33	223.98
407.70	224.95
408.08	226.93
408.45	228.14
408.83	229.38
409.20	229.48
409.58	229.24
409.95	230.48
410.33	231.38
410.70	231.62
411.08	232.88
411.45	234.10
411.82	235.26
412.20	237.12
412.57	240.02
412.95	239.74
413.32	241.86
413.69	243.43
414.07	245.36
414.44	247.52
414.82	249.95
415.19	252.55
415.56	255.10
415.94	256.79
416.31	259.83
416.68	262.76
417.06	266.76
417.43	270.79
417.81	274.83
418.18	278.98
418.55	283.71
418.93	288.55
419.30	293.31
419.67	298.48
420.04	303.43
420.42	308.33
420.79	316.29
421.16	322.81
421.54	330.71
421.91	337.98
422.28	345.10
422.66	352.67
423.03	361.38
423.40	369.57
423.77	378.17
424.15	386.81
424.52	395.98
424.89	405.95
425.26	414.79
425.64	423.52
426.01	433.64
426.38	443.83
426.75	455.14
427.13	466.21
427.50	477.67
427.87	489.50
428.24	501.02
428.61	511.40
428.99	524.24
429.36	536.95
429.73	550.29
430.10	563.81
430.47	578.07
430.85	590.90
431.22	606.02
431.59	623.02
431.96	638.26
432.33	655.07
432.70	671.45
433.08	691.29
433.45	710.76
433.82	728.64
434.19	748.93
434.56	768.52
434.93	787.48
435.30	806.90
435.68	828.02
436.05	849.05
436.42	869.21
436.79	888.81
437.16	909.31
437.53	931.38
437.90	952.88
438.27	973.81
438.64	996.36
439.01	1016.19
439.38	1034.10
439.75	1052.40
440.13	1072.76
440.50	1091.26
440.87	1106.79
441.24	1122.43
441.61	1140.48
441.98	1153.64
442.35	1168.83
442.72	1184.57
443.09	1200.29
443.46	1210.10
443.83	1216.74
444.20	1223.69
444.57	1230.50
444.94	1234.50
445.31	1239.33
445.68	1245.57
446.05	1248.19
446.42	1246.90
446.79	1246.26
447.16	1244.10
447.53	1243.31
447.90	1235.81
448.27	1229.14
448.64	1218.52
449.01	1211.02
449.37	1197.81
449.74	1184.88
450.11	1170.76
450.48	1152.95
450.85	1134.24
451.22	1118.79
451.59	1104.83
451.96	1090.64
452.33	1072.52
452.70	1056.10
453.07	1035.02
453.43	1012.55
453.80	992.45
454.17	973.52
454.54	954.74
454.91	935.40
455.28	915.19
455.65	897.45
456.02	882.45
456.38	867.83
456.75	849.07
457.12	832.98
457.49	817.90
457.86	800.86
458.23	788.79
458.59	775.21
458.96	761.24
459.33	748.40
459.70	735.95
460.07	726.19
460.43	714.43
460.80	703.86
461.17	695.02
461.54	685.45
461.91	675.67
462.27	665.71
462.64	656.90
463.01	648.26
463.38	640.00
463.74	628.38
464.11	620.19
464.48	613.88
464.85	606.95
465.21	601.90
465.58	596.26
465.95	588.24
466.32	582.05
466.68	575.69
467.05	569.57
467.42	562.81
467.78	555.88
468.15	549.83
468.52	545.62
468.88	538.76
469.25	532.98
469.62	529.40
469.98	525.60
470.35	521.69
470.72	517.98
471.08	513.02
471.45	509.50
471.82	506.50
472.18	502.10
472.55	499.07
472.92	494.55
473.28	491.05
473.65	488.64
474.02	485.55
474.38	483.38
474.75	481.12
475.11	478.98
475.48	477.43
475.85	475.79
476.21	473.45
476.58	472.29
476.94	471.21
477.31	469.31
477.67	467.50
478.04	466.02
478.41	464.90
478.77	466.64
479.14	465.40
479.50	464.93
479.87	464.55
480.23	464.17
480.60	463.76
480.96	464.02
481.33	465.17
481.69	465.26
482.06	465.60
482.42	465.71
482.79	466.48
483.15	467.14
483.52	468.67
483.88	469.62
484.25	470.62
484.61	471.74
484.98	472.83
485.34	475.12
485.71	477.43
486.07	479.48
486.44	479.57
486.80	481.93
487.17	483.79
487.53	486.67
487.90	489.69
488.26	493.55
488.62	497.12
488.99	499.38
489.35	503.05
489.72	506.26
490.08	510.05
490.44	513.62
490.81	518.26
491.17	521.95
491.54	526.50
491.90	531.55
492.26	536.26
492.63	541.76
492.99	546.10
493.36	551.31
493.72	556.95
494.08	562.64
494.45	568.64
494.81	575.31
495.17	581.45
495.54	588.14
495.90	594.33
496.26	600.55
496.63	607.62
496.99	614.52
497.35	621.62
497.72	629.50
498.08	637.26
498.44	644.60
498.80	653.02
499.17	660.86
499.53	668.81
499.89	677.88
500.26	686.50
500.62	695.45
500.98	704.81
501.34	713.88
501.71	723.17
502.07	732.81
502.43	741.83
502.79	750.98
503.16	760.26
503.52	769.57
503.88	779.36
504.24	789.10
504.60	799.76
504.97	810.29
505.33	820.17
505.69	831.76
506.05	842.26
506.41	852.10
506.78	862.67
507.14	872.38
507.50	882.64
507.86	892.95
508.22	903.12
508.59	912.57
508.95	923.00
509.31	933.98
509.67	944.21
510.03	954.14
510.39	964.38
510.75	974.36
511.12	984.64
511.48	994.74
511.84	1004.36
512.20	1013.26
512.56	1023.45
512.92	1033.48
513.28	1042.67
513.64	1051.88
514.00	1061.29
514.37	1070.83
514.73	1080.50
515.09	1089.60
515.45	1098.62
515.81	1106.98
516.17	1116.29
516.53	1124.07
516.89	1131.74
517.25	1140.33
517.61	1149.24
517.97	1157.62
518.33	1166.64
518.69	1174.95
519.05	1183.14
519.41	1190.86
519.77	1200.29
520.13	1207.43
520.49	1214.17
520.85	1221.45
521.21	1229.24
521.57	1236.95
521.93	1243.07
522.29	1250.90
522.65	1256.69
523.01	1263.17
523.37	1270.50
523.73	1276.83
524.09	1283.14
524.45	1289.52
524.81	1295.10
525.17	1301.29
525.53	1307.02
525.89	1311.33
526.25	1316.83
526.61	1320.83
526.97	1326.31
527.33	1330.31
527.68	1336.40
528.04	1342.07
528.40	1345.21
528.76	1349.29
529.12	1353.43
529.48	1358.62
529.84	1361.05
530.20	1366.26
530.56	1369.88
530.91	1373.98
531.27	1377.36
531.63	1381.38
531.99	1385.05
532.35	1388.26
532.71	1390.88
533.07	1394.45
533.42	1399.88
533.78	1403.19
534.14	1407.36
534.50	1410.00
534.86	1413.69
535.21	1415.64
535.57	1418.50
535.93	1421.71
536.29	1425.50
536.65	1427.86
537.00	1430.40
537.36	1434.12
537.72	1436.21
538.08	1438.21
538.44	1439.93
538.79	1442.52
539.15	1444.38
539.51	1446.21
539.87	1448.74
540.22	1450.67
540.58	1452.14
540.94	1451.76
541.29	1452.79
541.65	1453.12
542.01	1454.88
542.37	1454.95
542.72	1454.31
543.08	1453.26
543.44	1453.88
543.79	1451.45
544.15	1451.67
544.51	1452.52
544.87	1452.00
545.22	1451.57
545.58	1452.02
545.94	1451.57
546.29	1450.67
546.65	1449.81
547.01	1448.40
547.36	1447.17
547.72	1445.55
548.07	1444.50
548.43	1443.69
548.79	1441.98
549.14	1440.48
549.50	1439.83
549.86	1437.60
550.21	1436.62
550.57	1436.21
550.92	1434.31
551.28	1434.86
551.64	1433.93
551.99	1432.36
552.35	1430.79
552.70	1429.24
553.06	1427.71
553.41	1426.57
553.77	1426.48
554.13	1425.14
554.48	1425.14
554.84	1424.33
555.19	1422.60
555.55	1422.81
555.90	1421.14
556.26	1420.19
556.61	1419.71
556.97	1416.81
557.32	1415.95
557.68	1414.98
558.03	1414.07
558.39	1413.05
558.74	1410.74
559.10	1409.00
559.45	1406.74
559.81	1405.29
560.16	1404.05
560.52	1402.12
560.87	1400.10
561.23	1396.43
561.58	1397.79
561.94	1395.21
562.29	1393.19
562.64	1392.21
563.00	1388.64
563.35	1386.55
563.71	1384.95
564.06	1382.62
564.42	1381.45
564.77	1380.45
565.12	1379.40
565.48	1379.19
565.83	1378.21
566.19	1377.10
566.54	1374.43
566.89	1372.67
567.25	1371.81
567.60	1371.43
567.96	1371.36
568.31	1371.26
568.66	1371.69
569.02	1366.71
569.37	1364.26
569.72	1362.21
570.08	1360.40
570.43	1358.29
570.78	1356.60
571.14	1354.69
571.49	1352.60
571.84	1350.83
572.20	1347.98
572.55	1345.26
572.90	1341.19
573.26	1338.00
573.61	1335.67
573.96	1334.40
574.31	1331.43
574.67	1328.69
575.02	1324.71
575.37	1320.60
575.72	1316.52
576.08	1312.14
576.43	1308.86
576.78	1305.05
577.13	1301.86
577.49	1298.93
577.84	1295.71
578.19	1291.95
578.54	1288.69
578.90	1285.79
579.25	1281.50
579.60	1278.05
579.95	1274.14
580.30	1270.40
580.66	1267.48
581.01	1263.38
581.36	1258.88
581.71	1255.38
582.06	1252.10
582.42	1248.19
582.77	1243.57
583.12	1239.21
583.47	1234.90
583.82	1231.64
584.17	1228.64
584.53	1225.10
584.88	1221.00
585.23	1217.50
585.58	1213.05
585.93	1208.07
586.28	1204.17
586.63	1200.60
586.98	1196.50
587.34	1192.76
587.69	1188.64
588.04	1183.19
588.39	1178.83
588.74	1173.74
589.09	1169.71
589.44	1163.43
589.79	1158.76
590.14	1154.93
590.49	1150.81
590.84	1146.33
591.19	1141.57
591.54	1137.79
591.89	1132.40
592.25	1129.55
592.60	1124.43
592.95	1121.26
593.30	1116.81
593.65	1111.38
594.00	1106.76
594.35	1107.83
594.70	1103.12
595.05	1098.24
595.40	1094.38
595.75	1090.19
596.10	1086.93
596.45	1082.43
596.80	1078.60
597.15	1074.33
597.50	1070.02
597.85	1065.98
598.19	1061.52
598.54	1057.36
598.89	1051.81
599.24	1048.24
599.59	1042.67
599.94	1038.71
600.29	1033.81
600.64	1029.76
600.99	1026.50
601.34	1022.19
601.69	1012.07
602.04	1007.36
602.39	1002.79
602.74	998.90
603.08	994.64
603.43	990.79
603.78	986.12
604.13	981.40
604.48	976.64
604.83	972.64
605.18	968.12
605.53	964.76
605.87	960.52
606.22	956.90
606.57	951.98
606.92	946.57
607.27	942.38
607.62	938.19
607.96	934.26
608.31	930.12
608.66	926.40
609.01	922.62
609.36	919.45
609.70	916.12
610.05	911.62
610.40	907.57
610.75	902.81
611.10	898.86
611.44	894.90
611.79	890.83
612.14	886.21
612.49	881.19
612.83	875.93
613.18	871.50
613.53	866.90
613.88	862.67
614.22	858.21
614.57	852.98
614.92	848.74
615.27	844.24
615.61	838.81
615.96	833.71
616.31	828.62
616.65	824.31
617.00	819.33
617.35	814.76
617.70	809.67
618.04	805.19
618.39	800.79
618.74	796.71
619.08	792.29
619.43	787.98
619.78	784.07
620.12	780.31
620.47	776.24
620.82	772.14
621.16	768.05
621.51	765.81
621.85	762.21
622.20	758.55
622.55	754.24
622.89	751.21
623.24	748.43
623.59	745.14
623.93	741.19
624.28	737.76
624.62	736.45
624.97	734.36
625.32	730.24
625.66	726.21
626.01	722.48
626.35	719.69
626.70	715.38
627.04	712.10
627.39	708.26
627.73	705.67
628.08	702.24
628.43	698.55
628.77	693.93
629.12	690.48
629.46	686.83
629.81	683.62
630.15	679.69
630.50	675.21
630.84	671.29
631.19	667.10
631.53	663.71
631.88	657.48
632.22	652.52
632.57	649.74
632.91	646.52
633.26	643.33
633.60	638.93
633.95	636.17
634.29	632.43
634.64	629.36
634.98	625.05
635.32	622.26
635.67	619.81
636.01	616.74
636.36	613.38
636.70	610.45
637.05	607.12
637.39	604.24
637.73	601.07
638.08	598.71
638.42	595.74
638.77	592.81
639.11	589.62
639.45	586.50
639.80	583.40
640.14	580.50
640.49	577.02
640.83	574.36
641.17	571.38
641.52	568.60
641.86	565.64
642.20	563.50
642.55	560.21
642.89	556.71
643.23	553.29
643.58	551.21
643.92	547.48
644.26	544.62
644.61	541.26
644.95	538.43
645.29	534.90
645.64	532.67
645.98	529.10
646.32	527.14
646.66	524.33
647.01	521.26
647.35	518.69
647.69	516.50
648.04	513.67
648.38	511.26
648.72	508.50
649.06	505.71
649.41	502.12
649.75	498.90
650.09	496.12
650.43	493.57
650.78	490.05
651.12	487.50
651.46	485.00
651.80	482.76
652.14	480.02
652.49	478.50
652.83	475.17
653.17	472.74
653.51	469.90
653.85	467.86
654.20	465.26
654.54	462.26
654.88	459.36
655.22	457.76
655.56	455.02
655.90	452.55
656.25	450.38
656.59	448.55
656.93	446.52
657.27	445.40
657.61	442.74
657.95	441.19
658.29	439.24
658.64	437.64
658.98	435.12
659.32	433.07
659.66	430.33
660.00	428.79
660.34	426.83
660.68	424.74
661.02	422.60
661.36	420.45
661.70	418.48
662.05	416.95
662.39	415.05
662.73	414.00
663.07	413.38
663.41	411.55
663.75	409.07
664.09	407.50
664.43	404.83
664.77	403.43
665.11	401.24
665.45	399.48
665.79	397.88
666.13	396.55
666.47	395.00
666.81	393.26
667.15	391.19
667.49	390.00
667.83	389.12
668.17	387.76
668.51	386.40
668.85	385.10
669.19	384.21
669.53	382.02
669.87	380.00
670.21	377.67
670.55	376.21
670.89	376.24
671.23	374.86
671.57	373.36
671.91	372.29
672.25	371.02
672.58	370.45
672.92	367.95
673.26	366.62
673.60	365.21
673.94	364.33
674.28	362.90
674.62	361.83
674.96	360.10
675.30	358.74
675.64	357.60
675.97	356.50
676.31	354.71
676.65	353.26
676.99	352.62
677.33	351.31
677.67	350.26
678.01	347.83
678.34	346.43
678.68	345.62
679.02	343.95
679.36	342.50
679.70	340.43
680.04	339.50
680.37	337.93
680.71	336.69
681.05	335.00
681.39	334.24
681.73	332.74
682.06	331.33
682.40	330.05
682.74	329.33
683.08	328.93
683.42	327.31
683.75	326.83
684.09	325.17
684.43	323.86
684.77	322.52
685.10	321.90
685.44	320.79
685.78	319.40
686.12	318.69
686.45	317.74
686.79	316.76
687.13	316.29
687.46	315.33
687.80	314.88
688.14	314.05
688.48	313.19
688.81	312.48
689.15	312.05
689.49	310.83
689.82	309.62
690.16	307.55
690.50	306.67
690.83	305.45
691.17	304.07
691.51	303.40
691.84	302.64
692.18	301.55
692.52	300.79
692.85	300.26
693.19	300.26
693.52	299.55
693.86	298.57
694.20	297.64
694.53	297.07
694.87	295.95
695.21	295.07
695.54	294.19
695.88	292.74
696.21	291.19
696.55	290.74
696.88	289.95
697.22	289.52
697.56	289.33
697.89	288.33
698.23	288.17
698.56	287.31
698.90	286.88
699.23	285.98
699.57	285.33
699.90	284.10
700.24	282.38
700.58	281.48
700.91	281.10
701.25	281.76
701.58	281.45
701.92	281.24
702.25	280.52
702.59	279.64
702.92	279.36
703.26	279.10
703.59	278.24
703.93	279.24
704.26	278.98
704.60	278.24
704.93	277.38
705.26	276.33
705.60	276.17
705.93	274.81
706.27	274.79
706.60	274.50
706.94	274.83
707.27	273.88
707.61	273.33
707.94	272.55
708.27	270.43
708.61	269.45
708.94	268.36
709.28	267.86
709.61	267.21
709.94	266.71
710.28	266.14
710.61	265.69
710.95	263.26
711.28	263.81
711.61	263.26
711.95	263.40
712.28	262.81
712.61	262.07
712.95	263.00
713.28	262.98
713.61	262.02
713.95	261.10
714.28	261.05
714.61	260.60
714.95	260.00
715.28	259.17
715.61	258.57
715.95	258.52
716.28	257.74
716.61	257.67
716.95	256.90
717.28	256.45
717.61	256.17
717.94	255.79
718.28	253.81
718.61	253.38
718.94	252.57
719.27	252.29
719.61	252.14
719.94	250.98
720.27	249.60
720.60	249.05
720.94	248.48
721.27	248.24
721.60	248.29
721.93	248.02
722.27	248.83
722.60	249.00
722.93	248.24
723.26	248.12
723.59	247.48
723.93	247.60
724.26	247.24
724.59	247.02
724.92	246.86
725.25	247.14
725.59	246.62
725.92	246.57
726.25	246.19
726.58	245.83
726.91	245.36
727.24	245.69
727.57	245.45
727.91	244.98
728.24	244.74
728.57	243.93
728.90	244.05
729.23	242.79
729.56	243.29
729.89	243.17
730.22	243.00
730.55	242.48
730.89	242.05
731.22	241.93
731.55	241.12
731.88	241.12
732.21	240.40
732.54	240.17
732.87	239.83
733.20	239.88
733.53	239.69
733.86	239.60
734.19	238.64
734.52	238.83
734.85	240.00
735.18	239.50
735.51	240.02
735.84	239.83
736.17	240.29
736.50	238.81
736.83	241.02
737.16	240.55
737.49	240.93
737.82	240.71
738.15	240.50
738.48	240.60
738.81	240.10
739.14	239.79
739.47	239.57
739.80	239.26
740.13	238.95
740.46	238.26
740.79	237.74
741.12	237.74
741.45	237.19
741.78	235.83
742.11	236.05
742.44	235.45
742.77	235.50
743.10	235.07
743.43	234.81
743.75	232.17
744.08	234.83
744.41	234.14
744.74	233.57
745.07	233.07
745.40	233.17
745.73	233.93
746.06	233.88
746.39	233.86
746.71	233.81
747.04	233.36
747.37	233.10
747.70	233.19
748.03	233.02
748.36	233.45
748.68	233.29
749.01	232.69
749.34	232.74
749.67	232.36
750.00	232.67
750.33	234.36
750.65	234.45
750.98	231.67
751.31	231.79
751.64	232.05
751.97	233.07
752.29	232.76
752.62	231.62
752.95	231.45
753.28	231.07
753.60	230.67
753.93	231.55
754.26	231.74
754.59	231.24
754.91	230.98
755.24	230.40
755.57	230.05
755.90	230.10
756.22	229.50
756.55	229.02
756.88	228.07
757.20	226.38
757.53	225.74
757.86	225.74
758.19	225.81
758.51	225.33
758.84	224.36
759.17	224.17
759.49	224.29
759.82	224.98
760.15	225.21
760.47	225.10
760.80	224.21
761.13	224.40
761.45	224.33
761.78	224.31
762.11	224.17
762.43	224.21
762.76	223.86
763.08	224.29
763.41	224.31
763.74	224.45
764.06	224.33
764.39	224.45
764.71	224.14
765.04	223.81
765.37	223.83
765.69	223.74
766.02	223.64
766.34	223.24
766.67	222.40
767.00	222.71
767.32	223.83
767.65	224.76
767.97	224.33
768.30	224.33
768.62	224.07
768.95	223.76
769.27	223.48
769.60	223.74
769.92	223.00
770.25	222.50
770.57	222.10
770.90	222.05
771.22	221.79
771.55	222.14
771.87	222.05
772.20	221.60
772.52	223.05
772.85	225.38
773.17	225.50
773.50	225.36
773.82	224.74
774.15	223.76
774.47	222.50
774.80	222.33
775.12	222.17
775.45	222.33
775.77	222.62
776.09	222.79
776.42	222.67
776.74	223.36
777.07	223.48
777.39	223.57
777.72	223.24
778.04	223.40
778.36	222.86
778.69	223.00
779.01	223.21
779.33	221.57
779.66	219.10
779.98	218.81
780.31	218.95
780.63	219.52
780.95	219.79
781.28	219.71
781.60	219.40
781.92	219.52
782.25	219.14
782.57	218.95
782.89	218.69
783.22	218.55
783.54	218.07
783.86	218.21
784.19	218.00
784.51	218.55
784.83	218.12
785.16	217.90
785.48	217.67
785.80	217.74
786.12	218.07
786.45	218.02
786.77	218.10
787.09	217.95
787.42	217.14
787.74	217.14
788.06	217.17
