SpectraSuite Data File
++++++++++++++++++++++++++++++++++++
Date: Tue Apr 02 18:41:23 EDT 2013
User: group
Dark Spectrum Present: No
Reference Spectrum Present: No
Number of Sampled Component Spectra: 1
Spectrometers: USB2E7196
Integration Time (usec): 580000 (USB2E7196)
Spectra Averaged: 2 (USB2E7196)
Boxcar Smoothing: 10 (USB2E7196)
Correct for Electrical Dark: No (USB2E7196)
Strobe/Lamp Enabled: No (USB2E7196)
Correct for Detector Non-linearity: No (USB2E7196)
Correct for Stray Light: No (USB2E7196)
Number of Pixels in Processed Spectrum: 2048
>>>>>Begin Processed Spectral Data<<<<<
339.09	0.00
339.48	196.00
339.86	192.50
340.24	197.00
340.63	194.50
341.01	233.50
341.39	199.50
341.78	203.50
342.16	212.00
342.54	208.00
342.93	197.79
343.31	207.79
343.69	208.29
344.07	208.93
344.46	209.69
344.84	210.40
345.22	208.90
345.60	209.36
345.99	209.62
346.37	209.48
346.75	209.57
347.13	209.81
347.52	210.17
347.90	210.83
348.28	210.81
348.66	211.62
349.05	210.93
349.43	211.12
349.81	211.26
350.19	211.50
350.57	211.74
350.96	212.00
351.34	212.12
351.72	212.29
352.10	212.55
352.48	212.45
352.87	212.38
353.25	212.64
353.63	212.64
354.01	212.88
354.39	213.00
354.77	213.02
355.15	213.55
355.54	213.36
355.92	212.90
356.30	212.79
356.68	213.88
357.06	214.17
357.44	213.98
357.82	214.12
358.20	214.95
358.58	214.69
358.97	214.62
359.35	214.86
359.73	215.26
360.11	215.38
360.49	215.38
360.87	215.38
361.25	215.74
361.63	216.57
362.01	216.48
362.39	216.24
362.77	216.21
363.15	216.10
363.53	216.05
363.91	216.24
364.29	216.33
364.67	214.33
365.05	214.43
365.43	214.67
365.81	214.76
366.19	215.00
366.57	215.60
366.95	215.31
367.33	215.02
367.71	214.98
368.09	214.93
368.47	214.95
368.85	215.00
369.23	215.52
369.61	214.71
369.99	215.57
370.37	216.14
370.75	217.24
371.13	216.83
371.51	216.48
371.89	216.45
372.27	216.71
372.65	216.83
373.03	216.71
373.41	216.40
373.78	216.17
374.16	215.07
374.54	214.55
374.92	214.69
375.30	214.55
375.68	214.10
376.06	214.40
376.44	214.26
376.82	214.45
377.19	214.10
377.57	214.02
377.95	213.29
378.33	212.90
378.71	211.81
379.09	212.07
379.47	212.26
379.84	212.14
380.22	211.60
380.60	211.40
380.98	211.36
381.36	211.52
381.73	211.38
382.11	211.69
382.49	211.69
382.87	211.45
383.25	211.60
383.62	214.17
384.00	213.60
384.38	213.98
384.76	214.36
385.13	215.36
385.51	215.40
385.89	215.12
386.27	215.43
386.64	215.74
387.02	215.74
387.40	215.88
387.78	216.14
388.15	216.64
388.53	216.60
388.91	216.86
389.29	216.52
389.66	216.83
390.04	216.48
390.42	217.26
390.79	217.43
391.17	217.36
391.55	215.00
391.92	215.17
392.30	215.12
392.68	214.60
393.05	214.17
393.43	214.21
393.81	214.24
394.18	214.02
394.56	214.07
394.94	214.55
395.31	214.45
395.69	214.98
396.06	215.19
396.44	215.52
396.82	215.21
397.19	216.38
397.57	216.12
397.95	216.57
398.32	215.74
398.70	215.98
399.07	216.50
399.45	216.67
399.82	216.74
400.20	216.57
400.58	216.57
400.95	215.90
401.33	216.36
401.70	218.02
402.08	218.07
402.45	218.14
402.83	218.50
403.20	218.71
403.58	218.62
403.95	218.95
404.33	219.31
404.71	219.69
405.08	220.81
405.46	221.19
405.83	221.52
406.21	221.74
406.58	222.02
406.96	222.38
407.33	222.88
407.70	223.55
408.08	225.88
408.45	226.81
408.83	227.95
409.20	228.38
409.58	228.05
409.95	229.21
410.33	230.10
410.70	230.24
411.08	231.48
411.45	232.57
411.82	233.55
412.20	235.02
412.57	237.62
412.95	237.12
413.32	239.00
413.69	240.36
414.07	242.21
414.44	244.02
414.82	245.93
415.19	248.36
415.56	250.79
415.94	251.88
416.31	255.21
416.68	258.02
417.06	261.74
417.43	265.29
417.81	268.88
418.18	272.95
418.55	276.98
418.93	280.74
419.30	284.50
419.67	288.88
420.04	293.52
420.42	297.55
420.79	305.24
421.16	310.90
421.54	317.88
421.91	324.50
422.28	330.79
422.66	337.60
423.03	345.45
423.40	352.55
423.77	360.12
424.15	366.93
424.52	374.86
424.89	383.40
425.26	390.60
425.64	398.17
426.01	406.69
426.38	416.02
426.75	426.17
427.13	436.10
427.50	445.95
427.87	455.95
428.24	465.88
428.61	474.60
428.99	485.95
429.36	496.86
429.73	508.00
430.10	520.07
430.47	532.05
430.85	543.07
431.22	556.02
431.59	571.12
431.96	584.60
432.33	599.43
432.70	613.64
433.08	630.52
433.45	646.43
433.82	661.57
434.19	678.74
434.56	695.62
434.93	711.69
435.30	728.45
435.68	746.76
436.05	765.55
436.42	782.90
436.79	798.88
437.16	817.12
437.53	835.79
437.90	854.17
438.27	872.36
438.64	890.55
439.01	908.12
439.38	922.57
439.75	937.50
440.13	954.93
440.50	970.83
440.87	984.33
441.24	998.05
441.61	1013.69
441.98	1024.57
442.35	1037.10
442.72	1050.38
443.09	1064.05
443.46	1071.98
443.83	1077.14
444.20	1082.19
444.57	1088.69
444.94	1091.76
445.31	1095.26
445.68	1101.02
446.05	1102.60
446.42	1102.12
446.79	1100.90
447.16	1098.45
447.53	1097.76
447.90	1091.74
448.27	1085.33
448.64	1076.12
449.01	1069.95
449.37	1058.21
449.74	1046.79
450.11	1035.24
450.48	1020.67
450.85	1004.67
451.22	991.83
451.59	979.26
451.96	967.05
452.33	951.43
452.70	936.90
453.07	919.26
453.43	898.86
453.80	881.76
454.17	865.05
454.54	848.83
454.91	832.57
455.28	815.64
455.65	799.14
456.02	787.00
456.38	774.02
456.75	758.00
457.12	744.38
457.49	731.69
457.86	716.38
458.23	705.57
458.59	692.98
458.96	680.19
459.33	669.33
459.70	659.00
460.07	650.14
460.43	639.71
460.80	631.19
461.17	623.83
461.54	615.64
461.91	607.69
462.27	599.43
462.64	591.98
463.01	584.50
463.38	577.24
463.74	566.64
464.11	560.10
464.48	554.31
464.85	547.64
465.21	543.29
465.58	538.12
465.95	531.40
466.32	526.14
466.68	520.98
467.05	515.57
467.42	510.24
467.78	504.69
468.15	499.81
468.52	495.60
468.88	489.90
469.25	484.88
469.62	481.19
469.98	477.19
470.35	473.40
470.72	469.50
471.08	465.21
471.45	461.88
471.82	458.86
472.18	454.83
472.55	452.10
472.92	448.29
473.28	445.55
473.65	442.98
474.02	440.07
474.38	438.21
474.75	436.10
475.11	433.52
475.48	431.81
475.85	430.19
476.21	428.33
476.58	426.93
476.94	425.81
477.31	424.29
477.67	423.43
478.04	422.48
478.41	421.79
478.77	423.07
479.14	422.00
479.50	421.50
479.87	421.33
480.23	421.52
480.60	421.14
480.96	421.14
481.33	421.83
481.69	422.10
482.06	422.00
482.42	422.55
482.79	423.19
483.15	423.69
483.52	424.71
483.88	425.17
484.25	425.93
484.61	427.10
484.98	427.93
485.34	429.31
485.71	430.79
486.07	432.07
486.44	432.19
486.80	433.98
487.17	435.24
487.53	437.74
487.90	439.62
488.26	442.83
488.62	445.95
488.99	447.60
489.35	450.64
489.72	453.26
490.08	455.52
490.44	458.14
490.81	461.31
491.17	464.29
491.54	467.95
491.90	471.57
492.26	474.95
492.63	478.60
492.99	481.79
493.36	485.69
493.72	490.31
494.08	494.76
494.45	499.74
494.81	505.07
495.17	509.57
495.54	515.36
495.90	519.81
496.26	524.40
496.63	530.07
496.99	535.21
497.35	541.31
497.72	547.79
498.08	554.05
498.44	560.45
498.80	566.83
499.17	573.02
499.53	579.38
499.89	585.83
500.26	593.02
500.62	600.02
500.98	607.21
501.34	614.02
501.71	620.98
502.07	627.88
502.43	634.98
502.79	642.24
503.16	648.86
503.52	656.43
503.88	663.95
504.24	671.55
504.60	679.64
504.97	687.38
505.33	694.67
505.69	702.76
506.05	710.24
506.41	717.74
506.78	725.29
507.14	732.95
507.50	740.81
507.86	748.26
508.22	756.14
508.59	763.67
508.95	772.00
509.31	780.90
509.67	789.02
510.03	797.10
510.39	805.40
510.75	814.10
511.12	822.38
511.48	830.67
511.84	838.31
512.20	846.64
512.56	854.29
512.92	862.31
513.28	870.12
513.64	878.17
514.00	886.31
514.37	894.81
514.73	902.95
515.09	911.10
515.45	918.69
515.81	926.29
516.17	934.21
516.53	940.98
516.89	947.31
517.25	954.17
517.61	961.64
517.97	968.29
518.33	974.50
518.69	981.05
519.05	988.10
519.41	994.93
519.77	1002.26
520.13	1008.38
520.49	1014.45
520.85	1020.67
521.21	1027.38
521.57	1032.76
521.93	1037.60
522.29	1042.81
522.65	1048.48
523.01	1054.57
523.37	1060.10
523.73	1064.98
524.09	1070.88
524.45	1076.05
524.81	1080.83
525.17	1085.21
525.53	1090.02
525.89	1094.98
526.25	1099.95
526.61	1103.88
526.97	1108.55
527.33	1112.21
527.68	1118.45
528.04	1123.02
528.40	1127.00
528.76	1130.98
529.12	1135.93
529.48	1142.07
529.84	1147.93
530.20	1152.48
530.56	1157.05
530.91	1161.60
531.27	1167.00
531.63	1171.31
531.99	1175.45
532.35	1180.76
532.71	1185.07
533.07	1189.86
533.42	1195.60
533.78	1199.33
534.14	1204.45
534.50	1208.86
534.86	1212.90
535.21	1215.50
535.57	1220.52
535.93	1224.71
536.29	1229.62
536.65	1234.33
537.00	1237.17
537.36	1239.74
537.72	1243.52
538.08	1247.40
538.44	1250.90
538.79	1254.67
539.15	1257.71
539.51	1261.55
539.87	1264.98
540.22	1268.57
540.58	1272.00
540.94	1274.62
541.29	1278.31
541.65	1281.12
542.01	1284.90
542.37	1288.79
542.72	1292.05
543.08	1294.90
543.44	1298.45
543.79	1300.88
544.15	1304.05
544.51	1307.90
544.87	1311.95
545.22	1315.67
545.58	1319.05
545.94	1322.52
546.29	1325.62
546.65	1329.33
547.01	1331.57
547.36	1334.38
547.72	1337.98
548.07	1341.76
548.43	1343.76
548.79	1345.98
549.14	1348.24
549.50	1351.43
549.86	1354.17
550.21	1358.07
550.57	1361.40
550.92	1363.95
551.28	1367.71
551.64	1371.17
551.99	1374.81
552.35	1377.95
552.70	1380.45
553.06	1384.26
553.41	1387.67
553.77	1391.81
554.13	1395.95
554.48	1402.00
554.84	1407.43
555.19	1411.36
555.55	1415.55
555.90	1420.69
556.26	1426.26
556.61	1430.71
556.97	1433.64
557.32	1437.26
557.68	1441.40
558.03	1446.07
558.39	1451.26
558.74	1455.71
559.10	1459.67
559.45	1464.10
559.81	1468.19
560.16	1472.90
560.52	1477.12
560.87	1481.88
561.23	1485.90
561.58	1492.05
561.94	1496.29
562.29	1500.12
562.64	1505.24
563.00	1509.60
563.35	1514.50
563.71	1519.48
564.06	1525.40
564.42	1531.33
564.77	1538.05
565.12	1544.21
565.48	1551.60
565.83	1557.52
566.19	1562.62
566.54	1568.02
566.89	1573.57
567.25	1580.14
567.60	1587.14
567.96	1594.74
568.31	1601.57
568.66	1607.62
569.02	1611.48
569.37	1615.52
569.72	1621.43
570.08	1626.10
570.43	1631.57
570.78	1637.55
571.14	1642.43
571.49	1646.95
571.84	1652.00
572.20	1655.76
572.55	1659.90
572.90	1662.95
573.26	1666.81
573.61	1671.57
573.96	1676.26
574.31	1680.43
574.67	1684.76
575.02	1688.10
575.37	1689.74
575.72	1692.48
576.08	1696.45
576.43	1699.60
576.78	1703.69
577.13	1706.64
577.49	1710.33
577.84	1713.93
578.19	1717.02
578.54	1721.07
578.90	1724.88
579.25	1728.55
579.60	1731.81
579.95	1734.33
580.30	1737.00
580.66	1740.83
581.01	1743.86
581.36	1746.43
581.71	1748.52
582.06	1750.98
582.42	1753.93
582.77	1756.55
583.12	1759.45
583.47	1761.21
583.82	1763.88
584.17	1766.38
584.53	1769.38
584.88	1772.07
585.23	1774.69
585.58	1775.07
585.93	1776.50
586.28	1778.98
586.63	1780.12
586.98	1782.43
587.34	1784.86
587.69	1785.64
588.04	1786.69
588.39	1787.76
588.74	1787.79
589.09	1789.98
589.44	1790.40
589.79	1790.86
590.14	1792.31
590.49	1792.64
590.84	1793.02
591.19	1794.88
591.54	1796.38
591.89	1796.71
592.25	1798.79
592.60	1798.10
592.95	1799.79
593.30	1800.79
593.65	1799.62
594.00	1799.60
594.35	1804.67
594.70	1804.19
595.05	1805.71
595.40	1805.69
595.75	1806.00
596.10	1807.17
596.45	1806.62
596.80	1807.40
597.15	1808.31
597.50	1808.07
597.85	1809.26
598.19	1808.81
598.54	1807.19
598.89	1806.40
599.24	1806.43
599.59	1804.93
599.94	1804.24
600.29	1804.05
600.64	1802.74
600.99	1803.05
601.34	1803.83
601.69	1798.48
602.04	1797.79
602.39	1795.90
602.74	1795.52
603.08	1793.71
603.43	1794.00
603.78	1792.90
604.13	1791.33
604.48	1788.90
604.83	1787.60
605.18	1786.19
605.53	1785.50
605.87	1784.38
606.22	1782.67
606.57	1780.45
606.92	1778.26
607.27	1777.24
607.62	1775.10
607.96	1772.52
608.31	1770.93
608.66	1768.50
609.01	1765.83
609.36	1764.17
609.70	1761.86
610.05	1758.62
610.40	1756.02
610.75	1751.76
611.10	1749.40
611.44	1745.60
611.79	1742.62
612.14	1739.19
612.49	1734.48
612.83	1730.83
613.18	1727.45
613.53	1723.05
613.88	1718.24
614.22	1714.05
614.57	1709.17
614.92	1704.93
615.27	1701.17
615.61	1695.83
615.96	1691.36
616.31	1686.83
616.65	1683.31
617.00	1679.10
617.35	1675.26
617.70	1670.29
618.04	1665.90
618.39	1660.93
618.74	1657.69
619.08	1652.74
619.43	1648.50
619.78	1643.14
620.12	1638.98
620.47	1633.86
620.82	1629.29
621.16	1624.62
621.51	1620.17
621.85	1615.40
622.20	1610.64
622.55	1605.55
622.89	1601.36
623.24	1597.31
623.59	1592.45
623.93	1586.93
624.28	1582.10
624.62	1578.86
624.97	1576.00
625.32	1571.67
625.66	1566.90
626.01	1561.52
626.35	1558.02
626.70	1553.29
627.04	1550.26
627.39	1544.71
627.73	1541.05
628.08	1536.81
628.43	1532.67
628.77	1527.79
629.12	1524.62
629.46	1520.21
629.81	1515.07
630.15	1509.79
630.50	1503.64
630.84	1497.81
631.19	1491.95
631.53	1486.52
631.88	1478.26
632.22	1471.98
632.57	1467.33
632.91	1461.69
633.26	1455.71
633.60	1448.50
633.95	1442.36
634.29	1436.07
634.64	1430.76
634.98	1424.86
635.32	1420.26
635.67	1416.00
636.01	1410.98
636.36	1403.67
636.70	1397.67
637.05	1393.67
637.39	1388.79
637.73	1384.21
638.08	1380.36
638.42	1375.29
638.77	1370.00
639.11	1365.50
639.45	1359.57
639.80	1351.93
640.14	1346.12
640.49	1340.57
640.83	1335.05
641.17	1329.55
641.52	1323.64
641.86	1318.38
642.20	1312.83
642.55	1305.19
642.89	1298.10
643.23	1290.50
643.58	1285.60
643.92	1278.45
644.26	1270.64
644.61	1264.31
644.95	1257.36
645.29	1250.26
645.64	1243.81
645.98	1237.52
646.32	1231.21
646.66	1224.43
647.01	1219.02
647.35	1213.31
647.69	1207.12
648.04	1201.52
648.38	1195.02
648.72	1188.71
649.06	1181.45
649.41	1174.00
649.75	1167.81
650.09	1161.05
650.43	1155.45
650.78	1148.07
651.12	1142.64
651.46	1136.76
651.80	1129.48
652.14	1122.67
652.49	1116.52
652.83	1109.60
653.17	1102.21
653.51	1095.19
653.85	1088.71
654.20	1081.71
654.54	1074.67
654.88	1067.62
655.22	1061.21
655.56	1054.14
655.90	1047.52
656.25	1040.81
656.59	1034.74
656.93	1028.76
657.27	1023.02
657.61	1016.38
657.95	1010.76
658.29	1004.60
658.64	998.50
658.98	992.26
659.32	984.98
659.66	977.93
660.00	971.67
660.34	966.05
660.68	959.88
661.02	953.76
661.36	947.98
661.70	941.57
662.05	935.93
662.39	930.29
662.73	925.21
663.07	919.55
663.41	914.02
663.75	907.90
664.09	901.86
664.43	895.52
664.77	889.81
665.11	882.93
665.45	877.02
665.79	871.50
666.13	865.90
666.47	861.12
666.81	855.83
667.15	849.95
667.49	844.07
667.83	838.95
668.17	833.83
668.51	827.88
668.85	822.60
669.19	817.93
669.53	811.57
669.87	805.48
670.21	799.76
670.55	793.76
670.89	789.26
671.23	783.83
671.57	778.10
671.91	772.88
672.25	768.02
672.58	763.43
672.92	757.29
673.26	752.29
673.60	747.31
673.94	742.00
674.28	737.21
674.62	733.29
674.96	728.26
675.30	723.38
675.64	719.10
675.97	714.45
676.31	709.74
676.65	704.81
676.99	701.31
677.33	696.40
677.67	692.81
678.01	687.71
678.34	683.38
678.68	679.60
679.02	674.90
679.36	670.57
679.70	665.40
680.04	660.86
680.37	656.40
680.71	651.55
681.05	647.76
681.39	643.29
681.73	638.26
682.06	633.76
682.40	629.24
682.74	625.38
683.08	621.93
683.42	616.76
683.75	612.64
684.09	607.64
684.43	603.67
684.77	599.12
685.10	594.98
685.44	590.50
685.78	585.62
686.12	581.43
686.45	577.00
686.79	572.52
687.13	569.38
687.46	565.02
687.80	561.62
688.14	556.93
688.48	553.50
688.81	549.52
689.15	546.19
689.49	542.36
689.82	538.07
690.16	532.90
690.50	529.14
690.83	525.76
691.17	521.45
691.51	517.45
691.84	514.24
692.18	510.50
692.52	506.93
692.85	503.93
693.19	501.12
693.52	497.76
693.86	493.76
694.20	490.00
694.53	486.74
694.87	482.93
695.21	480.14
695.54	476.48
695.88	473.10
696.21	468.74
696.55	465.38
696.88	461.93
697.22	459.19
697.56	456.43
697.89	452.67
698.23	450.14
698.56	447.07
698.90	443.69
699.23	440.45
699.57	437.90
699.90	434.86
700.24	431.50
700.58	428.60
700.91	426.74
701.25	425.79
701.58	424.12
701.92	421.90
702.25	418.52
702.59	415.67
702.92	412.95
703.26	410.79
703.59	408.45
703.93	407.98
704.26	406.12
704.60	403.64
704.93	401.69
705.26	399.36
705.60	397.62
705.93	395.07
706.27	393.29
706.60	391.36
706.94	389.83
707.27	387.60
707.61	385.76
707.94	383.12
708.27	379.36
708.61	376.43
708.94	374.48
709.28	373.21
709.61	371.43
709.94	369.62
710.28	368.00
710.61	366.19
710.95	362.21
711.28	361.31
711.61	359.52
711.95	358.19
712.28	356.00
712.61	354.12
712.95	353.45
713.28	352.40
713.61	350.19
713.95	347.74
714.28	346.38
714.61	344.48
714.95	343.36
715.28	341.31
715.61	339.64
715.95	338.10
716.28	336.02
716.61	334.86
716.95	333.43
717.28	331.83
717.61	330.36
717.94	329.26
718.28	326.10
718.61	324.07
718.94	321.93
719.27	320.60
719.61	319.31
719.94	317.26
720.27	314.98
720.60	313.52
720.94	312.31
721.27	310.67
721.60	309.86
721.93	308.24
722.27	308.10
722.60	307.05
722.93	305.40
723.26	304.40
723.59	302.90
723.93	301.93
724.26	300.93
724.59	299.57
724.92	298.62
725.25	298.29
725.59	297.62
725.92	297.21
726.25	296.33
726.58	295.21
726.91	294.29
727.24	293.45
727.57	292.81
727.91	291.60
728.24	290.88
728.57	289.57
728.90	289.02
729.23	287.45
729.56	287.60
729.89	286.90
730.22	286.00
730.55	285.29
730.89	284.21
731.22	283.24
731.55	282.52
731.88	281.93
732.21	280.81
732.54	279.81
732.87	278.86
733.20	278.33
733.53	277.79
733.86	277.36
734.19	276.19
734.52	275.26
734.85	276.10
735.18	275.33
735.51	275.55
735.84	274.95
736.17	274.79
736.50	273.00
736.83	274.95
737.16	274.40
737.49	273.81
737.82	273.31
738.15	272.81
738.48	272.07
738.81	271.17
739.14	270.31
739.47	269.67
739.80	268.95
740.13	268.38
740.46	267.79
740.79	266.52
741.12	266.26
741.45	265.69
741.78	263.95
742.11	263.76
742.44	262.45
742.77	262.00
743.10	260.98
743.43	260.26
743.75	257.12
744.08	259.14
744.41	258.07
744.74	257.38
745.07	256.50
745.40	256.26
745.73	256.33
746.06	255.93
746.39	255.60
746.71	255.12
747.04	254.40
747.37	253.62
747.70	253.52
748.03	253.00
748.36	252.88
748.68	252.36
749.01	251.17
749.34	250.64
749.67	250.21
750.00	250.02
750.33	251.26
750.65	251.31
750.98	248.24
751.31	248.10
751.64	247.67
751.97	248.52
752.29	248.05
752.62	246.93
752.95	246.62
753.28	246.10
753.60	245.55
753.93	245.62
754.26	245.26
754.59	244.36
754.91	243.81
755.24	243.24
755.57	242.98
755.90	242.88
756.22	242.33
756.55	241.64
756.88	240.81
757.20	238.93
757.53	237.74
757.86	237.31
758.19	237.40
758.51	237.48
758.84	236.05
759.17	235.64
759.49	235.52
759.82	236.12
760.15	236.12
760.47	235.71
760.80	234.88
761.13	234.90
761.45	234.81
761.78	234.52
762.11	234.24
762.43	233.50
762.76	233.02
763.08	233.21
763.41	233.07
763.74	233.17
764.06	232.93
764.39	232.86
764.71	232.74
765.04	232.02
765.37	231.38
765.69	231.05
766.02	230.71
766.34	230.31
766.67	229.17
767.00	229.21
767.32	230.19
767.65	231.36
767.97	231.02
768.30	230.76
768.62	230.74
768.95	230.31
769.27	230.17
769.60	230.52
769.92	229.88
770.25	229.57
770.57	228.98
770.90	228.90
771.22	228.74
771.55	228.79
771.87	228.60
772.20	228.38
772.52	230.10
772.85	232.40
773.17	232.26
773.50	232.14
773.82	231.62
774.15	230.71
774.47	229.00
774.80	228.64
775.12	228.57
775.45	228.29
775.77	228.19
776.09	228.33
776.42	228.10
776.74	228.52
777.07	228.19
777.39	228.31
777.72	228.07
778.04	228.26
778.36	227.81
778.69	228.14
779.01	228.29
779.33	226.48
779.66	224.14
779.98	223.81
780.31	223.64
780.63	224.29
780.95	224.21
781.28	224.17
781.60	223.86
781.92	223.81
782.25	223.69
782.57	223.71
782.89	223.43
783.22	223.07
783.54	222.74
783.86	222.69
784.19	222.31
784.51	222.86
784.83	222.36
785.16	222.21
